#   1 NUMBER                 Running object number                                     
#   2 MAG_AUTO               Kron-like elliptical aperture magnitude                    [mag]
#   3 X_IMAGE                Object position along x                                    [pixel]
#   4 Y_IMAGE                Object position along y                                    [pixel]
#   5 X_WORLD                Barycenter position along world x axis                     [deg]
#   6 Y_WORLD                Barycenter position along world y axis                     [deg]
#   7 A_WORLD                Profile RMS along major axis (world units)                 [deg]
#   8 B_WORLD                Profile RMS along minor axis (world units)                 [deg]
#   9 THETA_WORLD            Position angle (CCW/world-x)                               [deg]
#  10 FWHM_WORLD             FWHM assuming a gaussian core                              [deg]
#  11 ELONGATION             A_IMAGE/B_IMAGE                                           
#  12 ELLIPTICITY            1 - B_IMAGE/A_IMAGE                                       
         1 -15.0781    203.0133    180.5102   1.0885208865e+02   6.2108960156e+00     4.376234      2.19808 -37.79   0.02013462    2.170    0.539
         2 -14.8466    225.7111    176.6899   1.0392690410e+02   2.4759037333e+00     4.681322     1.316263 -36.00   0.01657447    3.707    0.730
         3 -16.3448    244.6236    125.1064   8.9584409257e+01   6.5523885720e+00     15.89907     2.107573 -33.97   0.03672956    6.906    0.855
         4  -9.1290    143.4554    217.0005   1.2634005334e+02   1.1291211013e+01    0.1679508    0.1256173 -59.04  0.000601724    1.604    0.377
         5  -8.8441    170.4201    235.2051   1.2378890137e+02   3.9525453609e+00    0.1404389    0.1158879 -72.79 0.0009421429    1.663    0.399
         6  -9.5664    219.9090    233.6951   1.1489876931e+02  -3.9839825162e+00    0.2764703    0.1773932  59.61  0.001515903    2.484    0.597
         7  -9.1228    213.5437    233.4911   1.1595642190e+02  -2.9425057934e+00    0.1190958   0.09291381  29.60 0.0002943691    1.019    0.018
         8  -9.8050    195.4878    232.0338   1.1888521652e+02   1.9273141263e-01    0.2561327    0.1203687 -40.50  0.001340554    2.647    0.622
         9  -9.0265    158.5325    231.4990   1.2544622309e+02   6.4721075756e+00    0.1849425    0.1167393 -67.13  0.001027426    2.374    0.579
        10  -9.3654    177.1117    230.1993   1.2190245998e+02   3.5216571543e+00      0.23119    0.1584367 -60.53  0.001113967    2.119    0.528
        11  -9.7449    229.4824    228.1980   1.1241895828e+02  -4.8693511979e+00    0.2788998    0.2030159  61.33  0.001670637    2.217    0.549
        12  -9.4978    211.2342    227.6023   1.1545697365e+02  -1.8551663501e+00    0.1936161    0.1651628 -21.73  0.001009942    1.375    0.273
        13  -9.4387    167.5066    227.5485   1.2327937883e+02   5.5296123540e+00    0.2107257    0.1248056 -48.48  0.001166482    2.126    0.530
        14  -9.3467    162.4959    227.5418   1.2419650377e+02   6.3842280451e+00    0.1833991    0.1187549 -65.85  0.001023067    2.272    0.560
        15  -9.6616    218.3606    225.4853   1.1388921580e+02  -2.7646840777e+00    0.2115545     0.195527  63.69 0.0009856705    1.534    0.348
        16  -8.6857    196.2825    225.6051   1.1778964477e+02   8.9614293314e-01    0.1129855   0.09239615  73.48 0.0006998043    1.760    0.432
        17 -10.2032    194.7837    220.6655   1.1730446762e+02   1.8140324012e+00    0.2650718    0.2077564 -56.06  0.001435303    1.773    0.436
        18  -8.7895    156.4559    225.4926   1.2503397218e+02   7.7204589773e+00    0.1248145    0.1005047  45.80 0.0001241879    1.009    0.009
        19  -8.3919    197.6355    247.3438   1.2066770427e+02  -2.0354351363e+00    0.1120358   0.08135692  61.68  0.000702743    1.851    0.460
        20  -8.8417    156.5126    196.5021   1.2079143771e+02   1.2424908351e+01    0.1346829    0.1156104  49.64 0.0008104978    1.017    0.017
        21  -9.8036    172.0000    194.9332   1.1746132729e+02   9.8034789119e+00    0.1937011   0.07787534 -45.01 0.0005198341    2.873    0.652
        22  -9.6701    162.4146    194.0211   1.1921099840e+02   1.1754976374e+01    0.1834641    0.1333147 -47.16 0.0007775458    1.587    0.370
        23  -9.1483    168.0000    192.9308   1.1791676965e+02   1.0891728020e+01    0.1962475   0.07831935 -45.81 0.0007938403    2.883    0.653
        24  -9.7978    160.5753    202.7379   1.2096616989e+02   1.0619903843e+01    0.2188045     0.129515 -42.90  0.001125531    2.024    0.506
        25  -8.6950    171.2592    190.6252   1.1687773319e+02   1.0665330910e+01    0.1296007    0.1033883  84.50 0.0004639455    1.658    0.397
        26  -8.8960    154.7065    189.6462   1.2004757534e+02   1.3967967246e+01    0.1313068    0.1051553   6.12 0.0006910948    1.685    0.406
        27  -9.2282    174.3956    188.2624   1.1584487904e+02   1.0466533999e+01    0.1694584    0.1315269 -57.74 0.0009379874    1.560    0.359
        28  -9.6791    166.2812    186.9506   1.1724302410e+02   1.2246827634e+01    0.1822604    0.1756727  33.96 0.0006140584    1.102    0.092
        29  -9.2364    177.9558    243.2860   1.2352272181e+02   1.6290056430e+00    0.1974321     0.141075  89.59  0.001132672    2.603    0.616
        30 -10.1780    176.2900    208.9946   1.1891210301e+02   6.7659366384e+00    0.1939008    0.1640656  57.92 0.0005871822    1.236    0.191
        31  -8.9230    194.5158    239.4837   1.2012068923e+02  -5.8660338456e-01    0.1193781   0.09241821  36.53 0.0008100579    1.031    0.030
        32  -9.0846    162.4593    184.0289   1.1751317377e+02   1.3496585430e+01     0.191952    0.1379082 -47.52 0.0005926357    1.570    0.363
        33 -10.0979    160.4223    211.2030   1.2227675262e+02   9.2627489444e+00    0.2499608    0.1613724 -46.16  0.001200472    1.864    0.463
        34  -8.9289    149.3537    212.2903   1.2456233955e+02   1.1042764914e+01    0.1248413   0.09408843  20.37 0.0004966721    1.677    0.404
        35  -9.3095    154.4870    213.9872   1.2381699689e+02   9.8642901308e+00    0.1691131    0.1285674 -52.45  0.001031142    1.586    0.369
        36 -10.3795    183.5789    207.2708   1.1725924273e+02   5.7136326383e+00    0.2036031     0.127864 -47.08 0.0007838656    1.937    0.484
        37  -9.8847    170.6188    176.2097   1.1443618648e+02   1.3298958620e+01     0.183406    0.1331439 -30.86 0.0009018641    1.634    0.388
        38  -9.0779    138.6301    206.7577   1.2587534576e+02   1.3860892426e+01    0.1615041    0.1205771 -72.58 0.0006655359    1.596    0.374
        39 -10.4661    186.2751    200.9317   1.1570565599e+02   6.1888788415e+00    0.3754764    0.1814623 -47.03  0.001506865    2.523    0.604
        40  -9.4203    171.0000    204.9929   1.1929346699e+02   8.3512992097e+00    0.1870307   0.07608657 -45.46 0.0006786672    2.908    0.656
        41  -9.4954    167.1653    205.0239   1.2003876377e+02   9.0444392298e+00     0.193469    0.1462088 -89.26 0.0005974575    1.912    0.477
        42  -8.7402    176.2846    169.3501   1.1197036879e+02   1.3391515048e+01    0.1415058    0.1093878   5.66 0.0003504691    1.656    0.396
        43  -8.6616    158.5018    169.5002   1.1571402457e+02   1.6947223239e+01    0.1423926    0.1301908  44.97 0.0008104561    1.034    0.033
        44  -8.8414    164.4990    172.5102   1.1501379266e+02   1.5187641054e+01    0.1417405    0.1286545  45.88 0.0005899124    1.005    0.005
        45  -9.4281    149.1672    205.1949   1.2357751179e+02   1.2266383026e+01    0.1825032    0.1404576  66.56 0.0007480854    1.355    0.262
        46  -9.7021    175.7726    204.1101   1.1823505669e+02   7.6203758101e+00    0.1920337     0.167828  62.25 0.0007607134    1.242    0.195
        47  -8.8950    179.4795    166.4864   1.1075315766e+02   1.3253926885e+01    0.1423594    0.1314185  45.63 5.272178e-05    1.044    0.042
        48 -10.6190    177.5070    183.9655   1.1446199519e+02   1.0594951912e+01    0.2861656    0.1370957 -40.53   0.00110287    2.378    0.579
        49  -9.1773    181.3073    202.6748   1.1694201836e+02   6.8317204552e+00    0.1841042    0.1367906 -46.47 0.0006947214    1.602    0.376
        50  -9.6292    180.4934    199.0208   1.1649211278e+02   7.5553473060e+00     0.249337    0.1329326 -43.13  0.001072995    2.179    0.541
        51 -10.4507    181.2236    195.0096   1.1567193327e+02   8.0591546401e+00    0.2757947    0.1736872 -35.01 0.0008054314    1.875    0.467
        52 -10.3654    188.5594    205.6739   1.1606190436e+02   5.0527068303e+00    0.2460807    0.1763828 -22.91   0.00104075    1.711    0.416
        53  -9.6142    205.8504    224.1171   1.1586154670e+02  -5.2274532346e-01    0.1811557    0.1463559  43.95 0.0006835909    1.231    0.188
        54 -11.2968    192.7400    210.6396   1.1609327839e+02   3.5745367922e+00    0.5500552    0.2069202 -46.84  0.002299107    3.485    0.713
        55  -9.9647    176.1060    197.6429   1.1711116651e+02   8.5915579274e+00    0.4459929   0.08118577 -42.82  0.001242467    6.580    0.848
        56  -9.3604    176.6063    212.8285   1.1944750924e+02   6.1248297443e+00    0.2038773    0.1245136 -58.97 0.0009156598    2.374    0.579
        57  -9.7803    167.3992    197.2576   1.1875209003e+02   1.0276597193e+01    0.2239397    0.1299071 -40.54 0.0009386553    2.050    0.512
        58  -9.0054    185.2689    223.6096   1.1947487469e+02   3.0455377968e+00    0.1673042    0.1508539  86.71 0.0006942205    1.474    0.321
        59  -8.8454    183.7762    219.9783   1.1920420214e+02   3.8143764473e+00    0.2047457    0.1153625 -50.09 0.0007960778    2.336    0.572
        60  -9.3620    175.1938    222.9840   1.2122488819e+02   4.8713711590e+00    0.1831737    0.1385236  85.13  0.001061104    2.023    0.506
        61  -9.1789    147.0174    223.2289   1.2649086824e+02   9.6787974866e+00    0.1688776    0.1284544  84.75  0.001033239    1.639    0.390
        62  -9.7560    144.4145    196.2933   1.2319257351e+02   1.4679214347e+01    0.2271385    0.1282757 -45.62  0.001119116    2.107    0.525
        63  -9.0542    157.4647    219.9581   1.2409144765e+02   8.3982135966e+00    0.1609045    0.1070169 -85.51 0.0008095012    2.568    0.611
        64  -8.9068    169.4958    218.5191   1.2163233335e+02   6.5218568977e+00    0.1276073    0.1040426  45.48 0.0001335169    1.046    0.044
        65  -9.7721    179.7946    217.1170   1.1950637315e+02   4.9232880182e+00    0.1847802    0.1561093  58.49 0.0006836868    1.279    0.218
        66 -10.3650    169.8382    213.1913   1.2077913776e+02   7.2739196092e+00    0.2614237    0.2346047 -20.25  0.001232155    1.343    0.255
