#   1 NUMBER                 Running object number                                     
#   2 MAG_AUTO               Kron-like elliptical aperture magnitude                    [mag]
#   3 X_IMAGE                Object position along x                                    [pixel]
#   4 Y_IMAGE                Object position along y                                    [pixel]
#   5 X_WORLD                Barycenter position along world x axis                     [deg]
#   6 Y_WORLD                Barycenter position along world y axis                     [deg]
#   7 A_WORLD                Profile RMS along major axis (world units)                 [deg]
#   8 B_WORLD                Profile RMS along minor axis (world units)                 [deg]
#   9 THETA_WORLD            Position angle (CCW/world-x)                               [deg]
#  10 FWHM_WORLD             FWHM assuming a gaussian core                              [deg]
#  11 ELONGATION             A_IMAGE/B_IMAGE                                           
#  12 ELLIPTICITY            1 - B_IMAGE/A_IMAGE                                       
         1 -13.7503    177.3285     27.6012   7.4025256870e+01   3.7840338051e+01     1.203787    0.8533748   9.34  0.005009328    1.866    0.464
         2 -12.9537    181.5234     20.3007   7.1134917367e+01   3.7580887376e+01    0.7337675     0.634315 -23.89   0.00142192    1.261    0.207
         3 -19.3378     38.2016    133.6228   1.3842729062e+02   4.4164007112e+01     18.69141     1.147551 -68.44   0.03322685   14.664    0.932
         4 -17.0066    188.7151    242.2604   1.2151182787e+02   1.0275241574e-02     23.03482     2.370341  44.39   0.05611258    8.366    0.880
         5 -10.2717    166.9870    211.4559   1.2105941311e+02   8.0520905872e+00    0.2507502    0.1652219 -73.08  0.001265682    2.502    0.600
         6 -12.7036    105.9640    209.2547   1.3261898425e+02   1.8880630636e+01    0.5216748    0.4253205  46.31  0.003424659    1.227    0.185
         7 -12.6105    108.9270    200.3852   1.3095467552e+02   2.0060911711e+01     0.634959     0.484962 -83.50  0.003917648    1.360    0.265
         8 -10.7162     91.9141    211.1134   1.3555308876e+02   2.0706759593e+01    0.1980427    0.1521815  65.01 0.0006194143    1.042    0.041
         9 -11.6161     91.1451    202.6438   1.3478499651e+02   2.2423410510e+01    0.3897329    0.2196206 -87.35  0.001907337    2.132    0.531
        10 -11.9288     87.6611    205.6073   1.3579537380e+02   2.2377527337e+01    0.4440967    0.2448998  75.06  0.002287796    2.081    0.519
        11 -13.3539     82.0046    196.9805   1.3598976228e+02   2.4884893018e+01    0.6829478    0.6067978 -80.94  0.003016075    1.268    0.211
        12  -9.3061      9.8667    214.2770   1.5070313211e+02   3.0187403388e+01    0.1217692   0.08407421  37.38 0.0005689095    1.778    0.437
        13 -10.1238      1.8697    197.5461   1.5128801044e+02   3.4055872735e+01    0.2183876   0.09400158  80.64   0.00122629    1.887    0.470
        14 -11.8623      7.6408    228.0331   1.5167096011e+02   2.7938981894e+01    0.1944029    0.1641384  38.26 0.0008557691    1.770    0.435
        15 -14.7224    245.9624    197.0586   1.0429934710e+02  -3.8235836103e+00     2.222528    0.8353119 -28.19  0.009776201    2.913    0.657
        16 -11.6765     12.7721    183.6253   1.4854097895e+02   3.5812398361e+01    0.4109004    0.2449345  80.68  0.001614731    1.291    0.225
        17 -11.5313     96.2146    186.4652   1.3180418207e+02   2.4838120723e+01    0.2336064    0.1741166 -72.66 0.0009640231    1.355    0.262
        18 -11.2884     90.4892    181.1279   1.3233534457e+02   2.6827514955e+01    0.3678607    0.2395544 -42.22  0.001808256    2.221    0.550
        19 -11.1435     93.1324    175.8243   1.3105379828e+02   2.7524023218e+01    0.3076102    0.2311279 -42.58 0.0008813743    1.781    0.438
        20 -11.1228     99.0511    180.9637   1.3046752787e+02   2.5510567763e+01     0.297637    0.1890014  36.07   0.00125177    1.715    0.417
        21 -12.4804    229.3645    171.7529   1.0229383435e+02   2.5127267563e+00    0.4521226    0.3838592  49.16  0.002719731    1.328    0.247
        22 -12.6275     99.2029    168.0079   1.2857668138e+02   2.8207770940e+01    0.5985731    0.4768389  82.25   0.00349105    1.195    0.163
        23 -13.4998    237.0461    162.6440   9.9089136403e+01   2.3983340024e+00    0.8963417     0.541676 -35.87  0.004584789    1.677    0.404
        24 -12.4445     70.1286    163.2023   1.3453223020e+02   3.3650754729e+01    0.7387737    0.2255945 -54.97  0.002837596    3.319    0.699
        25 -12.1201     72.4824    153.2689   1.3263231684e+02   3.5531134290e+01    0.5261168    0.2822136 -82.78   0.00241979    2.159    0.537
        26 -13.3754     68.8083    143.9216   1.3215934376e+02   3.8155600212e+01    0.7502489    0.4149674  69.25  0.003010466    2.239    0.553
        27 -10.1591     21.5382    214.6099   1.4874067203e+02   2.8964011052e+01     0.204456    0.1056761  42.20  0.001043476    1.820    0.450
        28  -9.5023      3.5625    162.1949   1.4902379690e+02   4.0996831676e+01    0.1476372    0.0786092 -70.99 0.0007185782    1.597    0.374
        29 -12.7712    102.1979    157.0910   1.2616050910e+02   3.0073460109e+01    0.7966029    0.4983502 -71.15  0.003911701    1.703    0.413
        30 -13.0912     10.9261    206.5076   1.5014581531e+02   3.1528807349e+01    0.6276494    0.2930013  41.61  0.004051015    1.987    0.497
        31 -10.3871    134.0000    144.9552   1.1638230297e+02   2.6824101532e+01    0.4043055   0.08359711 -49.55  0.001058664    5.001    0.800
        32 -11.5667    101.2979    142.9682   1.2391212319e+02   3.3362531601e+01    0.2596644    0.2506873  83.22 0.0003982719    1.123    0.110
        33 -12.7584     87.8364    161.4912   1.3021042916e+02   3.1435129049e+01     0.373292    0.3225254 -30.60    0.0013575    1.611    0.379
        34 -14.0686    247.3363    120.0179   8.7984353867e+01   6.7740175056e+00     1.874686    0.6035627 -29.01  0.006234909    3.385    0.705
        35  -9.8298    117.8008    132.1413   1.1764171257e+02   3.2790683880e+01    0.1957993    0.1770159 -23.64 0.0006452939    1.329    0.247
        36 -10.7631    105.9526    129.4828   1.2009619995e+02   3.5587469136e+01    0.4105027    0.2264418 -52.14  0.001432268    1.775    0.437
        37  -9.1233    112.4432    120.4811   1.1644834167e+02   3.6415628417e+01    0.1465062    0.1387698 -80.80 9.968931e-05    1.009    0.009
        38 -13.8314     86.8270     64.1812   1.0853432791e+02   5.3249161583e+01     1.503155     1.335936  16.83  0.008747504    1.188    0.158
        39 -12.3186    164.9486     41.7215   8.0661877367e+01   3.9267370406e+01    0.4402544    0.3692241 -28.16  0.001318619    1.246    0.197
        40 -16.6246     63.2496    247.2711   1.4372976607e+02   1.8370999027e+01     1.885365     1.431467  64.38  0.007993469    1.124    0.110
