#   1 NUMBER                 Running object number                                     
#   2 MAG_AUTO               Kron-like elliptical aperture magnitude                    [mag]
#   3 X_IMAGE                Object position along x                                    [pixel]
#   4 Y_IMAGE                Object position along y                                    [pixel]
#   5 X_WORLD                Barycenter position along world x axis                     [deg]
#   6 Y_WORLD                Barycenter position along world y axis                     [deg]
#   7 A_WORLD                Profile RMS along major axis (world units)                 [deg]
#   8 B_WORLD                Profile RMS along minor axis (world units)                 [deg]
#   9 THETA_WORLD            Position angle (CCW/world-x)                               [deg]
#  10 FWHM_WORLD             FWHM assuming a gaussian core                              [deg]
#  11 ELONGATION             A_IMAGE/B_IMAGE                                           
#  12 ELLIPTICITY            1 - B_IMAGE/A_IMAGE                                       
         1 -14.4431    158.1615     56.4610   7.7704486527e+01   3.8448571527e+01     1.360243     1.160578  57.94  0.000983116    1.099    0.090
         2 -14.8253    171.2105     41.4767   7.1224048752e+01   3.7406484384e+01     1.153823     1.021375   1.90  0.004218217    1.427    0.299
         3 -15.0071    191.7646      8.8801   6.0219655360e+01   3.6286312790e+01     2.271945    0.8054807  63.24  0.009426632    2.299    0.565
         4 -10.7948    125.0729    244.4963   1.2634630886e+02   6.1105571502e+00    0.4180095    0.1571738 -56.04  0.001751778    3.033    0.670
         5 -13.7226    199.1952    246.6819   1.1190614653e+02  -6.7388914592e+00    0.6927728    0.3683405  42.76   0.00355366    1.752    0.429
         6 -13.5336    190.6349    248.9364   1.1392698535e+02  -5.7009195472e+00    0.6678308    0.3036715  40.05  0.003186775    1.909    0.476
         7 -12.8927    175.9211    231.5733   1.1406450882e+02  -3.4103133949e-01    0.4326426    0.2172872 -43.06  0.001881478    2.218    0.549
         8 -10.6597    139.3663    249.9218   1.2420784735e+02   2.7182877573e+00    0.2612396    0.1790729  52.99  0.001291872    1.324    0.245
         9 -18.6179     71.1930    232.2843   1.3569611766e+02   1.7075550256e+01     9.479835     6.540893 -78.46   0.05660134    1.390    0.281
        10 -12.5655    103.3202    195.5757   1.2405619839e+02   2.0115080528e+01    0.4368643    0.3098848  73.89  0.001436268    1.540    0.351
        11 -10.8174     30.0943    205.4445   1.4130387059e+02   2.8233700017e+01    0.1357312    0.1209956  19.54 0.0009170726    1.648    0.393
        12  99.0000     20.4081    202.5479   1.4299245215e+02   2.9923476163e+01    0.1203924   0.09321874 -89.26 0.0003076257    1.060    0.057
        13 -11.4011    119.0029    240.4211   1.2704190387e+02   7.9015238074e+00    0.2161406    0.1702513 -73.55 0.0005955168    1.390    0.281
        14 -11.4215    152.9013    198.6810   1.1328004142e+02   1.0292671630e+01    0.4982023    0.2887734 -46.74  0.002217914    1.824    0.452
        15 -11.9499    152.3018    191.7552   1.1213414441e+02   1.1889965045e+01    0.4487127    0.3294102  72.16  0.001877097    1.708    0.414
        16 -14.4714    137.3971    171.7094   1.1170748505e+02   1.9331561395e+01     1.288115     1.077998  29.79  0.005768158    1.307    0.235
        17 -12.6135    146.3429    178.8925   1.1102409813e+02   1.5906709023e+01    0.5746577    0.3153456  37.92  0.001632935    1.873    0.466
        18 -13.3952    144.4066    173.6282   1.1042773479e+02   1.7486987932e+01    0.7311642    0.4910901 -62.09  0.001911396    1.640    0.390
        19 -11.0293     23.6818    229.4867   1.4447330579e+02   2.3771982597e+01    0.1135024   0.08565105 -89.37 0.0007782236    1.139    0.122
        20 -10.3669    121.2716    197.8803   1.2029884737e+02   1.6415666960e+01    0.1922712    0.1717924 -64.94 0.0003767693    1.154    0.133
        21 -11.1198    112.9720    196.0164   1.2189952088e+02   1.8329754053e+01    0.5119351    0.3450108  -8.31   0.00195683    3.362    0.703
        22  -9.8438      7.8705    196.0152   1.4495137550e+02   3.2600740751e+01    0.1470136    0.1081531 -88.09  0.000388639    1.045    0.043
        23 -11.3687    180.5202    193.1622   1.0619578871e+02   6.0769824219e+00    0.2874546    0.2338496  71.67  0.001332697    1.527    0.345
        24 -10.7596      3.7351    193.8919   1.4560469817e+02   3.3443456381e+01   0.08032935   0.07189309  38.56  0.000315204    1.511    0.338
        25 -19.2003     53.1265     97.6042   1.1879753142e+02   5.0973777325e+01     17.90709    0.9622447 -55.47   0.02735286   16.684    0.940
        26 -11.2997    168.0465    245.3557   1.1783052010e+02  -1.3573472882e+00    0.2119407    0.1897755 -58.92 0.0006600612    1.338    0.253
        27 -12.1640    172.5173    189.0033   1.0711008245e+02   8.4935985671e+00    0.3508103     0.243182  44.32  0.001372616    1.405    0.288
        28 -12.9276    176.0312    186.7296   1.0589428138e+02   8.2692426663e+00    0.6176251    0.4031525 -65.81   0.00266676    2.091    0.522
        29  -9.8728    131.3654    237.9979   1.2419718064e+02   6.2697035495e+00    0.1645853    0.1273219 -57.91 0.0003216227    1.458    0.314
        30  99.0000     16.2093    217.9141   1.4500179861e+02   2.7016074874e+01     0.271384    0.1472802 -64.91  0.001603164    1.784    0.439
        31 -12.0836    155.1649    187.8122   1.1073752576e+02   1.2180874868e+01    0.3587526    0.2854898  66.44  0.001204088    1.398    0.285
        32 -12.2526    168.6846    177.3614   1.0561550791e+02   1.1723144452e+01    0.5371298    0.3247125 -66.68  0.001832801    2.401    0.583
        33 -11.9598    166.1149    173.1945   1.0532909070e+02   1.3151053556e+01    0.4954045    0.2920713 -67.32  0.001576663    2.560    0.609
        34 -10.8000    150.7648    245.5940   1.2132935297e+02   1.5490390190e+00    0.1861535    0.1777914 -52.69 0.0004254892    1.220    0.180
        35 -12.4600    204.5215    176.1331   9.7742467237e+01   4.7769456527e+00    0.4859434    0.4251899 -61.03  0.001162265    1.288    0.223
        36 -11.3128    196.8459    175.6054   9.9196672898e+01   6.3944558267e+00    0.9149606    0.4578702 -64.22   0.00257098    5.169    0.807
        37 -12.2613    189.4727    155.4281   9.6370534232e+01   1.2056232570e+01    0.4971775    0.4860033  27.25  0.001536516    1.046    0.044
        38 -12.3061    193.4328    165.7337   9.7803806892e+01   9.0892251874e+00    0.3727685    0.3417767 -44.92 0.0007570715    1.082    0.076
        39 -11.9305    190.1342    161.0785   9.7481168239e+01   1.0736351770e+01     0.442642    0.3567448  73.81  0.001527262    1.524    0.344
        40 -11.8703    230.4809    167.6500   9.0979632615e+01   1.4478604843e+00     0.471428    0.2093646 -54.06  0.001658859    3.272    0.694
        41 -11.3058    201.8534    167.7760   9.6513064854e+01   6.9622646959e+00    0.5289565    0.2980218  33.38  0.001890026    2.051    0.513
        42 -11.6780     24.7387    165.8307   1.3845112810e+02   3.7937064106e+01    0.3855518    0.2348486   4.09  0.001532361    2.976    0.664
        43 -12.0530    151.4684    183.6037   1.1076388100e+02   1.3834724914e+01    0.4262156    0.3032818 -82.46 0.0006327131    1.951    0.488
        44 -11.0300    236.8067    158.3956   8.7902453633e+01   1.9849346278e+00    0.1863354    0.1305737  31.10 0.0004266919    1.643    0.391
        45 -13.9081    134.0062    146.1239   1.0708454597e+02   2.5998636315e+01     1.669732    0.4490452 -55.64  0.003812561    5.748    0.826
        46 -11.8279    166.0277    154.1981   1.0123649819e+02   1.7349545194e+01    0.4227138    0.2876915  73.91  0.001714707    2.113    0.527
        47 -12.0681    149.1806    148.4083   1.0387299261e+02   2.2274807929e+01    0.3447925    0.2662746  83.61  0.001099556    1.632    0.387
        48 -13.1204    144.3393    146.1093   1.0452176997e+02   2.3834668833e+01    0.6303966    0.4405134 -75.51  0.002643065    1.894    0.472
        49 -12.7019    141.6839    139.1463   1.0355888819e+02   2.6003317135e+01    0.5218674    0.3038609 -52.62  0.002116056    1.741    0.426
        50 -10.9947    174.3137    148.7086   9.8127621149e+01   1.6757961208e+01    0.3676342    0.2847526 -74.99  0.001244045    1.584    0.368
        51 -13.5604    135.7453    127.5771   1.0226296428e+02   2.9919842203e+01     2.070723    0.3497067 -49.96  0.004103235    7.345    0.864
        52 -11.8161    134.6041    108.5695   9.7688402117e+01   3.4368515974e+01     1.085566    0.1778481 -44.26   0.00239056    6.073    0.835
        53 -11.6144    106.2920    206.3694   1.2502597886e+02   1.7156832383e+01    0.4611891    0.2936278 -41.67  0.001678624    2.027    0.507
        54 -12.0727    160.5814    127.6917   9.6254280896e+01   2.4407476691e+01    0.4779574    0.3541537 -59.14  0.001438658    1.433    0.302
        55 -12.5766    113.6410    118.4367   1.0582120442e+02   3.6559910465e+01    0.3971273    0.2967706 -56.67  0.000623579    1.353    0.261
        56 -11.1194    168.3031    113.1969   9.0874441490e+01   2.5720414927e+01    0.4085768    0.2946986 -76.27  0.001423491    1.808    0.447
        57 -12.8554    117.6546    109.4829   1.0241222371e+02   3.7757673985e+01    0.3905587    0.3375105 -80.22  0.001455116    1.320    0.242
        58 -10.8522    205.4830    110.1757   8.2667348875e+01   1.7711644564e+01    0.3193829    0.2182498  45.98 0.0009558846    1.590    0.371
        59 -11.2180     95.4969     96.9711   1.0535240078e+02   4.4723873615e+01    0.2244434    0.1995173  30.17 0.0005632678    1.161    0.139
        60 -10.4623    147.6528     81.0106   8.6906675998e+01   3.6874312502e+01    0.2097788    0.1959646 -40.61 0.0005340648    1.103    0.093
        61 -10.8361     92.0413     79.0110   1.0122122403e+02   4.8977841741e+01    0.2084315    0.1948862  -2.80  0.000377439    1.018    0.018
        62 -10.1223    141.8564     71.4978   8.5519742099e+01   3.9904924496e+01    0.2174973    0.1412341  54.52 0.0008425796    1.494    0.331
        63 -11.6359    103.7576    201.8334   1.2491704982e+02   1.8609467689e+01    0.3519424    0.3094987  -5.85 0.0006794963    1.576    0.365
        64 -10.7493    133.7846    247.3866   1.2498134352e+02   4.1127896668e+00    0.1792475    0.1653648 -78.78 0.0002598995    1.220    0.180
        65 -12.9499    175.3872     34.3910   6.8686129062e+01   3.7307810170e+01    0.3661254    0.3395833  31.29 0.0009016591    1.290    0.225
        66 -10.7184     13.4687     59.6247   1.2319242770e+02   6.2471956386e+01    0.1992866    0.1542888 -39.42 0.0004367047    1.038    0.036
        67 -11.7098    187.9738     31.0284   6.6015190418e+01   3.4696101717e+01    0.2123603    0.1822144  84.61 0.0006155357    1.005    0.005
