#   1 NUMBER                 Running object number                                     
#   2 MAG_AUTO               Kron-like elliptical aperture magnitude                    [mag]
#   3 X_IMAGE                Object position along x                                    [pixel]
#   4 Y_IMAGE                Object position along y                                    [pixel]
#   5 X_WORLD                Barycenter position along world x axis                     [deg]
#   6 Y_WORLD                Barycenter position along world y axis                     [deg]
#   7 A_WORLD                Profile RMS along major axis (world units)                 [deg]
#   8 B_WORLD                Profile RMS along minor axis (world units)                 [deg]
#   9 THETA_WORLD            Position angle (CCW/world-x)                               [deg]
#  10 FWHM_WORLD             FWHM assuming a gaussian core                              [deg]
#  11 ELONGATION             A_IMAGE/B_IMAGE                                           
#  12 ELLIPTICITY            1 - B_IMAGE/A_IMAGE                                       
         1 -10.0786     74.7896     20.2039   8.3661911023e+01   6.2019303972e+01    0.2013765    0.1464402 -71.09 0.0009540407    2.816    0.645
         2  -9.9801     92.6612    238.3304   1.2559472121e+02   1.6029332886e+01    0.1181691   0.06504838  64.69 0.0007051863    1.739    0.425
         3 -10.3291     92.5073    231.0132   1.2496912019e+02   1.7221787229e+01    0.1542916     0.081848  81.22 0.0008105462    2.574    0.611
         4 -10.6763     84.4051    227.2617   1.2605035813e+02   1.8960519153e+01    0.1460291   0.09372903 -89.99 0.0009484207    1.642    0.391
         5 -10.4689    162.7868    225.0631   1.1174315520e+02   7.3098484179e+00      0.20214    0.1663276  -1.63  0.001357473    1.546    0.353
         6  -9.8076    114.3507    223.6623   1.2034318633e+02   1.5232898177e+01    0.1251887    0.0749993  66.18 0.0007045409    1.791    0.442
         7  -9.8856    126.4492    220.5536   1.1778042844e+02   1.3864520150e+01    0.1199733   0.09614461  53.85 0.0001225497    1.018    0.018
         8 -10.0718    143.8495    216.5984   1.1407180829e+02   1.1689221318e+01     0.177648    0.1484329 -69.29  0.001196337    1.441    0.306
         9 -10.0307     76.5889    213.8005   1.2623986055e+02   2.2344287135e+01    0.1540546   0.09439185 -89.94 0.0009430638    1.696    0.410
        10  -9.8126    131.5452    213.5295   1.1597088788e+02   1.4190152457e+01    0.1220825    0.1011327  51.41 0.0002250405    1.013    0.013
        11 -10.4009    116.3925    210.2895   1.1842982429e+02   1.7151164220e+01    0.2213465    0.1231527  57.82  0.001190409    1.736    0.424
        12  -9.9078    148.3168    209.6646   1.1229493237e+02   1.2041294900e+01    0.1250898   0.08866718  69.20   0.00035396    1.696    0.410
        13 -10.7495    186.1371    204.6983   1.0447211004e+02   6.2714999946e+00    0.2028626    0.1446341  53.61  0.001180975    1.485    0.327
        14 -11.9516    164.8784    202.1176   1.0804232936e+02   1.0385679179e+01    0.4778831    0.2642172 -55.51  0.002397487    2.404    0.584
        15 -11.7971    162.7568    194.0402   1.0717436647e+02   1.2055081238e+01    0.3571413    0.2628544 -84.13  0.001586447    2.077    0.518
        16 -10.7709    149.5251    198.5953   1.1045882920e+02   1.3640773140e+01    0.2721337    0.1753034 -87.78  0.001258645    2.872    0.652
        17 -10.1337     88.8074    199.2146   1.2245998994e+02   2.3307373315e+01    0.2131142    0.1048184  70.39 0.0009518262    2.822    0.646
        18 -11.1183    177.8371    198.1204   1.0494868358e+02   8.7121083469e+00    0.1974705    0.1691954  59.48  0.001242883    1.294    0.227
        19 -10.8677    124.6215    197.5855   1.1520454391e+02   1.8048892258e+01    0.3028586    0.2000063  53.87  0.001325302    1.352    0.260
        20 -10.5841    113.0887    197.8945   1.1752644289e+02   1.9863792970e+01    0.2827681    0.1618053  71.25   0.00136804    2.337    0.572
        21 -11.6798    172.5558    196.1511   1.0562898313e+02   9.9608462659e+00    0.2481502    0.1654828  42.00 0.0009913101    1.293    0.227
        22 -10.0133     66.2546    194.2575   1.2634809533e+02   2.7339040517e+01    0.1805705   0.08670449 -84.39 0.0008901611    2.428    0.588
        23 -10.9412    173.3885    191.8255   1.0475197328e+02   1.0494254040e+01    0.2321966    0.1603848  49.88 0.0007477946    1.369    0.269
        24 -10.7017    139.0139    189.2944   1.1112898356e+02   1.7079531716e+01    0.2712249     0.184196 -67.13  0.001441418    1.811    0.448
        25 -10.6841    156.3694    187.3844   1.0734703058e+02   1.4319508328e+01    0.2885827    0.1268482 -52.76  0.001229292    2.798    0.643
        26 -10.2682    129.4179    188.2600   1.1291520561e+02   1.8925985429e+01    0.1704184    0.1219035 -73.33 0.0009461541    1.661    0.398
        27 -10.2333    165.7973    186.8272   1.0538674516e+02   1.2693749978e+01    0.1840132    0.1504434  65.24  0.000831302    1.372    0.271
        28  -9.9862    149.2975    187.6348   1.0880106348e+02   1.5551195726e+01    0.1323287   0.09849905  77.42 0.0007032166    1.722    0.419
        29 -11.1617    120.5372    185.5903   1.1434016300e+02   2.0924151644e+01    0.4352926    0.1916469 -64.82  0.001802276    3.084    0.676
        30 -10.8576     94.9806    186.5276   1.1972742266e+02   2.4817760864e+01    0.2689296    0.1480888 -84.72  0.001274416    2.465    0.594
        31 -10.2252    109.7569    186.1868   1.1664406571e+02   2.2580241750e+01     0.222762    0.1218255  72.45 0.0009558864    2.793    0.642
        32 -10.8517    174.6475    183.6763   1.0310449372e+02   1.1578437591e+01     0.255851    0.1911933  79.73  0.001063957    2.021    0.505
        33 -10.1481     11.5047    182.4782   1.3591984995e+02   3.5625186914e+01    0.1081136   0.07881611  79.54 0.0001062333    1.004    0.004
        34 -10.4656    138.0147    178.7754   1.0966974775e+02   1.9168760577e+01    0.2355311    0.1719988 -72.79 0.0009740844    1.667    0.400
        35 -10.6459    192.4026    178.1970   9.8674702149e+01   9.1248070635e+00    0.1781039    0.1270173 -50.32 0.0009480122    1.728    0.421
        36 -11.1262     77.8061    176.2216   1.2203359794e+02   2.9372673070e+01    0.4938689    0.1651432  54.78  0.001830069    3.653    0.726
        37 -10.0196    159.6803    175.3575   1.0461776233e+02   1.5800704866e+01    0.1376041    0.1049668  79.90 0.0007044903    1.760    0.432
        38 -10.0352    105.6708    175.3245   1.1597089336e+02   2.5360313194e+01    0.1373681     0.091181  72.28 0.0005560353    1.699    0.412
        39 -11.3230    147.8848    180.3586   1.0789487563e+02   1.7095430062e+01    0.2898003    0.1943801 -69.08  0.001464155    1.995    0.499
        40 -10.2490    177.0253    171.0441   1.0032145127e+02   1.3232986521e+01    0.2155195    0.1715558  83.08  0.001137392    1.765    0.433
        41 -10.6313    121.7389    169.1467   1.1155285232e+02   2.3896089915e+01    0.4163574    0.2404698 -79.75  0.001741349    2.844    0.648
        42 -10.3040     55.4853    169.9974   1.2606613177e+02   3.3571634721e+01    0.1758372   0.08690979  83.12 0.0008100363    2.525    0.604
        43 -10.1678    150.1629    169.7601   1.0558372520e+02   1.8607967038e+01    0.2290498    0.1465817  79.49 0.0009478563    2.801    0.643
        44 -10.9678    139.4805    164.8195   1.0696782745e+02   2.1544710697e+01    0.4119173     0.271051 -81.66  0.001858848    2.363    0.577
        45 -10.4838     79.9539    163.9666   1.1999405064e+02   3.1616640157e+01    0.3763188    0.1902747  79.71  0.001465807    3.436    0.709
        46  -9.7819    213.6617    164.3206   9.1971981767e+01   7.2079323378e+00    0.1278414    0.1107526 -88.39 0.0007050115    1.712    0.416
        47  -9.7604    159.4934    163.9972   1.0255979864e+02   1.7883243189e+01    0.1892984    0.1229486 -72.70 0.0008102365    2.518    0.603
        48 -10.3299    205.4738    162.9740   9.3212011252e+01   9.0009610606e+00    0.1826835    0.1182893 -59.48 0.0008096228    2.508    0.601
        49 -10.4711    177.7416    160.3809   9.8091069309e+01   1.4928076738e+01    0.2541701    0.1758852 -53.69  0.001261353    1.728    0.421
        50 -10.0838    151.6242    160.7781   1.0360959865e+02   2.0010466389e+01     0.193089    0.1321298 -59.43 0.0009478474    1.709    0.415
        51 -10.3865     92.9967    160.5005   1.1656706348e+02   3.0411766262e+01     0.277726    0.1477077  79.93  0.001043024    3.487    0.713
        52  -9.8492     23.3224    159.6663   1.3192337959e+02   3.9183957698e+01    0.1225406   0.06704675  70.09 0.0004734717    1.705    0.414
        53 -10.9381    196.7791    157.3356   9.3700082156e+01   1.1627416332e+01    0.3313011    0.1864887 -52.09  0.001427459    2.386    0.581
        54 -10.3966    105.4730    157.8424   1.1331394545e+02   2.8973139753e+01    0.2771056    0.1857919 -89.71  0.001371108    1.866    0.464
        55 -10.3093    167.9697    157.4859   9.9513046619e+01   1.7398855568e+01    0.2010611    0.1204786  65.76 0.0008098881    2.518    0.603
        56 -10.6010    119.6127    155.3471   1.0966867424e+02   2.7063130811e+01    0.3441941    0.2084749 -81.62  0.001446085    2.601    0.616
        57 -10.3022     82.0751    154.8694   1.1822479280e+02   3.3254584901e+01    0.2988111    0.1691161  72.31  0.001361919    2.328    0.570
        58 -10.6194     49.5476    155.0428   1.2570672338e+02   3.7452791580e+01    0.2583288    0.1063442  63.72  0.001032865    3.399    0.706
        59 -10.1900     68.0039    153.9998   1.2135528130e+02   3.5398231022e+01     0.216687    0.1338713  72.68  0.000978892    1.774    0.436
        60 -10.6064    133.2718    152.7169   1.0609470965e+02   2.5099831349e+01    0.3378966    0.1989456  81.69    0.0011483    3.953    0.747
        61  -9.7882    188.3285    157.6570   9.5417020339e+01   1.3272466197e+01    0.1386749     0.113495 -89.74 0.0007051066    1.745    0.427
        62 -10.7140    189.8897    149.8027   9.3450183922e+01   1.4294268186e+01    0.2728005     0.193165 -66.15  0.001256569    2.132    0.531
        63 -10.1432     28.9879    150.2429   1.2982811559e+02   4.0655483430e+01    0.2204449    0.0896582  73.31 0.0008919105    3.527    0.716
        64 -10.7697     39.7180    147.6126   1.2710849941e+02   4.0150001973e+01    0.3963197    0.1692424  68.69  0.001631048    3.382    0.704
        65 -10.5865    200.2279    148.2714   9.1102556750e+01   1.2424412154e+01    0.2216107    0.1080892 -46.37 0.0008905233    2.394    0.582
        66 -11.2273     55.9973    145.6453   1.2305115743e+02   3.8748366742e+01    0.4595759     0.222752  74.79  0.001888861    3.166    0.684
        67 -11.0167    149.0867    144.8525   1.0097987984e+02   2.3591771252e+01    0.4711683     0.308011 -88.34  0.001851455    2.886    0.653
        68 -10.5314     13.4029    146.2360   1.3294027089e+02   4.2895932919e+01    0.1680787   0.08477701 -89.25 0.0009513205    1.715    0.417
        69 -10.6551    125.3727    143.3019   1.0607399389e+02   2.8517580789e+01    0.3793092     0.236678 -88.70  0.001486147    2.888    0.654
        70 -10.6184     87.9999    144.0027   1.1511525244e+02   3.4739032308e+01    0.2254827    0.1518709  77.72   0.00113663    1.749    0.428
        71 -10.1598      2.7902    142.2050   1.3496633114e+02   4.4567125796e+01    0.1996815   0.07707591  66.03  0.000959771    2.842    0.648
        72 -11.1352     23.5643    138.3375   1.2988078461e+02   4.3742003896e+01    0.3900518     0.155159  68.46  0.001599421    3.626    0.724
        73 -10.8847    107.4376    145.2940   1.1068204823e+02   3.1307160095e+01    0.5707001    0.3071258  75.38  0.001874385    4.289    0.767
        74  -9.9347    179.6750    133.9933   9.1992893591e+01   1.9252331092e+01    0.2384072    0.1119286 -57.86 0.0007045239    4.256    0.765
        75 -10.5248    132.4128    131.7742   1.0201123658e+02   2.9577317579e+01    0.3964043    0.2385597 -83.07   0.00134636    3.686    0.729
        76  -9.7795    112.6748    133.3414   1.0711140829e+02   3.2968674169e+01    0.1489045    0.1082732  82.35 0.0007051118    1.732    0.423
        77 -10.7679     83.5384    131.9025   1.1412199955e+02   3.8101768054e+01    0.3497263    0.2211619  73.53  0.001324303    2.049    0.512
        78  -9.8726    143.1918    131.7820   9.9486881371e+01   2.7409532429e+01    0.2473495    0.1625736  88.70 0.0009477807    2.786    0.641
        79 -10.1862     73.1807    129.5304   1.1635032846e+02   4.0131854681e+01    0.2522191    0.1472684 -86.99  0.001113498    2.266    0.559
        80 -10.8648     12.8255    129.4707   1.3155113450e+02   4.6568452510e+01    0.3303088    0.1461557  73.62  0.001584433    2.691    0.628
        81 -10.9822     99.1087    127.9934   1.0941748826e+02   3.6499922611e+01    0.4808783     0.293511 -87.11  0.001973737    2.627    0.619
        82 -10.3454    118.0985    125.4655   1.0410450800e+02   3.3675537260e+01     0.341368    0.1970347  77.58  0.001099972    4.076    0.755
        83 -10.8902     59.8574    124.6709   1.1899394307e+02   4.2984059678e+01    0.5001178    0.2555059  77.80  0.001895811    3.607    0.723
        84 -11.2727     43.9298    122.7155   1.2287312894e+02   4.5258629334e+01    0.6889133    0.3253502  87.23  0.002720763    3.404    0.706
        85 -11.5484     28.4120    122.3752   1.2686683380e+02   4.6851264464e+01    0.5979478    0.2484487  76.49  0.002080392    4.854    0.794
        86 -10.0748    179.5025    124.5101   8.9788809092e+01   2.1026428463e+01    0.1470287    0.1450499  27.08 7.037469e-05    1.046    0.044
        87 -10.4288    141.9986    119.4943   9.6908876851e+01   3.0169273597e+01    0.3909933    0.2401703 -67.52  0.001537396    2.433    0.589
        88 -10.9499      3.3631    117.8039   1.3274729122e+02   4.9789269147e+01    0.3779949    0.1566659  73.55  0.001749037    3.033    0.670
        89 -10.7101    109.0904    113.8009   1.0376328686e+02   3.7882660045e+01    0.4429298    0.2376439 -70.18  0.001585919    3.084    0.676
        90 -10.8008     92.9670    112.8797   1.0784377754e+02   4.0890171732e+01    0.4064779    0.2634013 -82.74   0.00180406    2.175    0.540
        91 -10.9087     79.1907    112.7101   1.1156612638e+02   4.3081349940e+01    0.4691564    0.2750081  88.59  0.001857353    3.009    0.668
        92 -10.8209     66.8818    111.0776   1.1465078907e+02   4.5179610645e+01    0.3560807    0.2158684  72.92  0.001621263    2.388    0.581
        93 -11.3490     14.5652    110.7354   1.2907016348e+02   5.0580795308e+01    0.3570655    0.1920407  81.30  0.001937469    2.011    0.503
        94 -11.5513     23.3533    102.9308   1.2560154688e+02   5.1656336199e+01    0.6488193    0.2907436  70.83  0.002554088    4.039    0.752
        95  -9.7830    150.5024    103.9968   9.0973482019e+01   3.1450035383e+01    0.2227799    0.1295351 -62.28 0.0008105731    2.569    0.611
        96  -9.7567    139.3465    104.6651   9.3810775960e+01   3.3768078191e+01    0.1580219    0.1210844 -86.16 0.0007048858    1.772    0.436
        97 -11.7786     46.2200    102.9168   1.1900231406e+02   4.9520152823e+01    0.7332853    0.3566137  72.93  0.002471044    5.001    0.800
        98 -11.0443    109.3192     99.3188   1.0014093181e+02   4.0986985465e+01     0.589422    0.3605934  76.64  0.002113638    3.354    0.702
        99 -10.2039     82.3050    100.4645   1.0799083379e+02   4.5370928292e+01    0.2462634    0.1660605 -76.02  0.001035471    1.803    0.445
       100 -11.0973     63.9884     96.3650   1.1243127328e+02   4.8900775474e+01    0.4729976    0.2744498  86.79  0.001867233    3.285    0.696
       101 -10.1762     95.1470     97.1800   1.0352198907e+02   4.4005982798e+01    0.2009583    0.1685306 -84.66 0.0006663818    1.356    0.262
       102 -10.8945      5.9730     92.5639   1.2919018289e+02   5.5188740209e+01    0.3564148    0.1619642  57.78  0.001776697    2.920    0.657
       103 -11.1922     35.1445     90.3594   1.2000130226e+02   5.3473288453e+01    0.4203819    0.2024848 -81.70  0.001797515    2.828    0.646
       104 -10.2929    124.7359     91.1586   9.3818587067e+01   3.9635404135e+01    0.2522183    0.1678268 -84.02 0.0009511063    2.780    0.640
       105 -10.6537     86.9579     87.2356   1.0331153169e+02   4.7550518539e+01    0.3794762    0.2506278  78.89  0.001599991    2.666    0.625
       106 -10.5952    104.7362     83.2486   9.7011248841e+01   4.5257147470e+01    0.3482977    0.2041694 -65.75  0.001356403    2.578    0.612
       107 -10.8831     24.8543     81.1320   1.2152261318e+02   5.6423951662e+01    0.3455179    0.1932542  73.06  0.001661767    2.789    0.641
       108 -10.7041     10.2211     81.4926   1.2629057716e+02   5.7376385626e+01    0.3230368    0.1088789  45.19  0.001396406    3.990    0.749
       109 -10.9349     49.1405     85.1501   1.1452206608e+02   5.3216967787e+01    0.4552378    0.2608995  74.36  0.001884018    3.375    0.704
       110 -10.5518     82.6320     73.2710   1.0069554101e+02   5.1229796447e+01     0.337594      0.21471 -79.42  0.001332238    3.094    0.677
       111 -10.0621     95.2342     71.2374   9.6191618632e+01   4.9479799863e+01    0.2337784    0.1098441 -53.79 0.0008867022    2.450    0.592
       112 -10.4783     51.7881     70.3268   1.1001942549e+02   5.6171085685e+01    0.3230033    0.1700892 -69.40    0.0014151    2.483    0.597
       113 -10.5733     16.8478     70.5467   1.2215826238e+02   5.9348003383e+01    0.2185062    0.1335373  77.45  0.001181591    2.286    0.563
       114 -10.3524     73.7663     60.4335   9.9586907822e+01   5.5253877690e+01    0.3160011    0.1827253 -62.98  0.001362154    2.442    0.590
       115 -10.9508      8.3228     58.2403   1.2271319657e+02   6.2537076668e+01    0.2796631    0.1623518  76.65  0.001470599    2.687    0.628
       116 -10.2801     44.7847     56.2071   1.0852859422e+02   5.9942064403e+01    0.2020366    0.1367857  80.57 0.0009612258    2.836    0.647
       117 -10.1343     63.2257     55.2311   1.0151945021e+02   5.7837007803e+01    0.2116952    0.1001262 -56.63  0.000720061    2.450    0.592
       118 -10.2464     54.4755     54.4991   1.0442946965e+02   5.9145533835e+01    0.2397319    0.1169398 -59.78  0.001033428    2.446    0.591
       119  -9.3007    100.4890     54.4211   8.9021665134e+01   5.1707583251e+01     0.143321    0.1312975  -7.41 7.604385e-05    1.044    0.042
       120 -10.2949     32.1858     52.5350   1.1222263876e+02   6.1970412515e+01    0.3086224    0.1775281  62.67  0.001352746    3.758    0.734
       121  -9.9714     21.0001     53.4859   1.1680323704e+02   6.2704251144e+01    0.1524209   0.08971152  52.56 0.0008102377    2.564    0.610
       122 -10.1770     92.7930     51.2133   9.0227736998e+01   5.3759294944e+01    0.2265689      0.15808 -77.96 0.0009522321    2.791    0.642
       123 -10.5746     17.8024     45.6675   1.1599455927e+02   6.4554014425e+01    0.2578155   0.07487515  34.04  0.001103959    4.086    0.755
       124 -10.8933      5.9703     43.1323   1.2018524810e+02   6.5820862508e+01    0.3162839     0.172126 -81.67  0.001668816    2.464    0.594
       125 -10.2165     70.4465     42.5080   9.4445786727e+01   5.9170984321e+01    0.3361057     0.201464  65.41  0.001280187    4.092    0.756
       126 -10.0414     58.5114     43.0267   9.8993889481e+01   6.0836455814e+01    0.1807055    0.1103315 -64.25 0.0008103771    2.635    0.620
       127  -9.9572     37.7805     41.5875   1.0658355459e+02   6.3616848779e+01    0.1572673    0.1139086  40.15 0.0009561981    1.745    0.427
       128 -10.0323     61.3623     33.5674   9.4274526901e+01   6.2119420186e+01    0.2278497    0.1157668  52.75 0.0009568888    3.275    0.695
       129  -9.9199     50.3357     33.6588   9.8598350817e+01   6.3629103289e+01    0.1172681    0.1003836 -76.83 0.0007050752    1.759    0.432
       130 -10.0517     74.4628     32.7398   8.9172504056e+01   6.0181864040e+01    0.2664908    0.1105694  54.78 0.0009030786    4.449    0.775
       131  -9.7202    102.6416     30.3169   7.9255815577e+01   5.5178443138e+01    0.1377358    0.1113789 -69.45 0.0007044128    1.755    0.430
       132  -9.8302     82.4850     28.4937   8.4678228773e+01   5.9427858625e+01    0.1337406    0.1206796 -10.83 0.0004603747    1.072    0.067
       133 -10.5777      4.6645     28.3374   1.1664648802e+02   6.8836104465e+01    0.1566861     0.128362  83.58  0.001115487    1.738    0.425
       134 -10.4932     49.9657     22.2202   9.3966559623e+01   6.5612131167e+01    0.3433088    0.1688201  51.65  0.001452002    3.780    0.735
       135 -10.1804     64.4510     21.5033   8.7958195493e+01   6.3577297885e+01    0.2134127    0.1238026  53.29   0.00103762    2.436    0.590
       136  -9.4275     12.3347     21.6872   1.1075918796e+02   6.9600743813e+01   0.09911057   0.08696314 -87.77 0.0005635725    1.684    0.406
