#   1 NUMBER                 Running object number                                     
#   2 MAG_AUTO               Kron-like elliptical aperture magnitude                    [mag]
#   3 X_IMAGE                Object position along x                                    [pixel]
#   4 Y_IMAGE                Object position along y                                    [pixel]
#   5 X_WORLD                Barycenter position along world x axis                     [deg]
#   6 Y_WORLD                Barycenter position along world y axis                     [deg]
#   7 A_WORLD                Profile RMS along major axis (world units)                 [deg]
#   8 B_WORLD                Profile RMS along minor axis (world units)                 [deg]
#   9 THETA_WORLD            Position angle (CCW/world-x)                               [deg]
#  10 FWHM_WORLD             FWHM assuming a gaussian core                              [deg]
#  11 ELONGATION             A_IMAGE/B_IMAGE                                           
#  12 ELLIPTICITY            1 - B_IMAGE/A_IMAGE                                       
         1 -14.5641    162.4877     40.5732   8.1716430955e+01   3.9301144050e+01     1.301812     1.025108 -11.49  0.003846659    1.436    0.304
         2 -14.1391    175.7797      7.5067   6.8671961173e+01   3.9443434629e+01    0.9951459    0.9369969 -79.70  0.003986502    1.028    0.027
         3 -11.9182    133.8798    247.7874   1.3102871947e+02   1.0628000913e+01    0.1550414    0.1285326  37.58 0.0004165648    1.188    0.158
         4 -19.7870     75.1439    187.2189   1.3722445540e+02   2.8448738454e+01     13.91983     6.524544 -71.38   0.07016735    2.466    0.594
         5  -9.9825    135.6646    196.3243   1.2481626466e+02   1.7727240133e+01    0.1927011    0.1612507  65.03 0.0005798283    1.364    0.267
         6 -11.3199    153.1502    194.2034   1.2088157369e+02   1.5212561350e+01    0.1888687    0.1467244  27.26 0.0004110693    1.141    0.124
         7 -14.1655    207.1195    179.7044   1.0812131837e+02   8.2527361681e+00    0.7378071    0.5796063  18.22   0.00426117    1.039    0.038
         8 -13.4218    196.6734    172.3229   1.0870716231e+02   1.0988609546e+01    0.6412358    0.3673015 -42.41  0.002678091    2.135    0.532
         9 -11.1468    135.0297    234.9385   1.2952962197e+02   1.2139253382e+01    0.1878656    0.1569921  41.07 0.0006022768    1.170    0.146
        10 -11.4101     25.9640    184.9655   1.4840012633e+02   3.4601182183e+01    0.1803137    0.1384779  43.00 0.0003163541    1.225    0.184
        11 -11.8422     31.2108    183.1591   1.4710782839e+02   3.4440751431e+01    0.3835122    0.1992486  35.11  0.001545604    1.676    0.403
        12 -11.7703    125.1002    246.4837   1.3251683879e+02   1.1986241986e+01      0.28371    0.1422689 -52.39  0.001756802    2.798    0.643
        13 -11.6195      4.1952    179.1348   1.5308728863e+02   3.7673038032e+01    0.2656118    0.2027278  43.43  0.001279978    1.250    0.200
        14 -10.7770     13.5427    233.1348   1.5264385040e+02   2.7125548403e+01     0.132521   0.08810933  54.42 0.0002933195    1.006    0.006
        15 -12.7468    178.6741    173.3399   1.1234761317e+02   1.3992616105e+01    0.3057671    0.2129413  45.69   0.00142939    1.386    0.279
        16 -12.9254    177.5923    169.7992   1.1193278708e+02   1.4714764075e+01    0.3596781     0.274424  32.33  0.002128236    1.114    0.102
        17 -12.4587    147.3479    172.6766   1.1876463276e+02   1.9665852921e+01    0.3520136    0.2124148  59.67  0.001654546    2.166    0.538
        18 -13.5517    143.6596    168.3584   1.1885922331e+02   2.1065790112e+01    0.6676134    0.3511131  52.73   0.00254745    2.054    0.513
        19 -12.7507    138.7224    172.1426   1.2058455881e+02   2.1279180285e+01    0.4658678    0.3431706  87.39  0.002063714    2.058    0.514
        20 -11.9628     25.0536    225.8287   1.5027037149e+02   2.7235227112e+01    0.2472833    0.1421858 -67.55  0.001233121    2.201    0.546
        21 -10.8606     28.5269    179.1494   1.4751162595e+02   3.5512890131e+01    0.2618352    0.1896069  22.37  0.001717196    1.651    0.394
        22 -10.6530    219.5049    224.2490   1.1307684640e+02   1.3594208353e+00    0.1616726    0.1016382 -31.67 0.0006414004    1.961    0.490
        23 -11.8020    123.8040    166.5760   1.2312032860e+02   2.4896604901e+01    0.4651482    0.2206847  56.37  0.001846647    2.710    0.631
        24 -11.2149     19.5674    223.0569   1.5123109468e+02   2.8232391528e+01    0.1419351    0.1213962  50.55  0.001191203    1.316    0.240
        25 -10.5371     25.1697    165.1973   1.4754384254e+02   3.8722519500e+01    0.1600839    0.1451336  69.13 0.0006337268    1.207    0.172
        26 -11.2724    223.8507    163.8797   1.0233274127e+02   7.4649370399e+00    0.1984354    0.1711156 -19.62 0.0004601854    1.290    0.225
        27 -10.8092    237.5112    159.4586   9.9273361740e+01   5.7565860218e+00    0.1228272   0.09924718   7.89 9.444541e-05    1.013    0.012
        28 -11.4314    164.0778    158.4997   1.1264314878e+02   1.8989428341e+01    0.2209845    0.1209894  41.58  0.001037779    1.604    0.377
        29 -10.8156     22.8359    156.0794   1.4760334334e+02   4.0893678776e+01    0.1969193    0.1508653  48.09 0.0005985906    1.178    0.151
        30 -14.1869    134.2170    145.2058   1.1689367630e+02   2.7085525556e+01     1.162232    0.4147889 -53.93  0.004001962    3.599    0.722
        31 -13.7838    135.8833    126.9635   1.1272754583e+02   3.0345676657e+01     1.568532    0.2819637 -49.45  0.003532473    7.301    0.863
        32 -11.5550    174.6734    148.9951   1.0856608747e+02   1.8524357285e+01    0.2701528    0.2183699  36.41 0.0007665067    1.109    0.098
        33 -10.0794      7.6815    221.1650   1.5344839250e+02   2.9641257388e+01    0.1048474   0.07750502  79.25 0.0001343607    1.314    0.239
        34 -14.0121    143.6327    144.4489   1.1450079866e+02   2.5406518697e+01     0.864738    0.5064851 -67.28  0.003463703    2.942    0.660
        35  -9.8276      1.4806    140.0518   1.5246892865e+02   4.6083930475e+01    0.1624931   0.09564473  89.87 0.0003241085    1.442    0.306
        36 -11.1281      6.5585    138.5141   1.5101873996e+02   4.6082606808e+01    0.2596651    0.1651762  57.03  0.001630195    1.311    0.237
        37  -9.5781    121.5304    248.5110   1.3335690198e+02   1.2201954168e+01    0.1132678   0.07629806  43.92 0.0001290506    1.119    0.107
        38 -10.2703    218.2730    218.6559   1.1246729659e+02   2.0947673674e+00   0.09313141   0.08306647  37.53 0.0003089025    1.619    0.382
        39 -12.1191    160.6067    128.1207   1.0713880325e+02   2.4958939255e+01    0.3365906    0.2877517 -48.03  0.001826361    1.298    0.230
        40 -10.6028     23.5869    214.6928   1.5016130279e+02   2.9288358406e+01    0.2431486    0.1331405 -60.96  0.001544468    2.469    0.595
        41 -12.2496    168.8662    202.6451   1.1898360220e+02   1.1441609671e+01    0.2240058    0.1752211  40.28 0.0002199936    1.182    0.154
        42 -12.8667    154.2852    188.4229   1.1978556909e+02   1.5912110275e+01    0.4154747    0.2355358 -35.08  0.002154371    2.249    0.555
        43 -13.5976    162.8926    202.1088   1.2007207399e+02   1.2471045754e+01    0.6665655     0.395137 -62.95  0.002175709    3.236    0.691
        44 -12.0814    158.2484    203.9940   1.2125533182e+02   1.2944208336e+01     0.354358    0.1794743  54.17  0.001655052    2.611    0.617
        45 -10.5692    205.5270    110.1850   9.3999948706e+01   1.8287866171e+01    0.2530333    0.1918997  44.73  0.000677516    1.312    0.238
        46 -11.6698    156.4717    199.2171   1.2093349444e+02   1.3921171455e+01    0.2440671    0.1274997 -49.22 0.0009132968    2.493    0.599
        47 -10.6295    156.4908    105.4712   1.0260658384e+02   3.0008590408e+01    0.4200831    0.2545078  69.82  0.001405361    2.512    0.602
        48 -12.9995     11.6552    206.1150   1.5227931938e+02   3.1928222947e+01    0.4298869    0.2422561  25.99  0.002128996    1.915    0.478
        49 -11.0743    138.9507    249.7914   1.3030148691e+02   9.6899992826e+00    0.2652951    0.1293413  44.19   0.00163367    1.574    0.365
        50 -10.7542     14.0000    240.9876   1.5275344546e+02   2.5830867452e+01     0.135069   0.04888898 -85.81 0.0007995967    2.923    0.658
        51 -10.9107    131.6134    236.4801   1.3033404853e+02   1.2414029286e+01    0.1937338    0.1388205  46.65   9.2356e-05    1.203    0.169
        52 -11.4168    139.5636    199.4985   1.2442723221e+02   1.6599681087e+01    0.4075368    0.1733128  44.48  0.001927298    1.958    0.489
        53 -14.2620    151.3294     55.2292   8.8840765275e+01   4.0131820742e+01     1.193379      0.93256  29.52  0.003150764    1.450    0.311
        54 -10.3295    160.0598    248.7614   1.2641869303e+02   6.9348312098e+00    0.1504648    0.1329186  41.39 0.0004387003    1.364    0.267
        55 -12.6551    166.3303     32.2165   7.8239797714e+01   3.9346519791e+01    0.4034336    0.3896549  25.78 0.0008257895    1.109    0.099
        56 -10.6581     13.5091     59.9164   1.4150054825e+02   6.4397966224e+01    0.1745132    0.1627143 -77.23 0.0004900934    1.086    0.079
