#   1 NUMBER                 Running object number                                     
#   2 MAG_AUTO               Kron-like elliptical aperture magnitude                    [mag]
#   3 X_IMAGE                Object position along x                                    [pixel]
#   4 Y_IMAGE                Object position along y                                    [pixel]
#   5 X_WORLD                Barycenter position along world x axis                     [deg]
#   6 Y_WORLD                Barycenter position along world y axis                     [deg]
#   7 A_WORLD                Profile RMS along major axis (world units)                 [deg]
#   8 B_WORLD                Profile RMS along minor axis (world units)                 [deg]
#   9 THETA_WORLD            Position angle (CCW/world-x)                               [deg]
#  10 FWHM_WORLD             FWHM assuming a gaussian core                              [deg]
#  11 ELONGATION             A_IMAGE/B_IMAGE                                           
#  12 ELLIPTICITY            1 - B_IMAGE/A_IMAGE                                       
         1 -15.3914     16.7140    109.8066   1.2620870121e+02   5.0295477806e+01     1.576808    0.8870451  80.92   0.00600678    1.676    0.403
         2 -14.4272     86.2651     66.6883   9.7714820247e+01   5.1653973092e+01     1.592111    0.9255638 -24.02  0.004219665    2.774    0.640
         3 -15.4324      6.5932     71.7351   1.2450028505e+02   5.9181225563e+01     1.376919    0.6573018 -68.39  0.003496842    1.549    0.354
         4 -15.1906    119.8554     54.9925   8.4313215991e+01   4.7537714603e+01     1.508363    0.8882104  30.49  0.005208794    2.183    0.542
         5 -15.0823    122.3795     37.0071   7.7180162725e+01   5.0004017517e+01     1.508583    0.7360901  39.92  0.004530987    2.262    0.558
         6 -14.4859    102.0102     50.6391   8.7797504068e+01   5.1977268408e+01    0.9718535    0.7907138  67.95  0.001510781    1.526    0.344
         7 -14.3411    111.6090     40.9731   8.1545794085e+01   5.1728529579e+01     1.708144    0.9874079  -8.61  0.006422183    2.908    0.656
         8 -12.3388    186.4300     14.5341   5.6709352066e+01   3.6553694940e+01    0.5636302    0.3328642  27.29  0.002364707    2.087    0.521
         9 -13.7942    189.6858     26.6422   6.0200620500e+01   3.4337389020e+01     1.506257    0.6500479 -49.85  0.004477827    2.935    0.659
        10 -14.0274     29.4655     32.4760   1.0735900725e+02   6.5882044579e+01     1.286459    0.8991407  46.76  0.008092531    1.913    0.477
        11 -12.6382     46.9662     20.4901   9.5408681158e+01   6.6288612740e+01    0.4496645    0.3584359 -19.69  0.001974953    1.167    0.143
        12 -14.9050     42.2061      7.2750   9.1369808585e+01   6.9126818707e+01     1.626603     0.967181 -20.42  0.009025105    1.747    0.428
        13 -13.6696      9.1506      3.2717   1.0611327706e+02   7.3069452896e+01    0.7704265    0.7035938 -86.97  0.003947894    1.570    0.363
        14 -15.0841      8.1546     29.4539   1.1566065914e+02   6.8060568499e+01    0.8616874    0.7418115  71.25  0.006557689    1.490    0.329
        15 -15.2808     14.2699     19.8100   1.0991397457e+02   6.9599944003e+01     1.081008    0.5240731 -40.78  0.003923425    1.729    0.422
        16 -14.0711     24.5342     14.1234   1.0283213988e+02   6.9858830152e+01    0.5404346    0.3998993  23.72  0.002246572    1.624    0.384
        17 -14.4803    166.6475     30.3872   6.5202037889e+01   3.9977264568e+01     1.059156    0.7678153  65.95  0.003085881    1.421    0.296
        18 -14.6512    146.9172     30.6083   6.9095992724e+01   4.5033622279e+01     1.474537    0.6977501  61.26  0.005033458    2.195    0.544
        19 -12.8464    215.2838     20.8719   5.5057269222e+01   2.8252996541e+01    0.5363259     0.353008  10.76  0.001867593    1.905    0.475
        20 -11.8857    222.0524      4.0998   4.9455912778e+01   2.8195577400e+01    0.5590914    0.4044178 -24.58  0.002271394    1.362    0.266
        21 -13.3925    218.8097     15.2165   5.2999316776e+01   2.7938516970e+01    0.6312433    0.4360631   4.19  0.003051884    1.718    0.418
        22 -12.7660    215.0130     10.1897   5.1926057017e+01   2.9426273685e+01    0.4958354     0.411281  78.24  0.001581302    1.213    0.176
        23 -15.6764     99.5832     12.9867   7.3358768187e+01   5.8459542799e+01     1.393573    0.8096157  50.02  0.002798857    1.738    0.424
        24 -11.1844    202.0499     11.4474   5.3745959304e+01   3.2703343496e+01    0.2362327    0.1996221   5.31 0.0005857607    1.279    0.218
        25 -11.4159    153.6404      8.1979   5.9437547529e+01   4.5949184366e+01    0.2651402     0.223334  50.30 0.0004787295    1.129    0.114
        26 -11.4829    126.0489      8.7954   6.4950150266e+01   5.2899171134e+01    0.2578778    0.2058347 -12.08  0.001219952    1.235    0.190
        27 -11.3502    229.5906      4.7751   4.8960017876e+01   2.6221108056e+01    0.2496031    0.1961529 -59.68 0.0006401881    1.259    0.206
        28 -11.5514    232.5534      1.6965   4.7851739510e+01   2.5765929871e+01    0.3210112    0.2053356  49.97 0.0006906144    1.670    0.401
        29 -11.9453    120.4422      3.6772   6.3977012138e+01   5.4795581468e+01    0.3115103    0.2222704  89.26  0.001510466    1.911    0.477
        30 -11.1178     67.7508      3.7761   7.9101538082e+01   6.5804559495e+01    0.2382795     0.197367  -2.06  0.001505129    1.054    0.051
        31 -11.3935     26.3553      3.9365   9.7302078454e+01   7.1482367799e+01    0.2104072    0.1557951  -2.94  0.001057619    1.414    0.293
        32 -10.7822    192.7516      3.0095   5.2160870145e+01   3.5989094461e+01    0.1944586     0.184503 -26.03 0.0003469925    1.078    0.073
        33 -12.1227     80.5924      1.7711   7.3667722690e+01   6.3704284181e+01    0.5676801    0.1556723  49.02  0.002082682    3.430    0.708
        34 -10.7612     62.4747      1.5096   7.9876480666e+01   6.6998237573e+01    0.1964823    0.1494288  -2.10 0.0006506589    1.205    0.170
        35 -11.1063     59.4873      1.5115   8.1034332682e+01   6.7486940372e+01    0.2201323    0.1658756  21.13  0.001076211    1.322    0.244
        36 -12.3241     48.9417    181.5272   1.2566089510e+02   3.2838012722e+01    0.3217254    0.2242852 -57.15  0.002268257    1.830    0.453
        37 -13.1934     56.6237    246.4118   1.2857211866e+02   2.1547211324e+01    0.6964982     0.320701  34.13  0.004335774    2.751    0.637
        38 -13.6986     28.4526    246.3496   1.3264874990e+02   2.4560294784e+01    0.4077826      0.24808  67.61  0.003057049    1.129    0.114
        39 -11.8521      2.6576    249.6939   1.3632376794e+02   2.6531326265e+01    0.2598754    0.1030425  53.75  0.002056011    1.572    0.364
        40 -14.0803      8.9985    245.5634   1.3534320837e+02   2.6539237810e+01    0.5971504    0.2665936  58.79  0.003168972    1.436    0.304
        41 -12.1954    194.9470    177.7952   9.7507413638e+01   1.0681142239e+01    0.2113223    0.1873444 -16.45  0.001414005    1.260    0.206
        42 -10.4331    100.9957    176.0037   1.1506510509e+02   2.7043172358e+01     0.136371    0.1133484  65.57 0.0009293517    1.001    0.001
        43 -13.2170    124.0950    166.7912   1.0920264074e+02   2.5039432519e+01    0.5506355    0.3616273 -80.45  0.002970054    1.994    0.499
        44 -12.2857    237.7446    159.7565   8.6860311404e+01   5.1335216771e+00    0.3850766   0.08662213  45.66  0.001326818    3.808    0.737
        45 -11.7739     27.8071    158.4023   1.2797867886e+02   3.9388554431e+01    0.2859513    0.1561123 -83.59  0.001849249    1.541    0.351
        46 -12.4388     25.8034    155.4029   1.2815850134e+02   4.0161056352e+01    0.3533536    0.2641715 -19.51  0.002342774    2.622    0.619
        47 -12.5529     77.3813    157.2843   1.1759163374e+02   3.3924869396e+01     0.554864    0.2548001  45.50  0.002032456    1.980    0.495
        48 -13.1158     74.1903    153.6034   1.1782170104e+02   3.5076663328e+01    0.6089597     0.362989  40.86  0.003321892    1.682    0.405
        49 -11.0701    177.4917    167.5118   9.8892715398e+01   1.5365984225e+01    0.1301491    0.1128043  38.53 0.0002156786    1.000    0.000
        50 -12.5254    111.5781    155.7665   1.1012972196e+02   2.9124089284e+01     0.520371    0.2837525  71.16  0.002264118    2.822    0.646
        51 -11.4443     55.1748    156.4223   1.2217718330e+02   3.6887053440e+01    0.2897483    0.2103256  14.97  0.001786759    2.299    0.565
        52 -12.9675    208.5996    155.1323   9.0885853818e+01   1.1211952185e+01    0.6992511    0.2549208  44.68  0.002853038    2.430    0.589
        53 -11.9272     85.2781    153.6228   1.1544058298e+02   3.3549493758e+01    0.3766882    0.2290707 -49.41  0.002095676    1.962    0.490
        54 -12.6220      7.2486    148.2699   1.3144162995e+02   4.3141804416e+01    0.4128121    0.1769572  58.77   0.00249517    2.037    0.509
        55 -11.9089    103.5603    149.9043   1.1095444098e+02   3.1533959552e+01    0.3017333    0.2649031 -28.48  0.001912473    1.538    0.350
        56 -11.5671    244.7138    147.9900   8.3369838817e+01   5.2532122763e+00    0.1897957    0.1576957   1.49  0.001195619    1.079    0.073
        57 -11.6566     38.0724    145.9620   1.2478965583e+02   4.0845345338e+01    0.1732453    0.1380481  84.07 0.0005819543    1.028    0.028
        58 -10.9564     44.7445    145.2520   1.2326952121e+02   4.0292606503e+01    0.1409034    0.1209723 -68.69 0.0004884611    1.313    0.238
        59 -11.4231    149.5918    141.4299   9.9583476846e+01   2.5000411951e+01    0.3903855     0.204567  60.50  0.001619531    2.460    0.593
        60 -13.3111     43.0097    137.9748   1.2289521140e+02   4.1967519384e+01    0.5222172     0.476083 -31.19  0.003874481    1.583    0.368
        61 -10.6418     15.0778    139.1989   1.2918502789e+02   4.4318132153e+01    0.1206919   0.08102176  36.24 0.0006732071    1.721    0.419
        62 -12.4420    246.5491    135.1125   8.0355945719e+01   6.4637369107e+00    0.3790725    0.2887104  71.15  0.002068368    2.020    0.505
        63 -11.5774     61.9959    134.0125   1.1805496416e+02   4.0631941190e+01    0.3388062    0.2011338  44.32  0.001198469    1.679    0.404
        64 -11.3171     11.0915    134.1445   1.2967446941e+02   4.5657312044e+01    0.1592655    0.1180128  81.96 0.0004034137    1.044    0.042
        65 -11.6886    138.0297    132.9406   1.0038754045e+02   2.8785906037e+01    0.2640557    0.2110381   7.21  0.001363657    1.712    0.416
        66 -12.6036    132.6738    131.5142   1.0128665991e+02   3.0071830822e+01    0.4888306    0.3405742 -74.29   0.00243886    1.835    0.455
        67 -12.2295    222.5037    127.9813   8.2703297329e+01   1.2186459054e+01    0.2824632    0.2308048 -51.14  0.001573025    1.549    0.355
        68 -13.2943    123.5209    102.2211   9.7005956543e+01   3.7615862597e+01     1.159063     0.359332  44.21  0.003880526    3.278    0.695
        69 -14.5077    104.8608    122.6420   1.0598340325e+02   3.6803573052e+01     1.986207    0.9205287  38.62  0.008656175    2.311    0.567
        70 -14.1674     93.0729    110.0890   1.0642987636e+02   4.1360639871e+01     1.176735    0.8357717  45.62  0.006494201    1.450    0.310
        71 -12.8106    135.8707    103.4607   9.4331784724e+01   3.4905916704e+01    0.6152627    0.3350531  51.96  0.001703326    1.893    0.472
        72 -11.8708     60.3803    125.2758   1.1724330898e+02   4.2672993284e+01    0.3989778    0.2812006 -28.79   0.00221919    2.322    0.569
        73 -14.7789     29.9497    119.2048   1.2392045169e+02   4.7188222042e+01     3.285762          nan -61.17  0.009270386    7.136    0.860
        74 -13.3470      5.5850    118.6951   1.2973905618e+02   4.9231977997e+01    0.6362364    0.5077105 -41.34  0.004873293    1.710    0.415
        75 -14.6923     95.3720    235.9755   1.2195269426e+02   1.8275093529e+01     1.066726    0.5400559  66.02  0.002930486    2.010    0.503
        76 -14.0332      2.4979     97.0864   1.2862768814e+02   5.3975007543e+01    0.8809006    0.3088606 -76.49  0.003482953    2.170    0.539
        77 -14.9044     20.5925     96.7045   1.2368775804e+02   5.2817837563e+01     1.223175    0.5383208 -80.85  0.006074522    2.079    0.519
        78 -14.5725     29.0706     92.5806   1.2075181699e+02   5.3027362417e+01     1.058344    0.6144909 -78.29  0.005525236    1.492    0.330
        79 -11.4998    184.8161    124.3720   8.8774000542e+01   2.0720400252e+01    0.2433911    0.2008038  61.09 0.0005051909    1.321    0.243
        80 -12.6919    180.6347    121.1114   8.8848233198e+01   2.2159289326e+01    0.4425932     0.388073  -2.94  0.002471653    1.207    0.171
        81 -14.8947    107.1941    106.4190   1.0205589517e+02   3.9773446591e+01     1.435538     1.085157 -43.18  0.007786166    1.382    0.276
        82 -11.2312    194.4890    113.4671   8.4344693929e+01   2.0368412266e+01    0.1448205    0.1348899  20.23 2.119597e-05    1.007    0.007
        83 -12.4889    121.0641    111.7945   9.9826148637e+01   3.6149739774e+01    0.3958496    0.2846506  77.53  0.001434525    1.786    0.440
        84 -10.8795     42.5064    113.5100   1.2007287616e+02   4.7200744044e+01    0.1921356    0.1215999  27.15 0.0007841303    2.016    0.504
        85 -12.2700     46.2846    109.7678   1.1856938419e+02   4.7618794627e+01    0.4420318    0.3517531 -89.09   0.00296509    1.099    0.090
        86 -12.0830     61.4412    108.8744   1.1444466956e+02   4.6079539649e+01    0.5970515    0.3150075 -75.77  0.002933361    1.999    0.500
        87 -12.8596     62.2337     99.4485   1.1256709272e+02   4.8042402781e+01    0.6430562    0.3934336  80.36  0.003137646    2.170    0.539
        88 -12.4987     43.0435     91.0057   1.1648223046e+02   5.2067872636e+01    0.5788826     0.215371 -69.34  0.002438349    2.529    0.605
        89 -13.3722     49.4163     99.1184   1.1605841525e+02   4.9611274395e+01    0.6809108    0.4879756  11.54  0.003375015    2.066    0.516
        90 -11.9347     49.5291     95.0202   1.1532314184e+02   5.0500201953e+01     0.340043    0.1850898 -78.67  0.001716872    1.938    0.484
        91 -11.0468    222.5130    109.5112   7.8382325320e+01   1.4775082467e+01    0.1422946    0.1296341   8.56 9.508589e-05    1.004    0.004
        92 -13.2735    137.0093     96.4926   9.2305133369e+01   3.6027342910e+01    0.5747629    0.3801281 -37.21  0.002710813    1.571    0.364
        93 -11.0850    161.6688     96.9855   8.6826960084e+01   3.0555415158e+01    0.2721911    0.1586476  49.75  0.001176882    1.691    0.408
        94 -13.4031     84.7928    115.5142   1.0958396114e+02   4.1475352817e+01    0.8823747    0.5754461  27.50  0.004179188    2.002    0.500
        95 -10.7026     76.0330     95.5244   1.0795870447e+02   4.7064138180e+01    0.1742688    0.1295395  41.49 0.0003594954    1.469    0.319
        96 -12.8659     96.9074     92.3226   1.0148743734e+02   4.4510319335e+01    0.3810066    0.2915375 -39.95  0.000899238    1.366    0.268
        97 -13.4017    178.6852     85.7925   8.0246244542e+01   2.8540468440e+01     1.756551    0.5488411 -42.07  0.005466223    3.345    0.701
        98 -13.8087    188.0861     84.5049   7.8056771287e+01   2.6500510283e+01     1.022418    0.8168505 -89.26  0.003021792    1.637    0.389
        99 -13.1595    163.9449     71.2800   7.9079811097e+01   3.4519321831e+01     0.985712    0.4601685  44.66  0.003273778    2.201    0.546
       100 -14.4295    161.0898     80.5868   8.2434128197e+01   3.3602475152e+01     1.676294    0.7339287  35.92  0.005440175    3.243    0.692
       101 -14.0166    170.1285     77.1065   7.9513569754e+01   3.2045377850e+01    0.9434254     0.606654  37.26  0.004148756    1.678    0.404
       102 -11.6753     89.8306     87.6447   1.0230171309e+02   4.6672244230e+01    0.4325352    0.2166605  50.05  0.001903792    2.260    0.558
       103 -12.5351    131.4034     85.7259   9.0785356018e+01   3.9295387280e+01    0.5634875    0.3510494  68.61  0.002335765    2.299    0.565
       104 -11.8988    125.6133     86.7908   9.2522391725e+01   4.0285501096e+01    0.2925467    0.2465394  78.16  0.001542633    1.367    0.269
       105 -12.2948    241.7597     83.9038   6.8988878580e+01   1.4018266541e+01    0.4587294    0.3161816  72.55  0.002031317    1.900    0.474
       106 -12.8881    238.0215     80.0184   6.8531736927e+01   1.5364975476e+01     0.469392    0.3266641  61.33  0.001768379    1.604    0.377
       107 -10.7097     98.2394     84.1785   9.9078953144e+01   4.5996936201e+01    0.1894606    0.1591063 -89.74 0.0004777611    1.351    0.260
       108 -11.7608    100.0086     64.7748   9.3046207581e+01   4.9647222617e+01    0.4460501    0.3153912  46.07  0.001967623    1.519    0.342
       109 -13.6179     64.6660     57.9401   1.0204220660e+02   5.6704805069e+01      1.05918    0.6796349 -50.94  0.005758624    1.353    0.261
       110 -13.4680     66.6569     49.9146   9.8873474535e+01   5.8070154441e+01    0.6035657    0.4621767 -42.86  0.002841378    1.141    0.124
       111 -13.4627    171.1939    241.9705   1.1050074462e+02   6.7095957392e+00    0.5752195    0.2720632  38.35  0.003535498    1.659    0.397
       112 -13.5055     56.5165     78.8116   1.1004512273e+02   5.3267326723e+01    0.6346918     0.393761 -42.86  0.002731905    1.664    0.399
       113 -13.8810     60.8799     75.7365   1.0798714058e+02   5.3403992939e+01    0.7586551    0.4179712 -57.02 0.0007979321    1.566    0.361
       114 -13.6075    214.8241     78.8670   7.1788593742e+01   2.0926718897e+01     1.034877    0.6192354  63.82  0.004538564    1.908    0.476
       115 -11.8171     90.5729     80.4732   1.0027348482e+02   4.8071735700e+01    0.3906083    0.3187588 -12.43  0.001831292    1.565    0.361
       116 -12.6029    146.6774    238.4589   1.1399865619e+02   1.0754727327e+01    0.3508391    0.2001939  60.54  0.002123192    1.852    0.460
       117 -13.1974    134.9274     79.6204   8.8190362915e+01   3.9715232875e+01     0.878386    0.4258431  54.36  0.003223945    2.262    0.558
       118 -13.5608    133.9123     67.2889   8.4724657653e+01   4.2235737160e+01     1.077795    0.7530196  36.28   0.00508198    1.551    0.355
       119 -14.2982     23.6182    224.1214   1.3244689215e+02   2.8330010219e+01    0.8022913    0.4536079  85.96  0.006428365    1.483    0.326
       120 -13.7587      8.9279    210.6761   1.3416626691e+02   3.1834011503e+01    0.6006559    0.4416743  52.88  0.005405285    1.350    0.259
       121 -11.8623    113.8129     80.4133   9.3817973438e+01   4.3907089964e+01    0.3682784    0.3390303 -60.99  0.001486786    1.081    0.075
       122 -11.9889     41.8779     77.1618   1.1425285147e+02   5.5232685866e+01    0.3046795    0.2296805 -60.99 0.0009275125    1.109    0.098
       123 -13.5779    198.6965     70.5812   7.2194628409e+01   2.6062429369e+01    0.9717128    0.5248021  41.31  0.002565682    1.972    0.493
       124 -14.3406      5.3792     63.8146   1.2373736577e+02   6.0958247607e+01    0.5706601     0.505752 -45.27  0.003684578    1.302    0.232
       125 -13.1914     16.6484    196.0801   1.3229266543e+02   3.3556983892e+01    0.7272686    0.2075022 -71.49  0.004018284    3.093    0.677
       126 -13.7416     74.6637     74.3283   1.0337921526e+02   5.1843005741e+01    0.9299446    0.6411459  16.31  0.004692301    2.056    0.514
       127 -11.4155    158.1238     63.4617   7.7916550245e+01   3.7240276195e+01    0.3272175    0.1897828 -49.14  0.001330843    1.957    0.489
       128 -13.4929     79.3926     60.2558   9.7920713684e+01   5.4074212078e+01    0.6768349    0.4822872 -27.09  0.003574052    1.590    0.371
       129 -13.7421    177.9768     57.9284   7.2169899770e+01   3.3169924074e+01    0.7497119    0.6439058 -67.79  0.002165549    1.336    0.251
       130 -12.2930     38.9611     60.6028   1.1158080449e+02   5.9126950887e+01    0.2968327    0.2177699  59.09  0.001829774    1.693    0.409
       131 -12.3852     24.5382     59.9952   1.1647787959e+02   6.0519526581e+01    0.3095387    0.1827021 -58.66  0.001039908    1.324    0.244
       132 -11.4024     30.5168     58.5610   1.1406189828e+02   6.0340137683e+01    0.2704531    0.1397504 -65.38  0.001019116    1.629    0.386
       133 -11.7651    248.0677     53.3320   6.0226056889e+01   1.6436407920e+01    0.6689061      0.25776 -27.52  0.002615475    2.304    0.566
       134 -11.3968    231.3206     55.5940   6.2956991051e+01   2.0104450583e+01    0.2657455    0.1462818  68.91   0.00112632    2.113    0.527
       135 -14.6441     39.4648     67.7243   1.1304719507e+02   5.7535228558e+01     2.356811    0.5860082  29.25    0.0088102    4.791    0.791
       136 -10.5143     36.5013     53.4770   1.1068328101e+02   6.0888480555e+01    0.1233369    0.1002898 -55.63 -0.0001009317    1.003    0.003
       137 -11.1797     85.9680     50.2739   9.2579781550e+01   5.4976744007e+01    0.3382927    0.1864789 -37.55  0.001325433    1.726    0.421
       138 -10.7524     23.1717     49.9571   1.1474055564e+02   6.2778365475e+01     0.171715    0.1379559 -78.08  0.000506758    1.239    0.193
       139 -12.8554    154.5289     46.4966   7.3125271772e+01   4.0832047154e+01    0.5651769    0.3134339  51.51  0.002093196    1.767    0.434
       140 -13.1994    158.4775     43.5039   7.1286923534e+01   4.0284217428e+01     0.740665    0.4261564  55.74  0.002858521    1.718    0.418
       141 -14.0889     30.3581    168.5157   1.2821425320e+02   3.7206665600e+01       0.6213    0.5161684 -71.79  0.002036091    1.417    0.294
       142 -13.4595     22.6100    181.3459   1.3048150689e+02   3.5586070511e+01    0.4518097    0.3177422  86.87  0.002156399    1.156    0.135
       143 -15.0602      8.1413    183.6189   1.3315779667e+02   3.6480655459e+01    0.9777554    0.6742328  66.24  0.008121762    1.103    0.094
       144 -11.8450    194.8990     23.7201   5.8520447113e+01   3.3290578071e+01    0.4252955    0.3185429 -10.20  0.001290665    1.419    0.295
       145 -12.5942    198.8197     37.4896   6.2276953811e+01   3.0607529529e+01    0.5086473     0.374382 -76.43  0.001481694    1.662    0.398
       146 -14.0184    217.8345     42.0718   6.0957816699e+01   2.5137421655e+01     1.244065    0.5197833  61.10  0.003709689    2.370    0.578
       147 -12.8429    204.9428     40.2396   6.2218145586e+01   2.8668287678e+01     0.605049    0.3923807 -85.20   0.00258352    2.091    0.522
       148 -15.4589     15.4729    175.4399   1.3143995391e+02   3.7311478069e+01     2.110874    0.8463534  74.29   0.01204891    2.317    0.568
       149 -13.4097      9.1360     42.7499   1.1849513762e+02   6.5245301787e+01    0.8928784    0.5935215  58.07  0.005774448    1.991    0.498
       150 -12.8537     52.9741    214.4663   1.2728007653e+02   2.6748464169e+01    0.3671473    0.1804823  60.33  0.002467717    1.599    0.375
       151 -14.0047     66.6980    223.2887   1.2562071090e+02   2.3757592939e+01    0.7141963    0.3978225  41.86  0.005008049    1.625    0.385
       152 -14.3372     62.8941    214.9754   1.2567259434e+02   2.5511452014e+01    0.6595309    0.3711653  63.30  0.004254494    1.420    0.296
       153 -11.4453    249.0140    225.4881   9.6356184919e+01  -3.3655117327e+00     0.170767   0.08054531  39.72  0.001044519    1.625    0.385
       154 -11.1650     85.3257    215.8737   1.2197964424e+02   2.2560940836e+01    0.1985871    0.1108607  53.50   0.00132872    1.374    0.272
       155 -11.2463    201.1859    215.6012   1.0236132305e+02   4.9732191668e+00    0.1735459   0.08221763  36.20 0.0009533166    1.738    0.425
       156 -11.0102    169.3726     43.1998   6.9053834749e+01   3.7537371031e+01    0.2466642    0.1845512  66.09 0.0006954268    1.411    0.291
       157 -11.1119     25.5010     43.0412   1.1210146665e+02   6.4053988469e+01    0.1850888    0.0945482 -59.12  0.000481946    1.543    0.352
       158 -13.0243     75.8746     37.3931   9.1256518519e+01   5.9078165497e+01    0.3856415    0.3002196  11.88 0.0007946522    1.481    0.325
       159 -12.4808     70.4623     36.7276   9.2891928775e+01   6.0057871548e+01    0.4733844    0.3359152 -14.29  0.002113927    1.656    0.396
       160 -12.3506    245.3646     36.6965   5.6125233272e+01   1.9014558240e+01    0.4625544     0.279619 -69.93  0.001167452    2.203    0.546
       161 -12.0998    241.0141     36.2313   5.6477824232e+01   2.0104503716e+01    0.4432379    0.2635382  72.79  0.002074967    1.885    0.469
       162 -12.4369     46.2521     33.9108   1.0096535767e+02   6.3870651790e+01    0.6037942    0.2812504 -32.20  0.002674616    2.614    0.617
       163 -13.2676     55.9754     27.4941   9.4666181007e+01   6.3853786946e+01     0.449404    0.3254674  38.42  0.001395955    1.615    0.381
       164 -12.4465    139.1075     21.5433   6.7309927857e+01   4.8177950221e+01    0.5031982    0.3202034  69.39 0.0007200575    1.786    0.440
       165 -10.3613    154.3447    214.6758   1.1006043818e+02   1.2624888541e+01    0.1150983   0.07641007  65.14 0.0007050402    1.738    0.425
       166 -10.7930    136.5355    211.0586   1.1269168788e+02   1.5921599362e+01    0.1431669    0.1124332 -61.18  0.001024012    1.571    0.364
       167 -11.2455    211.2184     33.3894   5.9288103512e+01   2.7884494526e+01    0.2479979    0.1961666 -25.10  0.000298513    1.235    0.190
       168 -12.1995    216.6400     29.2761   5.7374170313e+01   2.6968178166e+01    0.3229472     0.214459 -55.88 0.0009249034    1.664    0.399
       169 -10.2852     89.2889     30.3087   8.3990763363e+01   5.7963963121e+01    0.1382291     0.101707  -0.06 0.0002040322    1.577    0.366
       170 -11.6160     97.4005     27.0039   8.0112238693e+01   5.6916784759e+01    0.2536967     0.247982  74.09   0.00154549    1.226    0.184
       171 -12.4284     45.5466    208.6476   1.2814614382e+02   2.8522995874e+01    0.2832352    0.1363517 -88.98  0.001827392    2.038    0.509
       172 -12.8949     57.3435    203.8936   1.2582901809e+02   2.7973511382e+01     0.465537    0.2216429  86.24  0.002744224    2.314    0.568
       173 -10.9711     80.2203    208.3976   1.2222756657e+02   2.4410163460e+01    0.1597644    0.0735888  51.34 0.0009497814    1.701    0.412
       174 -10.7524    149.5078    206.9449   1.0993237527e+02   1.4457413065e+01    0.1891301    0.1260188  45.47 0.0006325964    1.193    0.162
       175 -11.6589    223.0281     21.4229   5.4338870642e+01   2.6206017769e+01    0.3193127    0.2664173  68.85 0.0008523465    1.224    0.183
       176 -13.1114     94.4896    218.7548   1.2067971866e+02   2.0899201525e+01    0.2853796    0.1924106  58.08  0.001634678    1.135    0.119
       177 -11.3344     70.9355     16.9613   8.4411149941e+01   6.3361252156e+01    0.1953578    0.1715587 -16.05 0.0004408936    1.043    0.041
       178 -12.6723     41.6167    200.8318   1.2832428080e+02   3.0253625917e+01    0.2150623    0.1235462  82.26  0.001522188    1.504    0.335
       179 -13.1182     39.5659    195.5020   1.2834164431e+02   3.1384031264e+01    0.4028352     0.260662  60.54  0.002639527    1.182    0.154
       180 -12.5853    164.4785    195.8855   1.0579867738e+02   1.3543456992e+01    0.4019964    0.2660319 -88.23   0.00203273    3.008    0.668
       181 -13.3141     99.2157    215.6357   1.1960150451e+02   2.0727569293e+01    0.3696067     0.327161  89.30  0.003032885    1.297    0.229
       182 -12.7628    201.2815    191.6065   9.8710022449e+01   7.7722227676e+00    0.3613867    0.2486917  27.47  0.001755929    1.332    0.249
       183 -10.4302     81.2433    193.3912   1.2070659926e+02   2.6771903707e+01    0.1645574   0.08071848  50.85 0.0009573038    1.666    0.400
       184 -10.2253    107.6649    192.6943   1.1575998183e+02   2.3169258582e+01    0.1036754   0.08965779  15.48 0.0007039862    1.669    0.401
       185 -11.8787     98.6888    187.3759   1.1684113600e+02   2.5385265110e+01    0.2428747    0.2109757  -5.96  0.001663773    1.876    0.467
       186 -12.2664    198.6376    182.6373   9.7684442799e+01   9.3756157109e+00    0.2419447    0.1997672  42.54  0.001590361    1.135    0.119
       187 -11.1004    122.7102    182.1622   1.1163096561e+02   2.2607340393e+01    0.2790003     0.168158  84.93  0.001389609    2.591    0.614
       188 -11.0573    109.1922    183.6155   1.1440573246e+02   2.4472364912e+01    0.1671905    0.1013679  36.49 0.0009513402    1.725    0.420
