#   1 NUMBER                 Running object number                                     
#   2 MAG_AUTO               Kron-like elliptical aperture magnitude                    [mag]
#   3 X_IMAGE                Object position along x                                    [pixel]
#   4 Y_IMAGE                Object position along y                                    [pixel]
#   5 X_WORLD                Barycenter position along world x axis                     [deg]
#   6 Y_WORLD                Barycenter position along world y axis                     [deg]
#   7 A_WORLD                Profile RMS along major axis (world units)                 [deg]
#   8 B_WORLD                Profile RMS along minor axis (world units)                 [deg]
#   9 THETA_WORLD            Position angle (CCW/world-x)                               [deg]
#  10 FWHM_WORLD             FWHM assuming a gaussian core                              [deg]
#  11 ELONGATION             A_IMAGE/B_IMAGE                                           
#  12 ELLIPTICITY            1 - B_IMAGE/A_IMAGE                                       
         1 -10.2815      8.6753     26.4074   9.9675471156e+01   6.9674544194e+01    0.4447435     0.277612 -41.67  0.001521742    1.214    0.177
         2  -9.0453     21.1296     31.5714   9.5327427257e+01   6.7811686341e+01    0.3418922    0.1351225 -47.36  0.000680746    2.038    0.509
         3 -11.2870    219.0104     25.2224   4.0497983888e+01   2.7688731860e+01    0.3461666    0.2883241  77.52 0.0005831715    1.169    0.144
         4  -9.4839     51.8657     25.7352   7.8561335053e+01   6.5269835101e+01     1.134789    0.3340991 -40.53  0.004325782    3.363    0.703
         5  -8.9769     30.0968     16.0127   8.4114821271e+01   6.9532844163e+01    0.2346606    0.1859432 -30.82 0.0007035686    1.321    0.243
         6  -9.3044     33.7064     12.6250   8.0654922829e+01   6.9601445423e+01    0.3662224    0.1694257  28.01   0.00131023    2.167    0.539
         7 -10.5163     40.1965     15.1985   7.8817590131e+01   6.8413363562e+01     0.332293    0.2497967 -25.52  0.000657679    1.253    0.202
         8  -8.2712     42.4702     10.4406   7.5377964137e+01   6.8741993719e+01    0.2015298    0.1542275 -11.89 0.0005231971    1.110    0.099
         9  -9.8871     46.3204     17.5680   7.7174677862e+01   6.7245042857e+01    0.3946124    0.2291654  16.41  0.001703548    1.795    0.443
        10  -8.6386    126.9147     14.1234   5.0514420628e+01   5.1567594186e+01    0.4467676    0.2223574 -46.87  0.001875972    2.621    0.619
        11 -10.1444    134.7102      9.8243   4.7480102765e+01   5.0077916194e+01    0.7791589    0.3370675 -34.27  0.002923875    2.459    0.593
        12  -8.8675    145.2832     13.3199   4.6830620442e+01   4.7146255742e+01    0.2353445     0.174888 -42.73 0.0002913554    1.485    0.327
        13 -10.3298    141.6161     13.1078   4.7389189646e+01   4.8075249546e+01    0.3685129     0.316247  60.96 0.0005329963    1.058    0.055
        14 -10.5304    182.9540      9.9725   4.0485008440e+01   3.8062679431e+01    0.9035704    0.3678237 -41.92  0.003869848    2.443    0.591
        15 -11.4782    185.9217      3.6798   3.8422523571e+01   3.7927111588e+01    0.4405482    0.2895833  74.27 0.0004428342    1.359    0.264
        16  -9.4962    152.2905     19.6494   4.7735740600e+01   4.4761381366e+01    0.7529439    0.1751295 -31.35  0.001526512    3.871    0.742
        17  -9.2697    157.2347     15.3899   4.5570420535e+01   4.3958762897e+01    0.3956648    0.3782385  71.78  0.002459684    1.052    0.049
        18  -9.8771    211.5114     19.1905   3.9777851216e+01   3.0149319055e+01    0.5361705    0.2864899 -42.07  0.001870948    1.749    0.428
        19  -9.5734    204.4231     12.6026   3.8840394999e+01   3.2555410001e+01     0.300835    0.2618523 -87.57 0.0006915965    1.027    0.026
        20  -9.7456     15.5204      3.6578   8.5665938026e+01   7.2855287116e+01    0.3128734    0.2721148  58.78 0.0001940753    2.541    0.606
        21  -8.7833     17.2681      9.6054   8.7743370807e+01   7.1820459618e+01    0.2468617    0.1529028 -16.06 0.0007031365    1.357    0.263
        22  -9.4430     13.2068      9.0769   8.9757789293e+01   7.2265794275e+01    0.3256679    0.1743231 -24.07  0.001214867    1.575    0.365
        23  -9.9515     16.2305     18.7143   9.2567482467e+01   7.0465458911e+01    0.3759467    0.2080179 -40.98  0.001127948    1.476    0.322
        24 -10.5955     22.5858     17.0868   8.8473113919e+01   7.0155533420e+01    0.6362743    0.2717285  35.76  0.003189497    2.924    0.658
        25  -8.4128     66.9463     11.7813   6.6000622605e+01   6.4653047364e+01    0.1999482    0.1415229  20.30 0.0005010676    1.244    0.196
        26  -9.0426     63.9853     17.4528   6.9804445212e+01   6.4497236540e+01    0.3953989    0.2629442  -4.70  0.002092165    1.468    0.319
        27  -8.9940     60.5869     11.5431   6.8275789209e+01   6.5790443335e+01    0.4049233    0.2722712  67.17  0.001747685    3.101    0.677
        28  -8.9640    247.3647     17.2577   3.6105518770e+01   2.2286761630e+01     0.276673    0.1743529 -47.07   0.00133116    1.356    0.263
        29 -11.5569     90.4297     14.1113   5.9405055607e+01   5.9831013115e+01     1.505977    0.7364628  17.83  0.004038173    3.016    0.668
        30 -11.8459    101.3585     13.8994   5.6305621161e+01   5.7504151630e+01    0.2847057     0.224906  33.94 0.0003357084    1.107    0.096
        31 -10.4666    100.2932      9.7114   5.4839053330e+01   5.8144835438e+01    0.2346192    0.2148352  69.93 0.0002088646    1.292    0.226
        32  -9.3529    238.0509      7.8012   3.4758357409e+01   2.5340251299e+01    0.4087232    0.2115254  63.23  0.002174767    1.960    0.490
        33  -8.9375    232.8389      5.9695   3.4747852673e+01   2.6679926333e+01    0.2702891    0.2010029 -84.33 0.0007892663    1.194    0.163
        34  -9.5479    234.8466      1.6261   3.3638358721e+01   2.6683393901e+01     0.234751     0.170395 -59.69 0.0007457556    1.179    0.151
        35  -9.3730    236.4532     12.4850   3.5920059967e+01   2.5183787145e+01    0.4433854     0.210536  74.85  0.002216651    2.043    0.510
        36  -9.5475    113.0048     12.4638   5.2882337714e+01   5.5011084992e+01    0.2856898    0.2200256  41.81 0.0006622078    1.139    0.122
        37  -9.1854    193.2653     12.8186   4.0083400457e+01   3.5237709472e+01    0.3857576    0.2586635  50.38  0.001314298    1.572    0.364
        38  -9.1584    195.6826      5.6248   3.7927353596e+01   3.5364413213e+01    0.3558806    0.2933366  30.41  0.001563835    1.507    0.336
        39  -8.8384    129.2027     11.2014   4.8999126069e+01   5.1291726549e+01    0.5008303     0.161413 -41.96  0.001710513    3.995    0.750
        40  -9.8982      4.1752      3.2122   9.2148264237e+01   7.3883043417e+01    0.4546802     0.231146  28.88  0.002397345    2.347    0.574
        41  -9.2450      6.4985     12.5195   9.5201542304e+01   7.2238977760e+01    0.2425866    0.1575075 -30.56  0.001007031    1.131    0.116
        42  -9.7607      6.5168      7.9641   9.3083035280e+01   7.2973561908e+01    0.5360919    0.2110291 -42.31  0.002925491    1.968    0.492
        43  -9.6751    250.2902      7.9426   3.3905311765e+01   2.2706723307e+01      0.33674    0.1516707 -37.46 0.0006727419    1.927    0.481
        44 -10.4056    244.0191      4.3874   3.3588727640e+01   2.4412222886e+01    0.4718021     0.222463 -57.08  0.002199004    1.914    0.478
        45  -9.0640    248.5319      1.8469   3.2750317456e+01   2.3721693089e+01    0.2063891    0.1516055  88.26  0.000341325    1.253    0.202
        46  -9.8023    225.8021      8.5933   3.5903821100e+01   2.7982958876e+01    0.6149803    0.2230536 -58.16  0.002414581    3.168    0.684
        47 -10.2433    223.2224      4.6216   3.5196465771e+01   2.8979229888e+01    0.4173376    0.3243728  39.96  0.001434103    1.681    0.405
        48  -8.5066    171.7534     11.8865   4.2426083327e+01   4.0664231311e+01    0.2356769    0.1752409  72.59 0.0006555929    1.223    0.182
        49  -9.1663    163.7349     11.3842   4.3365964338e+01   4.2720530142e+01     0.309593    0.2264517  84.85  0.001682822    1.362    0.266
        50  -9.3776     81.2840     11.9768   6.1227483698e+01   6.1918590116e+01    0.2530606    0.1612991  36.58 0.0005859364    1.377    0.274
        51  -8.3459    150.1814     10.7935   4.5196822439e+01   4.6165946878e+01    0.1948951    0.1679352  89.09  0.000455098    1.187    0.157
        52 -10.0473     25.3941      9.9943   8.3554700942e+01   7.0938827124e+01    0.3751391    0.3078024 -28.24   0.00106828    1.379    0.275
        53  -7.9453     23.6455      2.7958   8.0685982867e+01   7.2123092971e+01    0.2074474    0.1659919 -53.18  0.001329888    2.358    0.576
        54  -7.9836     48.1579      9.5193   7.2367392226e+01   6.8027425428e+01    0.1817314    0.1576714 -20.13  0.001240679    1.374    0.272
        55 -10.0337    209.5261     11.5651   3.8073436131e+01   3.1447423471e+01    0.2914082    0.2499687 -69.57  0.000718945    1.053    0.050
        56  -8.8281     77.7053      2.1762   5.7800975118e+01   6.3570492658e+01     0.309278    0.1499316  50.90  0.001368029    1.840    0.456
        57 -11.1785     64.5697      5.8655   6.3978769350e+01   6.5713311460e+01    0.8063063     0.301339  44.93  0.002593969    2.362    0.577
        58 -10.0668     32.2756      6.3009   7.8099486498e+01   7.0634588854e+01    0.2847508    0.2385568   5.84 0.0005147109    1.259    0.206
        59  -8.8950     34.1950      1.7797   7.4695304893e+01   7.0946786565e+01    0.1928096     0.134387  18.64 0.0002908328    1.251    0.200
        60  -9.5269    113.4254      4.3682   4.9620694149e+01   5.5631669979e+01    0.3664565    0.2682683   7.18 0.0009704944    1.463    0.317
        61  -8.8679     85.4644      7.1471   5.7772383646e+01   6.1550204264e+01    0.3153077   0.09603767  43.47  0.001221267    2.776    0.640
        62  -9.0110     74.2911      4.6727   6.0062346119e+01   6.4014593653e+01    0.2515751    0.1932634 -40.34 0.0007927144    1.711    0.416
        63  -8.9753    145.7869      5.4867   4.4144018438e+01   4.7730324931e+01    0.4246289    0.2064063  54.79   0.00110487    1.754    0.430
        64  -8.9552    150.8955      1.6930   4.2150895961e+01   4.6779542523e+01    0.2976902    0.1877174  40.28  0.001549302    1.630    0.386
        65  -8.3844    108.0078      5.9372   5.1432346685e+01   5.6748669491e+01    0.1923063    0.1710057  37.38 0.0003850023    1.045    0.044
        66  -8.0011     40.9460      6.5245   7.4045340510e+01   6.9447379638e+01    0.1619968    0.1047872  30.75 8.521222e-05    1.477    0.323
        67  -8.5675    168.9790      4.9803   4.0749233869e+01   4.2001358285e+01    0.2043137    0.1791272  79.87 0.0008035696    1.027    0.026
        68  -8.4293    130.0950      3.0630   4.5908744152e+01   5.1776164455e+01    0.3181526    0.1681233 -26.70  0.001031687    2.057    0.514
        69  -8.4240    218.1454      3.1536   3.5267511729e+01   3.0289159925e+01    0.2193197    0.1570461 -55.16 0.0004753542    1.271    0.213
        70  -8.5861    121.6015      3.8839   4.7778950616e+01   5.3748325560e+01    0.3191683    0.1491379  44.31 0.0009892011    1.916    0.478
        71  -8.8636    204.0320      2.7222   3.6385828802e+01   3.3637283841e+01    0.3691744    0.2130331  69.70  0.001886473    1.567    0.362
        72  -7.7929    210.4751      2.5002   3.5758676416e+01   3.2136551545e+01    0.1265568    0.1091449 -82.30 0.0002206689    1.018    0.018
        73  -7.8132     82.2477      2.3718   5.6534714145e+01   6.2637733809e+01    0.1333937   0.08078171  20.70 0.0006947995    1.629    0.386
        74  -7.5775     38.2715      2.6839   7.3232679695e+01   7.0281899374e+01    0.1007808   0.08905806 -25.68  0.000696666    1.559    0.359
        75  -8.1917    158.0176      1.4425   4.1094811301e+01   4.5032005318e+01    0.1987642    0.1175345  72.76 0.0004045165    1.527    0.345
        76  -8.0922     20.5153     68.5815   1.0686333477e+02   6.0307823069e+01    0.1640664    0.1071857 -67.55 7.285584e-05    1.477    0.323
        77  -7.7746    233.0109    250.5064   8.7852149696e+01  -9.4731960899e+00    0.1475205   0.09078851  48.84 0.0008105528    2.569    0.611
        78  -8.0721    110.4385    249.7748   1.1067165794e+02   8.7974849459e+00    0.1978873    0.1163628 -70.24  0.001136666    2.157    0.536
        79  -8.7329     10.0217     76.0522   1.1248118806e+02   5.9279653429e+01    0.1925769    0.1455853 -53.32 0.0004125209    1.038    0.037
        80  -8.7969    249.0113     75.0109   4.8961212673e+01   1.4212158537e+01    0.2211038    0.1456863 -62.02  0.001128713    1.673    0.402
        81  -7.8703     87.0341     75.1955   8.4034387270e+01   5.0741640765e+01    0.2183134    0.1483403 -25.16  0.000462326    1.577    0.366
        82  -7.5666    189.4977     73.4346   5.7445615004e+01   2.7978926996e+01    0.1479012    0.1445205 -57.85 6.499472e-05    1.009    0.009
        83  -8.8023    148.3804     72.2631   6.5578549097e+01   3.8240246980e+01    0.2780968    0.2635662 -56.15 0.0007845051    1.113    0.102
        84  -7.8518    152.4876     71.5726   6.4411572204e+01   3.7370084310e+01    0.2129092    0.1420934  44.22 0.0001511362    1.507    0.337
        85  -9.0339    243.0163     71.7358   4.8943112446e+01   1.5955073717e+01    0.3359537    0.2094468  30.64  0.001182769    2.503    0.600
        86  -8.1171    123.8398     70.5892   7.1284501487e+01   4.4261488386e+01    0.2233749    0.2095213 -22.77 0.0004936457    1.051    0.048
        87 -11.0423    128.7495     71.1101   7.0128129175e+01   4.3057792587e+01    0.3035256    0.2764331  33.06 0.0002885187    1.085    0.079
        88  -9.4334    133.7323     68.9934   6.8136522970e+01   4.2295742969e+01    0.4813554    0.2185318  52.14 0.0006207743    2.256    0.557
        89  -8.1808     67.9366     72.2440   8.9745717792e+01   5.4424435896e+01    0.1888953    0.1699417  -9.25 0.0002866151    1.089    0.081
        90  -9.3674     58.3391     71.1626   9.2939429037e+01   5.5979342866e+01    0.4347222    0.3607912   5.43  0.001982562    1.269    0.212
        91  -8.2750     57.4642     66.4713   9.1810699373e+01   5.7089253866e+01    0.2172326    0.1977077   7.61 0.0005973663    1.176    0.149
        92  -9.6455     28.8955     71.5426   1.0431541496e+02   5.9013001239e+01    0.2308539    0.1690974 -51.44 0.0002897067    1.113    0.102
        93  -8.3652    160.7766     70.9682   6.2385896823e+01   3.5451719217e+01     0.236835    0.1957746 -57.59 0.0005202498    1.319    0.242
        94  -8.1664     38.7390     70.8475   1.0031920948e+02   5.8281765437e+01    0.2436309    0.1465983  -0.53  0.001207859    2.149    0.535
        95  -8.4487    210.4988     69.5527   5.2909419043e+01   2.3570988282e+01    0.3472939    0.2324806  89.88  0.001571852    1.967    0.492
        96  -9.0461    192.6287     69.3483   5.5758145330e+01   2.7886573007e+01    0.2596699    0.2343565  40.21  0.000741078    1.180    0.153
        97  -9.5128     93.5171     70.0049   8.0192159185e+01   5.0624849899e+01    0.3065585    0.1778973 -30.30  0.001129728    1.817    0.450
        98  -9.0892    106.3974     64.1602   7.4146821200e+01   4.9206806320e+01    0.2345065    0.2138459 -67.87 0.0007814673    1.344    0.256
        99  -8.9032    101.0128     69.5213   7.7633755150e+01   4.9280855439e+01    0.2705171    0.2194867  59.07  0.001189268    1.504    0.335
       100 -10.4767    100.7006     63.2063   7.5571027428e+01   5.0540694549e+01    0.6091073     0.458867 -31.42  0.003087012    1.280    0.219
       101 -10.0307    113.3871     70.4214   7.4188976333e+01   4.6571710585e+01    0.4719035    0.4179449 -74.45  0.002024909    1.412    0.292
       102  -8.3617    172.8041     67.0883   5.8751347053e+01   3.3136187517e+01    0.4277509    0.2581054  14.40  0.001488754    3.185    0.686
       103  -8.9147    148.4563     67.1295   6.3947292486e+01   3.9120481382e+01    0.3949415     0.241857  26.49  0.001371451    2.229    0.551
       104  -7.8129    152.5240     64.5459   6.2208483818e+01   3.8567216227e+01    0.1519631    0.1462378  23.17 8.097239e-05    1.032    0.031
       105  -8.1349    204.1869     68.7925   5.3692907840e+01   2.5186721040e+01    0.1884245    0.1662024  29.18 0.0003074584    1.290    0.225
       106  -8.5280      3.3899     67.3852   1.1329645784e+02   6.1555730130e+01    0.2447762     0.125115 -72.39  0.001134605    1.795    0.443
       107  -7.7646    221.8453     67.6727   5.0763093077e+01   2.1232217009e+01     0.187946      0.13025  77.89 0.0003869524    1.663    0.399
       108  -9.6723     15.8585     65.5416   1.0798779511e+02   6.1288647764e+01     0.516462    0.2163906 -25.69  0.001386606    3.111    0.679
       109  -9.7638    232.8237     64.3811   4.8477080487e+01   1.9261015161e+01    0.3659541    0.3260577 -63.76  0.001364504    1.067    0.063
       110 -10.5692     48.9116     65.5004   9.4805631825e+01   5.8350041729e+01    0.2782796    0.2521365 -13.80 -0.001312373    1.123    0.109
       111  -9.2058    144.0020     64.0504   6.4004498763e+01   4.0722590918e+01    0.3046049    0.2619173 -48.21 0.0006418848    1.229    0.187
       112  -7.7695     89.4897     65.4993   7.9993324713e+01   5.2251784341e+01    0.1467117    0.1330386 -13.19 0.0008106067    1.003    0.003
       113  -8.0421    201.7169     64.0803   5.2818716425e+01   2.6517118633e+01    0.1973654    0.1813505 -34.45 0.0003792848    1.093    0.085
       114  -7.6936    126.6867     64.3387   6.8440690658e+01   4.4747567484e+01    0.2179108    0.1435184  77.35 0.0008395189    2.562    0.610
       115  -9.3176    121.9618     64.0837   6.9630656517e+01   4.5862192468e+01    0.2868674    0.2040052  47.90            0    1.412    0.292
       116  -7.9682    161.4439     62.6910   5.9712686592e+01   3.6673536860e+01    0.2095487    0.1487886 -18.18 0.0009467253    1.613    0.380
       117 -10.1128    242.3533     60.2796   4.6332610540e+01   1.7786181511e+01    0.4831746    0.2527105 -31.34  0.002263145    1.834    0.455
       118  -9.1822     80.5893     62.0060   8.1826139989e+01   5.4501499777e+01     0.653939     0.238752  31.70  0.002193791    3.520    0.716
       119 -10.1969     40.3088     61.2255   9.6915977947e+01   6.0197943354e+01    0.3053727    0.2592646  89.32 0.0009302381    1.688    0.408
       120  -8.6064     27.9732     61.7232   1.0209552649e+02   6.1238751939e+01    0.2622493    0.1719851 -27.22 0.0007339477    1.470    0.320
       121  -9.6723     24.9567     59.5004   1.0272318453e+02   6.1957087102e+01    0.3563647    0.2650164 -29.12  0.001796611    1.213    0.176
       122  -8.1615      7.9807     62.4740   1.1044818096e+02   6.2413709675e+01    0.1535652    0.1168531   3.54 0.0003429105    1.554    0.357
       123  -8.6371    134.5039     59.2466   6.4724974097e+01   4.3797530345e+01     0.486541    0.2322102 -54.36  0.001575912    3.477    0.712
       124  -7.4400    117.2593     61.6574   7.0109110988e+01   4.7335616551e+01    0.1453729    0.1179749 -64.88 0.0003038066    1.590    0.371
       125  -7.8510     59.9326     61.6967   8.9311267162e+01   5.7744074996e+01    0.2174427    0.1069555   9.21 0.0007032526    4.372    0.771
       126  -8.3446    188.6846     60.0317   5.3823915178e+01   3.0323025670e+01    0.3359559    0.2025713  61.51  0.001500303    1.678    0.404
       127  -7.6860    149.8241     58.9582   6.1032947754e+01   4.0145702100e+01    0.1968247    0.1727989 -70.28  0.000386621    1.293    0.227
       128  -9.1556    235.2589     56.6508   4.6311573617e+01   1.9850679473e+01    0.3855675    0.2181268 -67.23  0.001720329    2.236    0.553
       129  -8.1062    235.4543     61.5056   4.7452339869e+01   1.9105323968e+01    0.1978936    0.1683225 -85.53 4.860246e-05    1.216    0.178
       130  -9.5452    157.1109     56.9468   5.8826087902e+01   3.8664547282e+01    0.5730188    0.3245832  72.21   0.00164819    2.344    0.573
       131  -7.8716     89.3959     57.7789   7.7306262796e+01   5.3721815802e+01    0.2177238    0.1275594 -28.21 0.0009083588    1.765    0.433
       132  -8.6037    208.3604     64.7996   5.1986012306e+01   2.4816530233e+01    0.2287861     0.217874  65.47 0.0004011155    1.103    0.094
       133  -8.2749      5.9867     58.2195   1.1029885462e+02   6.3437596542e+01    0.3151706    0.1057475 -33.45  0.001339305    3.125    0.680
       134  -9.9510      9.8899     52.8637   1.0733318658e+02   6.4374177333e+01    0.2950611    0.2100939 -45.86  0.001233094    1.062    0.058
       135  -9.3937      6.0490     50.7398   1.0845792947e+02   6.5024521262e+01    0.2145784    0.1549475 -37.35 0.0002259917    1.147    0.128
       136  -7.9411    224.2285     56.7904   4.7714371715e+01   2.2309805838e+01    0.1737838    0.1620214  21.48 0.0005102986    1.278    0.217
       137  -9.0576    192.6896     56.8221   5.2264504715e+01   2.9822074433e+01    0.2834968    0.2196406 -72.19 0.0003974602    1.428    0.300
       138  -9.1242    188.3228     52.1065   5.1642009446e+01   3.1596520853e+01    0.3705943    0.2083914 -57.35  0.001110367    2.156    0.536
       139  -8.9295    141.5698     55.3986   6.1746476027e+01   4.2727075117e+01    0.4306149    0.2874431  14.50  0.001361129    2.073    0.518
       140  -9.3379     62.8603     55.3249   8.5980870316e+01   5.8590894448e+01    0.3802331    0.2935131  82.46  0.001435586    2.525    0.604
       141  -8.0853    207.2035     55.5622   4.9716065818e+01   2.6480031967e+01    0.2466461    0.2220356  15.95 0.0009419707    1.317    0.240
       142  -9.2860    205.7421     50.9622   4.8704711546e+01   2.7494722023e+01    0.3941889    0.2835858  20.49  0.001888561    1.978    0.495
       143  -8.8865    124.0216     54.8664   6.5912098110e+01   4.6962269325e+01     0.523404    0.3258293  17.64  0.001693452    2.292    0.564
       144  -8.8723    128.3219     50.3799   6.3242159714e+01   4.6674936938e+01    0.3727152    0.3341666  -4.02  0.001202332    1.121    0.108
       145  -9.3337    113.5288     55.1179   6.8876321087e+01   4.9276073615e+01    0.4169235    0.3496101  25.97 0.0005320556    1.166    0.143
       146 -10.0570    119.8995     49.9443   6.5272429917e+01   4.8690318826e+01     0.544975    0.3226773 -31.91 0.0007628318    1.709    0.415
       147  -9.1395     28.6341     54.0180   9.9570131179e+01   6.2806025482e+01    0.4368069    0.1574896 -38.99  0.001422643    2.499    0.600
       148  -8.2619     77.2077     54.7943   8.0444503413e+01   5.6436228533e+01    0.1960589     0.179282 -21.45 0.0004238416    1.114    0.102
       149  -8.6943    197.5184     48.5249   4.9230314188e+01   2.9838969679e+01    0.2373109    0.1929515 -41.83 2.152598e-05    1.199    0.166
       150  -8.4358    195.7187     53.2719   5.0804420889e+01   2.9601346271e+01    0.2056143    0.1849714  75.59 0.0001640022    1.103    0.094
       151 -10.2191    193.1096     49.0787   5.0042484697e+01   3.0845567607e+01    0.4164695    0.3433145 -87.08  0.001021122    1.261    0.207
       152  -7.8473    173.0601     53.0426   5.4522973602e+01   3.5271393024e+01    0.2792262    0.1347883 -52.64  0.001012819    2.641    0.621
       153  -9.1859     93.4434     49.5661   7.2941908558e+01   5.4382966652e+01    0.5763044    0.3251777 -49.71  0.002251317    2.270    0.559
       154  -8.2056     88.4800     46.4833   7.3398948678e+01   5.5854676261e+01    0.2951647    0.2005221  24.00  0.001467236    1.539    0.350
       155  -8.4497     42.1287     52.7613   9.3438345162e+01   6.1738375402e+01    0.3772237    0.1269528 -43.31  0.001203522    2.469    0.595
       156  -8.8287     43.1525     47.9250   9.1320321481e+01   6.2570737172e+01    0.3619736    0.2565702  60.74  0.001472224    2.689    0.628
       157  -8.7660     39.7961     43.9256   9.1316698233e+01   6.3709568126e+01     0.228802    0.1485041 -41.42  0.000846834    1.323    0.244
       158  -8.3429    181.7898     51.7840   5.2625745662e+01   3.3270491502e+01    0.2474083    0.1474316  24.34 0.0009435151    2.733    0.634
       159  -8.8611     81.0113     48.9774   7.6915407335e+01   5.6813015405e+01    0.3482985    0.2728122  15.24   0.00135618    1.260    0.206
       160  -9.7116    244.6960     49.9850   4.3678349735e+01   1.8733326500e+01    0.3911471    0.2546277  42.32  0.001373029    2.034    0.508
       161  -9.3541    246.8512     44.5327   4.2207810940e+01   1.9011413855e+01    0.2650849    0.1982198 -35.93 0.0003163833    1.270    0.213
       162  -8.9225    250.0443     40.5084   4.0988279157e+01   1.8866682079e+01    0.2510845    0.2138095 -72.91  0.001076563    1.095    0.087
       163  -9.3906    247.5338     37.5335   4.0561670081e+01   1.9783768433e+01    0.4125478    0.2332884 -50.00  0.002005292    1.548    0.354
       164  -8.1077     68.1176     49.8598   8.1962439621e+01   5.8818933057e+01    0.2494525    0.1754041  16.60  0.001062823    1.493    0.330
       165  -8.3001     72.0845     51.0911   8.0939208222e+01   5.7962042003e+01    0.2394845    0.1806972 -42.80 0.0006629995    1.368    0.269
       166  -8.6614     74.4324     48.4596   7.9077241041e+01   5.8042506501e+01    0.2548654    0.1984672  53.90 0.0007602751    1.710    0.415
       167  -9.4026    222.3575     49.9190   4.6237694227e+01   2.3717530338e+01    0.3142654    0.2031778  71.51  0.001129383    1.620    0.383
       168  -8.2441    220.5282     46.4797   4.5603441817e+01   2.4617117504e+01    0.2960744    0.1664068 -43.66   0.00086975    1.630    0.387
       169  -9.4769    213.4627     49.2796   4.7213251796e+01   2.5887413243e+01    0.3343087    0.2865339 -67.13 0.0005356703    1.114    0.102
       170  -9.0664    237.3661     48.4731   4.4123999088e+01   2.0531703277e+01    0.2647563    0.1927654 -42.80  0.001493186    1.227    0.185
       171  -7.6387    168.3166     49.6579   5.4367272869e+01   3.6958558612e+01    0.1556917    0.1108294 -66.82 0.0007048587    1.712    0.416
       172  -7.9568    134.4738     49.4515   6.1414175964e+01   4.5357305457e+01    0.1953314    0.1449213 -13.14 0.0001080115    1.501    0.334
       173  -9.6799    137.3666     44.8474   5.9161261819e+01   4.5338234327e+01    0.4292218    0.3329753  31.25  0.001506475    1.326    0.246
       174  -7.8344     61.5852     49.4825   8.4340227396e+01   5.9876995508e+01    0.1343386    0.1169249 -21.51 0.0001872381    1.075    0.070
       175  -8.9550     84.8057     51.3677   7.6502227371e+01   5.5713258299e+01    0.2540769    0.2266278   7.08 0.0006558286    1.053    0.050
       176  -7.3125    181.6974     47.2721   5.1331746168e+01   3.3939291429e+01    0.1452944     0.107824 -70.60 0.0003286437    1.534    0.348
       177  -9.7580    174.1298     44.9494   5.1913829981e+01   3.6163181808e+01    0.3165981    0.3111599  -9.06 0.0008573695    1.079    0.074
       178  -8.7526    164.3863     46.2268   5.4039495221e+01   3.8437199116e+01    0.2535656    0.2184198 -83.17 0.0004162427    1.260    0.207
       179  -8.4241    147.9136     41.6031   5.5780730215e+01   4.3202033182e+01    0.2561692    0.2263741  32.11 0.0007141546    1.135    0.119
       180  -8.1866    151.3217     45.3404   5.6307280250e+01   4.1834548751e+01    0.2932528    0.1935948  13.80  0.001255235    2.124    0.529
       181  -7.7896    155.3175     47.2927   5.6127424546e+01   4.0559662742e+01     0.202458    0.1352307 -40.28 0.0002898482    1.543    0.352
       182  -8.9207    155.7413     43.9521   5.4972854517e+01   4.0925883031e+01    0.3610744    0.2365015  68.18 0.0006910657    1.609    0.378
       183  -8.5537    152.7352     40.5900   5.4478066418e+01   4.2138157432e+01    0.2887059    0.2396181  86.44 0.0009979666    1.339    0.253
       184  -8.5302     20.3561     47.2037   1.0109541568e+02   6.4863086719e+01    0.1953616    0.1404719 -19.45 0.0006155235    1.310    0.237
       185  -9.0482    238.0085     42.9168   4.2748726379e+01   2.1140723390e+01    0.2525088    0.1811962 -54.69 0.0008860652    1.253    0.202
       186  -9.4347    233.9193     44.8714   4.3651777640e+01   2.1784814876e+01    0.2755104    0.2630817  30.73 0.0008622533    1.280    0.219
       187  -8.9266    232.1971     41.3931   4.3011469230e+01   2.2634452680e+01    0.3156156    0.2058582 -82.03  0.001132939    1.698    0.411
       188  -9.2184     29.3805     44.8078   9.6253261151e+01   6.4591217539e+01    0.3684051    0.2497349 -71.14  0.001572366    2.268    0.559
       189 -10.2521     34.2615     43.6302   9.3654663923e+01   6.4350121981e+01    0.4587905     0.297288 -34.63   0.00105162    1.267    0.211
       190  -7.7292      8.3093     45.3057   1.0598803484e+02   6.6029593076e+01    0.1621165   0.09774635 -23.77 0.0006924536    1.590    0.371
       191  -7.6003      9.5151     42.4834   1.0461384562e+02   6.6532970737e+01    0.1924784   0.07865207 -48.47 0.0008484979    1.750    0.429
       192  -8.3037    187.9612     44.0242   4.9409101946e+01   3.2824926247e+01    0.2178635      0.17692 -70.63  0.001155558    1.283    0.221
       193  -8.6470    185.4794     41.5156   4.9074673849e+01   3.3782768536e+01    0.2765639     0.204261 -64.67  0.000569477    1.467    0.318
       194  -8.3520     95.1513     43.8395   7.0208619764e+01   5.4970191061e+01    0.1970828     0.187161   0.57 0.0003435891    1.126    0.112
       195  -8.6146     66.9729     41.9585   7.9330065036e+01   6.0383655551e+01     0.305141    0.2629257   7.64  0.001860942    1.096    0.087
       196  -9.2942     62.5199     39.0321   7.9883523786e+01   6.1572539731e+01    0.5778306    0.2994445  32.73   0.00277991    1.975    0.494
       197  -8.6855     67.6471     36.3829   7.6795830410e+01   6.1188085499e+01    0.2812811    0.1695293  33.68 0.0007810734    1.648    0.393
       198  -9.2320     59.7665     33.5577   7.8704359321e+01   6.2885834978e+01    0.2815188    0.2144651 -27.53 0.0003366211    1.208    0.172
       199 -10.2004     52.1945     37.8794   8.3629388022e+01   6.3267575517e+01    0.4195646    0.2431506 -35.52   0.00143781    1.530    0.346
       200  -8.4340     56.2665     36.4326   8.1339046313e+01   6.2939051437e+01    0.2310073    0.2021945   9.87 0.0007124874    1.176    0.150
       201  -9.4438    223.6062     40.2677   4.3695970943e+01   2.4738459015e+01    0.4631324    0.2118318 -40.05  0.001555966    1.952    0.488
       202  -8.3461    225.4966     36.4139   4.2541935923e+01   2.4804547582e+01     0.246148    0.2101438 -59.20 0.0006704031    1.049    0.046
       203  -8.6019    163.3060     42.1419   5.2968684824e+01   3.9274425625e+01    0.2371368    0.1835993  47.30 0.0003701651    1.271    0.213
       204  -8.9307    127.8738     41.2019   6.0119207487e+01   4.8132451032e+01    0.3434807     0.281153 -11.79  0.001521784    1.278    0.218
       205  -7.8415     85.2595     42.5562   7.2951070827e+01   5.7100637460e+01    0.1850042    0.1236004  28.90  0.000519231    1.493    0.330
       206  -7.7272     78.3463     41.3088   7.4859023267e+01   5.8567601172e+01    0.1457717   0.09824692   5.44 7.248057e-05    1.703    0.413
       207  -8.9946     19.8433     40.0980   9.9021189895e+01   6.6309564720e+01    0.2589875    0.2070066  21.03  0.001235247    1.495    0.331
       208  -9.0831     12.9394     36.5178   1.0110219376e+02   6.7496208140e+01    0.3796369     0.268989  63.15  0.002076387    2.785    0.641
       209  -8.2814    241.9534     40.5484   4.1792003633e+01   2.0591424068e+01    0.1877161    0.1235345  75.09  0.001024645    1.586    0.370
       210  -8.0677    106.6909     39.9409   6.5231714172e+01   5.3138058991e+01    0.1921552    0.1693757 -11.19 0.0004021158    1.110    0.099
       211  -8.0850     90.2398     40.4197   7.0447878778e+01   5.6476504114e+01    0.3166099    0.1520317  33.59  0.001300623    2.269    0.559
       212  -9.1219    216.1642     38.9121   4.4226380665e+01   2.6651540898e+01    0.3055005    0.2446739  83.36 0.0008015195    1.229    0.186
       213 -10.7923    211.6993     33.6761   4.3424170516e+01   2.8380927467e+01    0.5285975    0.3421479 -50.22  0.001230012    1.473    0.321
       214  -9.2453    119.7659     38.7886   6.1261838041e+01   5.0366258672e+01    0.2864199    0.2157117  47.43 0.0004404829    1.256    0.204
       215 -10.3096    124.5985     36.0055   5.9041946081e+01   4.9614997075e+01    0.3773946    0.3152014 -17.49  0.001105748    1.235    0.190
       216  -9.5595    112.6994     36.3198   6.2189345307e+01   5.2317162728e+01    0.6444059    0.3434342  43.00  0.002864709    1.771    0.435
       217  -9.0917     99.8536     37.8667   6.6431642684e+01   5.4899550785e+01    0.2854237    0.2075407 -25.77 0.0007138583    1.369    0.270
       218  -8.0447      6.9503     38.2222   1.0453518920e+02   6.7527139981e+01    0.1834723    0.1333071   5.89 0.0008429131    1.538    0.350
       219 -10.2726      4.5428     34.3286   1.0449050370e+02   6.8419764067e+01    0.6031604    0.2030572 -46.15  0.002626897    2.021    0.505
       220  -9.8454     14.0891     30.0005   9.8237776845e+01   6.8647231826e+01     0.351807    0.1946034  15.40  0.001884338    1.972    0.493
       221  -8.6110    214.9199    245.0650   9.0236401518e+01  -6.2953082529e+00    0.2579587    0.1376694  44.61  0.001381963    2.101    0.524
       222  -7.8754    143.2745     38.0446   5.5553942563e+01   4.4829271305e+01    0.1751427    0.1288414 -24.38 0.0008160418    1.438    0.305
       223  -8.0917     25.3034     38.2745   9.5819695952e+01   6.6210625559e+01    0.1256723    0.0750377 -24.74 0.0006953833    1.540    0.351
       224  -8.7673    192.7210     36.4647   4.6597536839e+01   3.2642693483e+01    0.2412092    0.2225011  57.13 0.0005555099    1.129    0.115
       225  -9.0156    236.5537     35.9435   4.1270556137e+01   2.2371785241e+01    0.3283504    0.1935544  87.25  0.001357075    1.890    0.471
       226  -7.6538    232.4815     36.5040   4.1819018564e+01   2.3207712872e+01    0.1891956    0.1276997 -18.98 0.0008564591    1.813    0.448
       227  -9.6852     91.5618     34.9623   6.7835100013e+01   5.7020494821e+01    0.4341238    0.3519444  68.44  0.002358048    1.696    0.410
       228  -8.1692     17.8382     34.8257   9.8140535393e+01   6.7470998665e+01    0.2669172    0.1794145  39.54  0.001109028    2.126    0.530
       229  -9.8604     25.2904     32.9732   9.3842933293e+01   6.7193947356e+01    0.3371065    0.2866637 -24.97  0.001223083    1.158    0.136
       230  -8.0486    234.5895    242.8061   8.6341689977e+01  -8.7841801367e+00    0.1386011    0.1042781 -29.73 0.0005627137    1.572    0.364
       231  -8.3182    156.0194     29.2007   5.0180904867e+01   4.2756209532e+01    0.2721942     0.192117  65.47 0.0006391534    1.349    0.259
       232  -8.8939    159.2270     27.2194   4.8994726793e+01   4.2181321352e+01    0.4913666    0.1833506 -35.95  0.001882892    2.655    0.623
       233  -8.0406    161.1854     21.8394   4.6980284554e+01   4.2292593579e+01    0.3048469    0.2122981  52.08  0.001210779    1.348    0.258
       234  -8.2020    157.3506     22.7298   4.7882815345e+01   4.3160166579e+01    0.2740907    0.1874385  87.23 0.0008430221    1.665    0.399
       235  -7.3540     78.6410     35.6885   7.2464639193e+01   5.9390841393e+01    0.1461824   0.09593898   9.35 0.0007042534    1.742    0.426
       236  -7.9034    102.8238     34.1561   6.4099869931e+01   5.4787330241e+01    0.1952701    0.1505497  17.54 0.0004452511    1.288    0.224
       237  -8.5340     33.6159     33.8787   9.0253488892e+01   6.6215406134e+01    0.2282574    0.2045048  46.86  0.001523352    1.679    0.404
       238  -7.9843     70.4911     32.2800   7.3990334851e+01   6.1343245695e+01    0.2876785    0.1895131 -22.77  0.001542483    1.434    0.302
       239  -8.8876     39.6902     32.3858   8.6845540850e+01   6.5797964464e+01    0.2335962    0.1739379 -16.92 0.0006069023    1.124    0.110
       240  -8.6636    133.9152     32.0724   5.5492064211e+01   4.7888430782e+01    0.3093631    0.1880119  52.45 0.0007473015    1.507    0.336
       241  -9.4055     67.9274     26.9625   7.2643752910e+01   6.2554914763e+01     0.463374    0.2791888   3.99  0.001087989    2.036    0.509
       242  -7.8143     62.5225     26.6904   7.4610894267e+01   6.3493563050e+01    0.3759169    0.1811866  18.56  0.001467829    3.217    0.689
       243  -9.2467    187.1900     28.7881   4.5217867567e+01   3.4966663868e+01    0.4009747    0.2889757 -33.18  0.002128846    1.431    0.301
       244  -8.3875     97.1912     29.8380   6.4023340432e+01   5.6562449775e+01     0.268064    0.1727552 -27.54  0.001097826    1.567    0.362
       245  -9.5578     84.0984     29.5575   6.8027053449e+01   5.9246410700e+01    0.3137596     0.231367  -5.38  0.001293249    1.335    0.251
       246  -7.8387     47.0883     30.6944   8.2819189841e+01   6.5155007989e+01    0.1742857    0.1372046 -10.26 0.0003832819    1.052    0.049
       247  -9.2730    224.4912     28.3092   4.0685022071e+01   2.6048551488e+01       0.4415    0.2240068 -34.59  0.001678334    1.859    0.462
       248  -8.7817    194.7103    242.5602   9.3599877266e+01  -2.9734330901e+00    0.2398215   0.09862363  33.51  0.000969217    2.071    0.517
       249  -8.0350    163.7773     29.4048   4.8918884902e+01   4.0777636305e+01     0.327572    0.1260435  46.14  0.001149947    2.748    0.636
       250  -7.8869    167.3474     28.2864   4.7994199745e+01   4.0009213265e+01     0.214503    0.1778819  10.22  0.001167232    1.421    0.296
       251  -8.0082    170.4733     26.4950   4.6962517602e+01   3.9429711320e+01    0.2277687    0.1712902  53.59 0.0005137626    1.274    0.215
       252  -9.4423    168.8495     23.1598   4.6201779929e+01   4.0216853678e+01     1.031083    0.4768813 -87.51  0.003190114    4.493    0.777
       253  -9.5942    123.9308     26.7409   5.5803808610e+01   5.0930700784e+01    0.3284768    0.2043321 -19.44   0.00158139    1.747    0.428
       254  -8.8995    105.0881     26.9140   6.0595614390e+01   5.5230599007e+01    0.3899925      0.24094   3.75  0.001299639    2.036    0.509
       255  -8.8329    104.0103     21.4523   5.8695526190e+01   5.6111964636e+01    0.2944333    0.2038542 -27.98  0.001397702    1.517    0.341
       256  -8.6720    247.7493    237.9934   8.3248301152e+01  -9.9879856261e+00    0.1421789   0.08650287 -24.08 0.0008853668    1.574    0.365
       257  -9.6684    171.8672    233.6761   9.6662515181e+01   1.8871069629e+00    0.3438119    0.2958086  36.79  0.002272438    1.134    0.118
       258  -8.6512     33.9790     16.4805   8.2416966281e+01   6.9012177320e+01     0.216289    0.1451623 -21.58 0.0005446795    1.226    0.184
       259  -7.7545    152.6653    233.6975   1.0047356810e+02   4.9646364689e+00    0.1261141   0.09191845  10.16 0.0005404121    1.661    0.398
       260  -7.5080    102.5062    229.4829   1.1002425483e+02   1.3532636296e+01    0.1246687    0.1049602  54.07 8.113684e-05    1.015    0.015
       261  -8.5199    237.8294    205.9910   7.9323835395e+01  -4.4622816384e+00    0.2062006    0.1613379  19.61  0.000561116    1.165    0.142
       262  -9.9255     51.0720     18.2310   7.5415070022e+01   6.6463735509e+01    0.3123655    0.2195697  30.98  0.001466677    1.407    0.289
       263  -7.6347     18.7384    202.3715   1.2433172420e+02   2.9455504431e+01    0.1227045   0.06519716  71.08  0.000698059    1.655    0.396
       264  -8.0117      1.8373     28.8195   1.0406280126e+02   6.9616253683e+01    0.1326395    0.1231946 -15.23 0.0005133823    1.348    0.258
       265  -7.5542    247.5106     28.4801   3.8548106662e+01   2.0925854859e+01    0.1256557    0.1072222 -62.28 0.0001935004    1.030    0.029
       266  -7.5981    201.9863     28.0382   4.3117075005e+01   3.1412162666e+01    0.1594775    0.1437661 -84.32 0.0003835261    1.018    0.017
       267  -8.4791    130.7878     27.6518   5.4602164667e+01   4.9181570647e+01    0.3228534    0.1267301 -46.19  0.001100069    3.555    0.719
       268  -8.6058    114.6682     27.0610   5.8147133937e+01   5.3055890714e+01    0.2515168    0.1787016  44.38 0.0004113189    1.280    0.219
       269  -7.8975     31.2026     27.4107   8.8730353117e+01   6.7590532657e+01    0.1511159    0.1087438  31.75 0.0009364561    1.679    0.404
       270  -8.4422    237.5441     20.7675   3.7691220381e+01   2.4006662131e+01    0.3438217      0.13074  53.30  0.001437589    3.114    0.679
       271  -8.4363    234.8952     25.6626   3.9047056762e+01   2.4014524330e+01    0.2827091    0.2168943 -49.02  0.001036438    1.167    0.143
       272  -8.8945    239.0966     24.6427   3.8431952755e+01   2.3208670631e+01    0.2330864    0.1870173 -48.02 0.0004689678    1.139    0.122
       273  -8.1973     29.5533    199.3760   1.2197266568e+02   2.9014610432e+01    0.2353559   0.09829003 -74.94 0.0008430124    2.115    0.527
       274  -8.8554    143.2388     22.2531   5.0205839566e+01   4.6740138869e+01    0.3206246    0.2877897  -5.29   0.00188039    1.202    0.168
       275  -7.4497    141.3167    189.6561   9.6012944734e+01   1.4976551579e+01    0.1444045    0.1093558  74.04 0.0006053507    1.716    0.417
       276  -9.1067    140.0300     18.5082   4.9523869802e+01   4.7930950663e+01     0.516739    0.3050861 -82.59  0.002139455    2.687    0.628
       277  -9.9904    133.1368     19.5633   5.1223423538e+01   4.9512182200e+01    0.3392796    0.2267811  36.72 0.0003099306    1.490    0.329
       278  -9.3943    128.5685     19.0000   5.1952685283e+01   5.0678748148e+01    0.3973021    0.1845049  60.01  0.001706556    1.963    0.490
       279  -7.8836    171.7270    152.6402   8.1654730778e+01   1.6730423194e+01    0.1567629    0.1170314  -7.17 0.0007002145    1.653    0.395
       280  -7.5952     39.4975    136.3855   1.1304847721e+02   4.2592703987e+01     0.129841    0.1124288 -76.83 9.873058e-05    1.028    0.027
       281  -8.1144     30.2204     24.8405   8.8100078794e+01   6.8124104771e+01    0.3354429    0.1698467   1.24   0.00155079    2.784    0.641
       282  -9.5497    193.0052     24.1430   4.3173376933e+01   3.4069094862e+01    0.3675109     0.267547 -12.40  0.001291106    1.694    0.410
       283 -10.0638    188.8335     22.6009   4.3274832781e+01   3.5276112641e+01    0.4854187    0.3537821 -69.82  0.002608604    1.425    0.298
       284  -8.4488     13.4121    132.9529   1.1969214943e+02   4.5649637763e+01    0.1886001    0.1536766  67.83 0.0005530149    1.270    0.213
       285  -9.6271     66.1586    131.5559   1.0472888826e+02   4.0704562494e+01    0.5040733    0.2807189  22.47  0.001854891    2.306    0.566
       286  -8.1490     89.6925     25.2032   6.4385085028e+01   5.8706997894e+01     0.195069    0.1581506  36.84  0.001131195    1.160    0.138
       287  -8.8634     78.7551     23.0877   6.7036196314e+01   6.1122465500e+01    0.5349023    0.2887214  -3.97  0.002299505    2.565    0.610
       288  -8.3856     39.7782     25.0356   8.3632445300e+01   6.6998277255e+01    0.3110418    0.1615577  35.69  0.001638234    2.132    0.531
       289  -9.7539    153.7486     32.8582   5.1772593310e+01   4.2883409410e+01    0.4549653    0.2627483 -35.01  0.000837492    1.787    0.440
       290  -8.6919    246.1036     23.3122   3.7528942240e+01   2.1849477813e+01    0.1846713    0.1567992 -41.49 0.0002505489    1.204    0.170
       291  -8.1978    178.8762     23.5342   4.4862574326e+01   3.7654301716e+01    0.2154634    0.1705663 -66.41  0.000722566    1.306    0.234
       292  -8.3521     25.1588    128.0043   1.1588740927e+02   4.5938891910e+01     0.220319    0.1262723  80.60 0.0009544174    2.009    0.502
       293  -7.5621     39.4864    126.5542   1.1159460008e+02   4.5000869832e+01    0.1335132    0.1135746 -76.91 0.0001266669    1.049    0.046
       294  -9.0325    231.3580     19.8389   3.8024576000e+01   2.5489749950e+01    0.4040048    0.1745467 -59.94  0.001726601    2.573    0.611
       295  -8.3763    113.6608     22.2918   5.6558425841e+01   5.3840516306e+01    0.2547174    0.1755016  34.10 0.0001189642    1.383    0.277
       296  -7.8599     95.8305     23.5778   6.1852439499e+01   5.7633914026e+01    0.1853764    0.1289675  64.26 0.0009388193    1.781    0.438
       297  -8.2738     29.9559    124.2886   1.1401016887e+02   4.6436307999e+01     0.178896    0.1512385 -67.91 0.0004798232    1.045    0.043
       298  -9.5470     69.2373    122.7520   1.0212676358e+02   4.2460833301e+01     0.244483    0.2199243 -57.73  0.000271642    1.024    0.023
       299  -9.1150     12.0434    114.9672   1.1794643829e+02   5.0039207157e+01    0.2420664    0.1907236 -71.53 0.0004162266    1.002    0.002
       300  -8.9637     15.5742    112.6889   1.1660033472e+02   5.0350766028e+01    0.2231604    0.1705093 -70.97 0.0005938814    1.048    0.046
       301  -8.3142    245.3289    114.3235   5.8583190684e+01   8.7154800753e+00    0.1411416    0.1037222   1.67 0.0007049527    1.696    0.410
       302  -8.1913     22.5012    113.9614   1.1470342591e+02   4.9547263832e+01    0.1962938    0.1058691 -69.79 0.0004136841    1.520    0.342
       303  -9.1742      6.2653    113.0842   1.1939820907e+02   5.0840692576e+01    0.3010277    0.2137416 -70.76  0.001393628    1.090    0.082
       304  -8.3645     71.0390     20.0933   6.8403399782e+01   6.2927255990e+01    0.2204233    0.1631673 -49.29  0.001023911    1.964    0.491
       305  -7.9796     73.2518     17.0014   6.6199405255e+01   6.2901464687e+01    0.2749484    0.1415959  -4.48   0.00116936    2.682    0.627
       306  -8.1416     58.1144     21.1996   7.3875388729e+01   6.4973480598e+01    0.1891429    0.1436339  -1.89 0.0007722225    1.136    0.119
       307  -8.2849    206.4736     19.9460   4.0500512316e+01   3.1266403944e+01    0.2061606    0.1773939  50.58 0.0007778703    1.300    0.231
       308  -8.2640      2.4353     20.3166   1.0070929810e+02   7.1151326712e+01    0.1898374    0.1266992   7.76   0.00129956    1.602    0.376
       309  -9.1599    197.0819     18.3551   4.1128552595e+01   3.3716972958e+01     0.351742    0.2090082 -70.04  0.001426462    1.888    0.470
       310  -9.0279    169.3035     18.1968   4.4638949804e+01   4.0639067267e+01    0.2870541    0.2047929  54.50 0.0005167946    1.321    0.243
       311  -8.8168    172.9770     17.0000   4.3767855865e+01   3.9841849663e+01    0.3097173    0.1647695  63.81 0.0007178229    1.683    0.406
       312  -7.8867     65.2974    110.3763   1.0072361976e+02   4.6013472670e+01    0.1529175   0.09860311 -33.65 0.0007025501    1.750    0.429
       313  -7.5523    101.3300    106.6882   8.8675428015e+01   4.1219011616e+01    0.1529604    0.1220425  84.16 0.0004471702    1.671    0.402
       314  -7.5202     44.2730    105.2978   1.0638659572e+02   4.9712358549e+01    0.1365428   0.08949647 -39.68 0.0002207254    1.527    0.345
       315  -8.2668     19.4682    104.9994   1.1427989222e+02   5.1923573870e+01    0.1894204   0.06715785 -49.83 0.0005226231    2.372    0.578
       316  -8.6038    121.4666     17.5156   5.2922071598e+01   5.2530105267e+01    0.2499913    0.1719871  65.66 0.0006901226    1.476    0.323
       317  -8.7562     25.3156    103.5878   1.1219184177e+02   5.1829364946e+01    0.1983519    0.1608643 -18.27 0.0009947403    1.457    0.314
       318  -8.8500    119.5308    102.2943   8.2173673569e+01   3.8686006581e+01    0.3980085    0.2918332 -62.99  0.001470623    1.619    0.382
       319  -9.1542      9.9164    101.1780   1.1671710982e+02   5.3448435485e+01    0.2183677    0.1539856  44.55  0.001076869    1.716    0.417
       320  -7.2579     88.6666    100.2605   9.0852466813e+01   4.4925596443e+01    0.1431228    0.1173362  75.50 0.0003841167    1.574    0.365
       321  -7.6901     56.4000    100.1938   1.0131591085e+02   4.9590281582e+01     0.193242    0.1242888 -69.14 0.0004472343    1.630    0.387
       322  -8.1702    243.3218     99.3146   5.5391421887e+01   1.1563720301e+01    0.1379841    0.1057241   3.97 0.0004670856    1.658    0.397
       323  -9.1008    236.3372     15.7084   3.6652187873e+01   2.4851203140e+01    0.2454056    0.2348339  53.26  0.001695811    1.315    0.240
       324  -7.7794     16.7533     99.1619   1.1422290536e+02   5.3500191423e+01    0.1685736    0.1154432 -49.71 0.0002881822    1.278    0.217
       325  -9.1187    109.8952     15.5316   5.4824362023e+01   5.5423728458e+01    0.2571506    0.2004992  41.84 0.0006524613    1.129    0.114
       326  -9.1964    113.5752     15.5628   5.3961864840e+01   5.4575464549e+01    0.2318664    0.2211225 -86.60 9.177776e-05    1.248    0.199
       327  -8.5228    203.4607     97.4512   6.1395613047e+01   2.0512549253e+01    0.2845668    0.2029058 -63.96  0.001026602    1.742    0.426
       328  -7.7003     43.3202     98.0095   1.0520348361e+02   5.1562433291e+01     0.241131   0.05444346 -46.03 0.0007048314    4.279    0.766
       329  -8.4063    231.0173     96.7528   5.6615104656e+01   1.4532809609e+01    0.1941545     0.180567 -39.26 0.0005502792    1.038    0.036
       330  -9.2875     71.8817     95.1685   9.4935884995e+01   4.8730267328e+01    0.3907567    0.3449365  33.68  0.001624816    1.250    0.200
       331  -8.1189     38.8480     94.6206   1.0600021253e+02   5.2809058562e+01    0.3454634    0.1355564 -43.12  0.001403843    2.476    0.596
       332  -8.4866    212.5189     94.5236   5.9050257682e+01   1.8966132484e+01    0.2544573     0.185305 -44.94 0.0008719146    1.309    0.236
       333  -7.9962    165.5074     94.2912   6.8198143969e+01   3.0025365950e+01    0.2774261    0.1419272  50.58 0.0009631868    1.995    0.499
       334  -8.1213    145.8468     92.9309   7.2455096787e+01   3.4905673296e+01     0.229574    0.2028234  10.87  0.000293543    1.216    0.177
       335  -8.9469    249.6003     92.2223   5.2863458522e+01   1.1437083426e+01     0.203857    0.1199278 -26.15 0.0009618669    1.724    0.420
       336  -9.4318     19.5314     90.7348   1.1185299961e+02   5.5303517698e+01    0.3592928    0.2718075 -64.75  0.001810935    1.098    0.089
       337  -8.5010     99.9435     91.0702   8.4749122428e+01   4.5008528690e+01    0.2312174    0.2104954 -31.57 0.0005494182    1.032    0.031
       338  -9.0153     55.5422     89.4511   9.9028251332e+01   5.2228110760e+01    0.4240274    0.2439433  52.59   0.00187849    2.492    0.599
       339  -8.0679    136.3379     90.2759   7.4098666242e+01   3.7613496487e+01    0.1598486    0.1227296  10.65 0.0001928353    1.611    0.379
       340  -8.4750     27.5350     88.7235   1.0869095299e+02   5.5185594205e+01    0.2473408    0.1803669  63.94  0.001406737    1.792    0.442
       341  -9.1214      5.9602     87.7953   1.1598344612e+02   5.6798658129e+01    0.2415061    0.1504219 -42.67  0.000838868    1.479    0.324
       342  -9.0286    189.1187     87.9821   6.1538247865e+01   2.5560538540e+01    0.2399961    0.2183667  61.04 0.0002585335    1.148    0.129
       343  -7.8825    102.7499     86.3573   8.2476335079e+01   4.5500178061e+01    0.2032205    0.1415454  29.18 0.0004627358    1.563    0.360
       344  -7.6510     97.3140     85.2976   8.3848581118e+01   4.6753208876e+01    0.1529287    0.1149317  -8.31 0.0002786849    1.605    0.377
       345  -9.8532    136.8948     25.3612   5.2509929663e+01   4.7959678956e+01    0.3434039    0.2604665 -73.04 0.0005510115    1.681    0.405
       346 -10.4702     65.3136     83.3520   9.3980167933e+01   5.2363955516e+01    0.4482331    0.3558461  17.74 0.0005264093    1.386    0.278
       347  -9.1938     87.3063     82.9454   8.6360443833e+01   4.9048535981e+01    0.3972426    0.2899717 -69.02  0.001295286    1.840    0.456
       348  -8.6898     49.5226     84.0463   9.9784669105e+01   5.4177600533e+01    0.2040693     0.117287 -53.36 0.0004185434    1.486    0.327
       349  -8.8570     11.3943     83.0460   1.1329163042e+02   5.7603080066e+01    0.3562753    0.1189027 -48.35  0.001591796    2.318    0.569
       350  -9.3813    242.2326     87.4818   5.2760528823e+01   1.3683587180e+01    0.3364921    0.2076204 -22.70  0.001001869    1.787    0.440
       351 -11.0394    188.7764     82.1868   6.0008913442e+01   2.6663923872e+01    0.3235131    0.2713445  46.68 0.0002939504    1.235    0.191
       352 -10.1869    195.7636     82.0344   5.8686687218e+01   2.5015298697e+01    0.3397202    0.2453153  58.32 0.0003990926    1.449    0.310
       353  -7.7547    154.5505     83.4782   6.7557049189e+01   3.4702538867e+01    0.1562759    0.1505025  -1.43 0.0001032038    1.036    0.035
       354  -8.0876    146.2674     82.9408   6.9374269583e+01   3.6769543771e+01    0.2224584    0.1908742 -32.87 0.0003359273    1.153    0.133
       355  -7.7097    135.6089     82.7739   7.2014939182e+01   3.9275255891e+01    0.2200009    0.1434735 -48.69 0.0005521598    1.630    0.387
       356  -8.8819    125.7346     81.8193   7.4361872967e+01   4.1680829837e+01    0.4215666    0.2394598  30.13  0.001365449    2.211    0.548
       357  -8.1967    169.4962     81.4553   6.3640714211e+01   3.1468152769e+01    0.1528441    0.1510173 -22.01 0.0001646363    1.004    0.004
       358  -7.9263     37.5027     81.5160   1.0351842294e+02   5.5997958019e+01     0.134473    0.1109814 -47.04 0.0003945192    1.006    0.006
       359  -8.1306     81.2723     79.4355   8.7305936336e+01   5.0820150254e+01     0.197326    0.1387802  46.64 0.0006688652    1.651    0.394
       360  -8.8825     75.6805     78.6584   8.8985025200e+01   5.1881807822e+01    0.3320225    0.2315064   5.98  0.001192278    1.796    0.443
       361  -7.5920    156.1990     77.9974   6.5531154421e+01   3.5321238230e+01    0.3545921    0.1945132  28.06  0.001214624    2.859    0.650
       362  -8.9087    200.2663     76.1888   5.6321379705e+01   2.4925403557e+01    0.3431055    0.2787091  44.42  0.001659093    1.317    0.241
       363  -8.9297    106.3142     75.2717   7.7896813708e+01   4.7092090370e+01    0.3720306    0.3036119 -62.59  0.001577983    1.496    0.332
       364  -9.2255     31.8130     77.0787   1.0456028349e+02   5.7522340935e+01    0.3993937    0.1923221   9.00  0.001791382    2.887    0.654
       365  -9.0453    232.4069     74.8627   5.1081741177e+01   1.7759342703e+01    0.3412723      0.23062 -15.02  0.001298735    1.863    0.463
       366  -9.9126     18.4859     73.6965   1.0881952452e+02   5.9301269139e+01    0.4579358    0.2548285 -64.85  0.002470207    1.551    0.355
