#   1 NUMBER                 Running object number                                     
#   2 MAG_AUTO               Kron-like elliptical aperture magnitude                    [mag]
#   3 X_IMAGE                Object position along x                                    [pixel]
#   4 Y_IMAGE                Object position along y                                    [pixel]
#   5 X_WORLD                Barycenter position along world x axis                     [deg]
#   6 Y_WORLD                Barycenter position along world y axis                     [deg]
#   7 A_WORLD                Profile RMS along major axis (world units)                 [deg]
#   8 B_WORLD                Profile RMS along minor axis (world units)                 [deg]
#   9 THETA_WORLD            Position angle (CCW/world-x)                               [deg]
#  10 FWHM_WORLD             FWHM assuming a gaussian core                              [deg]
#  11 ELONGATION             A_IMAGE/B_IMAGE                                           
#  12 ELLIPTICITY            1 - B_IMAGE/A_IMAGE                                       
         1 -13.1315    163.8062     57.4608   6.1046139865e+01   3.6781459551e+01     2.072883     1.380678  22.04  0.005988422    2.098    0.523
         2 -13.8458    129.8224     38.4645   6.2076965763e+01   4.8086889520e+01     1.269894     1.035049  13.40  0.006684997    1.321    0.243
         3 -10.7107    134.0796     13.7261   5.2188355946e+01   5.0018286333e+01    0.3405354     0.260177  -2.15  0.000233349    1.460    0.315
         4 -13.7127    121.2472      5.9018   5.1794994628e+01   5.3865606746e+01       2.6881      2.03136  61.73   0.01526581    1.240    0.194
         5 -12.7570    225.2541      3.9858   3.7722465595e+01   2.8223426472e+01     1.655066    0.5678353  75.90  0.006707027    2.813    0.645
         6 -13.5187    197.0299     11.0604   4.2188132291e+01   3.4344909811e+01     1.360176     1.043633  51.27  0.005081257    1.391    0.281
         7  -8.9384    166.9974     16.5110   4.7589779878e+01   4.1413102688e+01    0.2051229    0.1281778  66.95 -6.692438e-05    1.470    0.320
         8 -13.5573    245.0565    232.6461   8.6213200517e+01  -9.2601945925e+00     2.015053    0.8753114 -28.66   0.01064926    2.379    0.580
         9 -15.5512      8.3485     80.8905   1.1611299106e+02   5.8192876370e+01      6.81138    0.3787966 -56.00   0.01764137    4.060    0.754
        10 -13.9236     15.6421    149.9763   1.2279055502e+02   4.1608433044e+01     8.488235     3.991021  37.50   0.04620958    2.255    0.557
        11 -10.0800    215.8858    190.0402   8.3773893633e+01   1.1323475815e+00    0.2078667    0.1763604   9.53 0.0004889976    1.039    0.037
        12  -9.9226    204.2955    201.7362   8.8178285228e+01   1.3410490925e+00     0.269722    0.1535128 -14.75  0.001188793    2.552    0.608
        13 -10.2462    183.4648    186.1275   8.9402846024e+01   7.7231952088e+00    0.2428863     0.208402  36.74 0.0003467325    1.097    0.088
        14 -10.7251    153.5870    185.8870   9.5663129104e+01   1.3412403183e+01    0.3358239    0.2460228 -77.84   0.00118237    1.893    0.472
        15 -10.2953    242.1548    185.7994   7.8173171688e+01  -2.7153729783e+00    0.1833307    0.1697504  -2.46 0.0005178972    1.240    0.194
        16  -9.3574     10.9295    184.6308   1.2651706542e+02   3.4309172583e+01    0.2621098    0.1227442  69.23  0.001442927    1.930    0.482
        17 -10.9148    193.0434    196.5855   8.9428518867e+01   4.1629510096e+00    0.8581049    0.4596432 -61.36  0.003052938    4.400    0.773
        18  -9.0866     68.4530    182.2798   1.1412780567e+02   2.8374581173e+01    0.1678729    0.1393357 -44.13  0.001010321    1.566    0.361
        19  -9.5756    214.1204    199.7957   8.5955772299e+01  -6.0934741985e-02    0.1830763     0.166439  25.06 0.0006905814    1.182    0.154
        20 -10.5498    188.7673    177.7175   8.6677168405e+01   8.2158206980e+00     0.586764    0.3256651 -52.37  0.002530541    2.281    0.562
        21 -10.2894      3.0618    177.5320   1.2763004692e+02   3.6500467942e+01    0.1709967    0.1220746 -81.53 0.0004722953    1.184    0.155
        22 -12.1999    151.3250    196.3856   9.7960101561e+01   1.1818457754e+01    0.5809839    0.4599941  45.90  0.003286868    1.149    0.130
        23  -9.2994    195.8566    174.5999   8.4609117543e+01   7.4057520705e+00    0.2768103     0.205501 -45.47  0.001436675    1.477    0.323
        24  -9.2338    167.8022    249.6026   1.0258035685e+02   3.2149870132e-01    0.1802776    0.1543558 -35.66 0.0009559471    1.456    0.313
        25 -10.9434    230.5003    168.9383   7.6809926320e+01   1.8581152082e+00    0.3931055    0.1764337 -42.41   0.00165416    2.364    0.577
        26  -8.8626    204.1669    170.1440   8.2034164241e+01   6.5863598756e+00    0.2053423    0.1746376   8.36 0.0002985865    1.140    0.123
        27  -9.1355     45.8197    178.7583   1.1874221822e+02   3.2020942563e+01    0.3425718    0.1052777  37.48  0.001443219    3.041    0.671
        28 -14.0356     71.4782    215.6187   1.1706160000e+02   2.0940669286e+01     1.032615    0.6448486 -36.10  0.004009421    3.290    0.696
        29 -10.5137     26.7455    166.4678   1.2177168169e+02   3.6833391726e+01    0.3955556    0.1936864  23.73  0.001986712    2.837    0.647
        30 -13.8281     75.3379    248.8584   1.1924377827e+02   1.4296376507e+01    0.3290715     0.212053 -70.89  0.001777958    1.714    0.417
        31  -9.1204    123.8942    162.2430   9.8081254449e+01   2.3949806081e+01    0.2233326    0.1847617  70.88 0.0005401637    1.268    0.211
        32 -18.5820     44.5560    236.3500   1.2369689712e+02   2.0425456178e+01     5.106715     2.647087  36.68   0.02046438    2.014    0.503
        33 -10.7342     98.6365    157.5547   1.0338694866e+02   2.9481612786e+01    0.2600692    0.2445031 -79.27 0.0003600926    1.068    0.064
        34 -11.8451    102.7443    151.5276   1.0127366285e+02   3.0195106264e+01    0.7122819    0.5469003 -30.83  0.001740738    1.665    0.400
        35  -9.3577    189.0164    155.5029   8.1960327412e+01   1.2282289685e+01    0.2287803    0.1433078  44.23 0.0007728831    1.583    0.368
        36 -10.8309    133.8353    146.8641   9.2580320961e+01   2.5481942707e+01      1.26205    0.3262193 -55.21  0.002974635    5.888    0.830
        37 -12.5300     88.2025    151.4065   1.0493953826e+02   3.2618225678e+01    0.3641976    0.2862508 -36.10 0.0008073704    1.561    0.359
        38 -10.0597    112.9409    151.9569   9.8794510471e+01   2.8296175845e+01     0.245545    0.1771741  81.17  0.001138787    1.727    0.421
        39 -10.0031    144.2774    147.7531   9.0249333544e+01   2.3177278562e+01    0.4806068    0.2856563 -72.27     0.001728    2.890    0.654
        40 -10.8074    111.9926    138.5028   9.6310106398e+01   3.1604939293e+01    0.5546533    0.3595619 -34.66  0.002402468    1.911    0.477
        41  -9.0184    129.0548    141.4825   9.2597831438e+01   2.7646641930e+01    0.2312862    0.1492441  42.16  0.001021535    1.559    0.359
        42 -11.4744    101.3491    137.0733   9.8808152392e+01   3.3852505148e+01     0.279016    0.2656948  59.50 0.0003349918    1.087    0.080
        43 -10.6561    134.8095    126.5798   8.7707127432e+01   2.9852924064e+01    0.7656957    0.2396958 -52.06  0.002184233    3.659    0.727
        44  -9.4764    117.6212    129.3328   9.2809233423e+01   3.2685762831e+01    0.2824813    0.2544338 -26.99 0.0007178206    1.223    0.182
        45  -9.2441    160.6033    128.8001   8.1982904875e+01   2.3789570401e+01    0.3111773    0.2419985 -75.78  0.001285069    1.657    0.396
        46 -10.1506    105.9616    124.8472   9.4910777140e+01   3.5931827256e+01     0.255562    0.2240143 -40.30 0.0004638896    1.177    0.150
        47  -9.6591     80.0133    120.9635   1.0133763102e+02   4.1215252919e+01    0.2195036    0.1957943 -60.06 0.0004477775    1.039    0.038
        48  -8.5004    150.1181    118.8496   8.1967777358e+01   2.8249374741e+01    0.2008859    0.1811142  -0.60            0    1.230    0.187
        49  -8.9409    112.1881    118.8504   9.1790914283e+01   3.6174482790e+01    0.2197843    0.1975924 -78.49 0.0004011263    1.156    0.135
        50  -9.9690     68.2181    117.3702   1.0401783899e+02   4.3789920321e+01    0.3224134    0.2198461   0.84    0.0014874    2.330    0.571
        51  -9.4153    206.3365    115.8872   6.9100120955e+01   1.6018494922e+01    0.2161421    0.2065541  73.50 0.0002720437    1.152    0.132
        52  -9.8211    168.2487    114.2072   7.6518385540e+01   2.5101592719e+01    0.3422064    0.2810978 -81.67 0.0009555548    1.513    0.339
        53 -10.0355    134.5021    105.9906   8.2480389478e+01   3.4497109754e+01    0.4801895    0.1517658 -45.96  0.001435924    3.122    0.680
        54 -10.2384    118.4972    111.0475   8.8100561065e+01   3.6733654612e+01    0.5853204    0.2839908  59.50   0.00187623    3.364    0.703
        55  -8.5764     81.5533    107.4813   9.7858946127e+01   4.4211816077e+01     0.145995    0.1326966 -57.19 7.907161e-05    1.006    0.006
        56  -8.6284    126.5709     95.7722   8.1718758585e+01   3.8435578118e+01    0.2204049     0.145668 -54.68 0.0009355423    1.627    0.386
        57  -8.7327    113.4457     95.5332   8.5290583717e+01   4.1232699221e+01    0.1531784     0.146198 -39.01 8.335459e-05    1.004    0.004
        58  -8.2053     95.2863     94.6708   9.0392533785e+01   4.4887562958e+01    0.1476144    0.1176322 -85.57 0.0003478625    1.614    0.380
        59 -10.5045    110.9987     73.9137   7.9424786413e+01   4.6282235695e+01    0.2406592    0.2067457 -29.62            0    1.128    0.114
        60  -8.3672    207.0000     68.0527   5.6436320067e+01   2.4213420938e+01    0.2472226   0.08162643 -33.41 0.0007980239    2.912    0.657
        61 -11.1055    245.5858    197.6271   7.9869505897e+01  -4.9264538113e+00    0.2430352    0.2089831   8.75  0.001617844    1.138    0.121
        62 -12.7389    177.4967     42.5360   5.3938483146e+01   3.5508022976e+01    0.8586425    0.8063838 -73.48  0.002755939    1.049    0.047
        63 -12.0735    182.3211     35.5846   5.1088337003e+01   3.5207394235e+01    0.5651835    0.4611668  25.17  0.001518336    1.461    0.316
        64  -9.7584    167.2535    228.8516   9.9813960961e+01   3.4620284795e+00     0.197171    0.1854117  21.07 0.0004656137    1.143    0.125
        65  -8.4748    227.7684    222.5857   8.7519884848e+01  -5.4774042839e+00    0.1586408    0.1036332  40.83 0.0004181403    1.539    0.350
        66  -9.3419    159.1609    195.8419   9.6216509328e+01   1.0489641664e+01    0.2064799    0.1795234  60.31 0.0007110733    1.212    0.175
        67  -9.6488    215.0750    195.0198   8.4880395757e+01   5.0235526377e-01    0.1965544    0.1717975  11.42 0.0002877256    1.035    0.034
        68  -9.3521    226.0893    204.8058   8.4669411634e+01  -2.8001277387e+00    0.2056983    0.1835171 -55.69  0.001302764    1.660    0.398
