#   1 NUMBER                 Running object number                                     
#   2 MAG_AUTO               Kron-like elliptical aperture magnitude                    [mag]
#   3 X_IMAGE                Object position along x                                    [pixel]
#   4 Y_IMAGE                Object position along y                                    [pixel]
#   5 X_WORLD                Barycenter position along world x axis                     [deg]
#   6 Y_WORLD                Barycenter position along world y axis                     [deg]
#   7 A_WORLD                Profile RMS along major axis (world units)                 [deg]
#   8 B_WORLD                Profile RMS along minor axis (world units)                 [deg]
#   9 THETA_WORLD            Position angle (CCW/world-x)                               [deg]
#  10 FWHM_WORLD             FWHM assuming a gaussian core                              [deg]
#  11 ELONGATION             A_IMAGE/B_IMAGE                                           
#  12 ELLIPTICITY            1 - B_IMAGE/A_IMAGE                                       
         1  -9.7639    198.0224      3.7459   5.4610981725e+01   3.4796795211e+01    0.5027498    0.4850368 -60.77  0.003243911    1.152    0.132
         2  -8.9797      1.9845    246.1919   1.4167017111e+02   2.5106757842e+01    0.1491176   0.09465887  85.78 0.0003736493    1.176    0.150
         3  -9.2097    102.4909    248.9357   1.2667467296e+02   1.2169458304e+01     0.316561    0.2435291  85.73  0.001289441    1.263    0.208
         4 -16.7393     37.6070    241.0700   1.3629528206e+02   2.2180418044e+01     2.951531     1.829706  52.88   0.01403667    1.402    0.287
         5 -11.9560    243.5952    240.0411   1.0125857825e+02  -1.0048467207e+01    0.2462982    0.2030145  21.20 0.0004664275    1.110    0.099
         6  -6.6895    231.4788    206.4509   9.7601929043e+01  -3.8798479213e+00    0.1284574    0.1093196  25.65 -4.84522e-06    1.046    0.044
         7  -9.7346    123.9980    206.0005   1.1789881548e+02   1.6087467305e+01    0.1840614    0.1541125  63.14            0    1.007    0.007
         8  -9.6670     76.0553    204.4069   1.2679539685e+02   2.3927794046e+01     0.356927    0.2334999 -55.38  0.002173337    1.810    0.447
         9  -8.7572    101.9952    203.8623   1.2184791478e+02   2.0142320047e+01    0.3055247    0.1887586  86.49  0.001457614    1.903    0.474
        10  -7.4445    157.7822    203.2151   1.1091809188e+02   1.0477780918e+01     0.168421    0.1411679  33.05 0.0002438204    1.245    0.197
        11  -9.8172     88.2585    201.2695   1.2415432746e+02   2.2764386938e+01    0.4015962    0.2881643  71.99  0.002510705    1.236    0.191
        12  -7.3134    137.0056    197.9346   1.1418524907e+02   1.5278522882e+01    0.1568269    0.1381284  64.65 0.0003779989    1.026    0.025
        13  -9.1487    141.7654    229.4183   1.1769921999e+02   8.9519562667e+00    0.3900687    0.1974657  29.33  0.001632595    3.313    0.698
        14  -7.1791    238.4510    195.4851   9.4319205384e+01  -3.6281533074e+00    0.1306524    0.1120193  18.08 9.367965e-05    1.014    0.013
        15  -8.3931     33.7286    193.0406   1.3341987006e+02   3.1413855339e+01    0.2571624    0.2048279 -46.10  0.001840919    1.908    0.476
        16 -10.2781     81.5684    187.2872   1.2376779443e+02   2.6530799272e+01    0.6369449    0.3057106 -60.66  0.003233194    2.030    0.507
        17  -9.4172     77.1868    186.5395   1.2454564371e+02   2.7311553707e+01    0.4006097    0.2135134 -68.28  0.001849907    1.794    0.443
        18  -8.4225     45.0713    188.3756   1.3093060141e+02   3.1070154250e+01    0.2509362    0.1406753  59.50 0.0009629521    1.630    0.387
        19  -8.6781     34.7778    188.1529   1.3281010046e+02   3.2265009460e+01    0.1740521    0.1467727 -30.14  0.001100684    2.040    0.510
        20  -8.4900     40.4846    186.4799   1.3160635476e+02   3.1971913567e+01    0.1893344    0.1148228 -58.04  0.001177652    1.797    0.444
        21  -8.5732     41.4828    183.3111   1.3111917959e+02   3.2497624058e+01    0.3817763    0.1157781  48.42  0.001760123    3.020    0.669
        22  -8.4064     90.4679    184.7644   1.2165815758e+02   2.5717911827e+01    0.2385253    0.1650099  72.07 0.0006157905    1.404    0.288
        23  -8.3471     22.2031    183.0702   1.3466726406e+02   3.4564015829e+01    0.1984681    0.1527795  27.58 0.0008119077    1.910    0.477
        24  -7.9253      3.7709    180.1375   1.3772881829e+02   3.6808319729e+01    0.2317044    0.1548256 -28.54  0.001438787    3.329    0.700
        25  -9.4099     96.3842    224.8900   1.2530100779e+02   1.7142651329e+01    0.3174603    0.2250104 -78.93 0.0008199185    1.427    0.299
        26  -7.5183     93.9933    178.5331   1.2008127551e+02   2.6453650524e+01    0.1624221    0.1178554  13.35 0.0006044315    2.485    0.598
        27  -9.4497     26.5405    188.9535   1.3436600251e+02   3.2970169715e+01    0.3129856    0.1752467  39.69  0.001039838    1.976    0.494
        28  -9.7988     40.3113    177.4435   1.3076963053e+02   3.3820519019e+01    0.3112926    0.2136195  61.95  0.002094133    1.339    0.253
        29  -9.1588     22.8457    169.8887   1.3341589636e+02   3.7152132479e+01    0.2060221    0.1593408  87.40 0.0007689639    1.041    0.039
        30  -8.8894     14.5316    175.6260   1.3546405729e+02   3.6763179816e+01    0.2799508    0.2438789  49.14  0.002073693    1.474    0.322
        31  -9.3531     21.2239    173.4222   1.3403686613e+02   3.6588822358e+01    0.3345433    0.1345133  41.33  0.001793062    2.497    0.600
        32  -8.9690     88.8476    174.3693   1.2056898276e+02   2.8113666060e+01    0.2873295    0.2252769 -51.60  0.001728005    1.463    0.317
        33  -8.4711     91.7906    169.1986   1.1919422284e+02   2.8750329720e+01      0.29671    0.2256094 -34.23 0.0008798276    1.887    0.470
        34  -9.3273     34.6894    177.5320   1.3185745495e+02   3.4409299345e+01    0.3243145    0.1606163 -52.65  0.001777585    2.419    0.587
        35  -8.5090     33.1786    173.0617   1.3172008330e+02   3.5479832170e+01    0.1620765    0.1283479 -75.71 0.0004509843    1.197    0.164
        36  -8.2092    195.2184    169.1090   9.7255429189e+01   9.0223116562e+00    0.2215123    0.1899241  17.79 0.0006252935    1.215    0.177
        37  -9.0672     91.5112    222.4390   1.2590460480e+02   1.8315753197e+01    0.2699162    0.1526168  83.36  0.000729133    2.073    0.518
        38  -7.4463    187.3751    236.8633   1.1053060088e+02  -1.7126396526e-01    0.1463818     0.115099 -18.99 0.0005569216    1.636    0.389
        39  -7.5845     72.0000    167.9499   1.2324123202e+02   3.1902471732e+01    0.1997729   0.06434493 -63.01 0.0006148991    2.875    0.652
        40  -8.1046     79.1839    165.8541   1.2141899644e+02   3.1342377909e+01    0.3265706    0.1276224  54.39    0.0013161    2.968    0.663
        41  -9.5557     61.2501    164.2485   1.2503345952e+02   3.4104439616e+01    0.3647757    0.1261568 -54.10    0.0015545    2.876    0.652
        42  -9.2308     63.2621    158.2887   1.2381603787e+02   3.5124072353e+01    0.3219354    0.1776988 -67.28   0.00172784    1.615    0.381
        43  -8.4951     23.4961    163.1567   1.3266324862e+02   3.8470359823e+01    0.2377682    0.1359758  36.55  0.001505476    2.041    0.510
        44  -8.9744    248.6266    162.1070   8.5812388040e+01  -6.7682755282e-01    0.2852269     0.188157  46.74  0.001068938    1.555    0.357
        45  -9.2076    104.9217    159.8951   1.1483919865e+02   2.8611371848e+01    0.2113801    0.1933741 -69.15  0.001287526    1.127    0.112
        46  -7.5301     97.4265    160.4572   1.1660263217e+02   2.9723600586e+01    0.1323659    0.1193137  89.96 0.0002558313    1.031    0.031
        47  -9.7959    156.0627    217.9048   1.1348190861e+02   8.3042440533e+00    0.2418635    0.2049916  59.60 0.0003937349    1.084    0.078
        48  -9.0273    249.2606    157.2622   8.4674124962e+01  -6.4867394623e-02    0.2455146    0.2119531   4.47  0.000228968    1.081    0.075
        49  -9.7437     86.5030    155.2587   1.1821188741e+02   3.2547560600e+01    0.3126578    0.2430776 -40.48 0.0009209872    1.590    0.371
        50  -8.1801    170.9861    155.7018   9.9467467156e+01   1.6643772663e+01    0.2238911    0.2093001 -48.62 0.0004406254    1.131    0.116
        51  -7.2275      3.3409    156.2898   1.3599883143e+02   4.1581436089e+01   0.09977926   0.06812835 -54.88 0.0007023782    1.647    0.393
        52  -8.0691    101.0102    155.3307   1.1494282421e+02   3.0243461326e+01    0.1888631    0.1641526  62.18 0.0004374731    1.115    0.103
        53  -8.8855     40.4139    155.1955   1.2834436007e+02   3.8453733639e+01    0.2588295    0.1338956  30.60  0.001312552    2.466    0.595
        54  -8.5254    249.1632    152.1961   8.3601741588e+01   7.3084959352e-01    0.2251752    0.2023352   5.08 0.0004027116    1.022    0.021
        55 -10.0284    217.4039    150.5829   8.8980659922e+01   7.5382434282e+00     0.256732    0.2454573  30.14 0.0002992939    1.056    0.053
        56  -8.2744    104.6610    209.6959   1.2206252249e+02   1.8616219117e+01    0.2418899    0.1436014  74.66  0.000414583    1.931    0.482
        57  -7.3173     46.6547    151.2763   1.2651935987e+02   3.8614445924e+01    0.1227678   0.07861534  72.81 0.0003794084    1.628    0.386
        58  -8.3273     22.1556    151.1215   1.3173602405e+02   4.1092699452e+01    0.1745026    0.1314495 -65.26  0.001246236    1.263    0.208
        59  -7.5426     38.3290    150.3271   1.2821312034e+02   3.9708097688e+01    0.1145714   0.08063512 -46.54 0.0007050809    1.705    0.414
        60  -7.5266    133.6208    146.7776   1.0587485226e+02   2.6176533238e+01    0.1988339    0.1349511 -62.40  0.000516385    1.600    0.375
        61  -9.8722     70.5011    145.4909   1.2032490162e+02   3.6956911906e+01     0.327828    0.2555608 -82.46  0.001199761    1.178    0.151
        62 -10.2106     67.0810    142.4363   1.2064202422e+02   3.8077883086e+01    0.4176833    0.3116598  83.19   0.00142668    1.364    0.267
        63  -7.3764    108.3422    141.2588   1.1067303192e+02   3.2056373334e+01    0.1311015    0.1121405  -3.61 0.0003772541    1.588    0.370
        64  -8.5590    100.4045    139.1101   1.1215174192e+02   3.3876405399e+01    0.2342888    0.2151571  55.73 0.0003656117    1.131    0.116
        65  -8.5118      3.9530    140.5193   1.3447948667e+02   4.4755884829e+01    0.1332089    0.1060657  38.26  0.001034856    1.599    0.375
        66  -7.3714    146.8335    138.1374   1.0101298540e+02   2.5308091131e+01      0.19281    0.1757218   4.33  0.001025471    1.276    0.217
        67  -8.8133    103.3878    144.9823   1.1254921680e+02   3.2093473736e+01    0.2289993    0.1939099  51.06 0.0002106795    1.198    0.165
        68  -8.8495    236.3400    132.6250   8.1467168003e+01   6.5014620895e+00    0.2420571    0.2197953   4.29 0.0002388538    1.085    0.079
        69  -7.7229    164.7049    133.0152   9.5822463003e+01   2.2499893246e+01    0.2023475      0.19096 -49.68  0.000298818    1.089    0.082
        70  -7.3822     84.3547    142.6629   1.1661880128e+02   3.5621086633e+01    0.1423501    0.0955117  78.11 0.0001395889    1.801    0.445
        71  -7.4962    221.9457    131.7617   8.3858317507e+01   9.7908071301e+00     0.232748    0.1748083  88.12 0.0008002397    1.977    0.494
        72  -9.3046     66.1095    131.8805   1.1915619872e+02   4.0523385871e+01    0.2026106    0.1600071  83.74  0.001224127    1.295    0.228
        73  -7.6534     42.4979    130.7134   1.2467318544e+02   4.3505356575e+01    0.1883757    0.1081548  33.66  0.001064725    2.061    0.515
        74  -7.3466    169.3692    128.4546   9.3722122026e+01   2.2367200753e+01    0.1474266    0.1463228 -13.54 0.0001031948    1.038    0.037
        75  -7.6216    105.3380    126.0392   1.0831172322e+02   3.5901797513e+01    0.2009701    0.1702587 -55.27  0.000641147    1.131    0.116
        76  -9.2605      4.2714    124.4491   1.3277875871e+02   4.8057659069e+01     0.198279    0.1073633  87.72  0.001061291    1.815    0.449
        77  -7.3669     29.4937    122.5133   1.2662527855e+02   4.6519829479e+01    0.1180482   0.09359927 -68.76 -2.320325e-05    1.045    0.043
        78  -7.5370     53.3029    117.6933   1.1992036720e+02   4.5179015160e+01    0.1235621   0.08890413  82.08 0.0002219882    1.600    0.375
        79  -9.2949      7.7069    115.7455   1.3097784799e+02   4.9640029724e+01    0.2308426    0.1304539  47.91  0.001444874    2.084    0.520
        80  -8.9102      1.7884    112.9611   1.3205538764e+02   5.0597104293e+01    0.3078924    0.0856009 -62.25  0.001510815    2.389    0.581
        81  -7.2235    191.5684    109.1597   8.4247706310e+01   2.0903212314e+01    0.1970807    0.1497972 -21.79 0.0009085724    1.486    0.327
        82  -8.3499    176.8816     86.3818   8.1262060235e+01   2.8636342230e+01    0.2461694    0.2154585 -24.67 0.0003299312    1.201    0.168
        83  -8.0013    139.4045     87.0138   8.9975585059e+01   3.7306908236e+01    0.2225403     0.194273  44.33  6.40143e-05    1.143    0.125
        84  -9.6918    232.6079     77.3425   6.8808492878e+01   1.6450002616e+01    0.3378261    0.2516915 -39.92 0.0003456091    1.297    0.229
        85  -7.3598     26.7231     75.6835   1.1929302411e+02   5.6583727720e+01    0.1189265   0.06961612 -39.89 0.0001803311    1.570    0.363
        86  -7.1091      1.5708     75.5647   1.2683167673e+02   5.8236276892e+01    0.1086269   0.08014013 -59.83 6.140914e-05    1.003    0.003
        87  -8.7524    237.1246     73.1789   6.7103016654e+01   1.6026456984e+01    0.2335013    0.2303576 -47.90 0.0003598325    1.062    0.058
        88  -8.6727    118.8357     69.8553   9.0220211510e+01   4.4862627535e+01    0.2623914    0.2241966  84.11  0.001391363    1.514    0.340
        89  -7.7091    233.6369     66.5770   6.5985236159e+01   1.7868725867e+01     0.293742   0.09939283  47.42 0.0009573093    3.398    0.706
        90  -7.7103    175.7998     59.8754   7.3982513268e+01   3.3371266124e+01    0.2231906    0.1965273  17.63  0.000540275    1.245    0.197
        91  -9.0792    165.9834     51.3287   7.3412621610e+01   3.7129185880e+01    0.2684913    0.2251276 -13.72 0.0008436122    1.308    0.236
        92  -8.2814    148.4790     51.4438   7.7168166504e+01   4.1371564816e+01    0.2096608    0.1446995 -15.05 4.299251e-05    1.699    0.412
        93 -10.2828    131.1632     47.4218   7.9930236168e+01   4.5963831805e+01    0.2538666    0.2308753  -3.01 0.0003001714    1.086    0.079
        94  -7.4268    142.4453     43.5415   7.6012837986e+01   4.3956438819e+01     0.144371    0.1330673  28.90 5.887246e-05    1.026    0.025
        95 -10.3173    180.2906     36.9528   6.6472793783e+01   3.5531136944e+01    0.6300084    0.4574414  86.97  0.003073575    1.588    0.370
        96 -10.6068    183.7548     30.8476   6.4126206221e+01   3.5427687335e+01    0.6217391    0.4931209  16.83  0.001913033    1.518    0.341
        97  -9.2083    226.4179     28.5780   5.7515675105e+01   2.4917216575e+01    0.3322076    0.2497479 -23.90  0.001145823    1.522    0.343
        98  -7.6504    199.6704     22.0734   5.9293304427e+01   3.2421418645e+01    0.1854215    0.1720542  74.13 0.0004771106    1.039    0.037
        99  -7.3590    171.6350     13.5210   6.1003434618e+01   4.0474896946e+01    0.1337233    0.1246112  64.93 9.139659e-05    1.042    0.040
