#   1 NUMBER                 Running object number                                     
#   2 MAG_AUTO               Kron-like elliptical aperture magnitude                    [mag]
#   3 X_IMAGE                Object position along x                                    [pixel]
#   4 Y_IMAGE                Object position along y                                    [pixel]
#   5 X_WORLD                Barycenter position along world x axis                     [deg]
#   6 Y_WORLD                Barycenter position along world y axis                     [deg]
#   7 A_WORLD                Profile RMS along major axis (world units)                 [deg]
#   8 B_WORLD                Profile RMS along minor axis (world units)                 [deg]
#   9 THETA_WORLD            Position angle (CCW/world-x)                               [deg]
#  10 FWHM_WORLD             FWHM assuming a gaussian core                              [deg]
#  11 ELONGATION             A_IMAGE/B_IMAGE                                           
#  12 ELLIPTICITY            1 - B_IMAGE/A_IMAGE                                       
         1 -12.4692     74.7334     51.0710   9.0020711714e+01   5.7245544063e+01      1.35374    0.8076221 -55.53  0.006388672    1.864    0.464
         2 -12.5198     43.4417     46.6915   1.0036799108e+02   6.2483721087e+01    0.8516067    0.6651654 -89.38  0.001761313    1.792    0.442
         3 -10.4609     60.0629     24.6378   8.5013956581e+01   6.4390383420e+01    0.5977561    0.2488263 -31.85  0.001956685    2.495    0.599
         4 -12.1765     60.5962     45.3374   9.3145078643e+01   6.0546606463e+01     1.033506    0.4659697 -46.15  0.004613238    1.967    0.492
         5 -11.5841    119.5370     58.1140   7.8627045809e+01   4.7141460471e+01     1.787305     1.260107 -72.59  0.007774796    2.123    0.529
         6 -12.0932    124.6400     27.8118   6.6106619853e+01   5.0749309993e+01    0.9159171    0.7080057  24.70  0.003467615    1.367    0.269
         7 -12.9978    120.1897     38.6264   7.1394766035e+01   5.0254736455e+01     0.835438    0.5625567 -56.78  0.001125294    1.902    0.474
         8 -10.8811    138.5798     33.0827   6.4947380193e+01   4.6570293511e+01    0.7037023    0.5180194 -42.13  0.002383493    1.421    0.296
         9 -10.9464    120.4403     18.7555   6.3462792429e+01   5.2927321434e+01    0.5568487    0.2496101 -26.78  0.002244443    2.236    0.553
        10 -11.9880    131.8028     14.6627   5.9336064548e+01   5.0577472800e+01     1.432855    0.7368768  70.83  0.003465547    2.196    0.545
        11 -10.2139    146.8689     16.3228   5.7089376424e+01   4.6508076601e+01    0.6462023     0.390354  45.13  0.002113636    1.621    0.383
        12 -11.0131    138.7887     21.4288   6.0541014159e+01   4.8017135863e+01     1.034963    0.3024419  46.88  0.003236243    3.380    0.704
        13 -11.1790    178.5406     21.1910   5.3694178633e+01   3.7544165600e+01    0.6762381    0.3549906  42.70  0.002205381    2.100    0.524
        14 -11.2512      3.2130      1.7661   1.0287548364e+02   7.4635875900e+01    0.3690598     0.179653   7.66  0.002122589    2.544    0.607
        15  -8.8744      6.0250     16.0301   1.0720647648e+02   7.1839545265e+01    0.2816621    0.1971514  16.48 0.0006406558    1.703    0.413
        16 -10.8256      5.1345      9.4024   1.0510473530e+02   7.3138059556e+01    0.5512608    0.3404329 -54.01  0.002494478    1.366    0.268
        17 -12.1528     19.1331     22.5320   1.0279222269e+02   6.9654152321e+01    0.7635081    0.6009036  20.63  0.005351603    1.500    0.333
        18 -11.5258     26.4146     27.8515   1.0124797910e+02   6.7995524192e+01    0.4981244    0.3331519 -59.14  0.001849317    1.499    0.333
        19 -12.4256     16.7816     13.1574   1.0018544670e+02   7.1592582619e+01    0.5520596    0.4153162 -36.14 0.0009116128    1.030    0.029
        20 -11.9763     22.5911     11.4780   9.6303187160e+01   7.1366805662e+01    0.7787796    0.3310998 -43.93  0.004061674    1.880    0.468
        21 -12.3502    104.7647     12.9846   6.4867421457e+01   5.7313027871e+01    0.6050614    0.4387007 -34.97  0.003201873    1.445    0.308
        22 -12.6758    113.1609     24.9955   6.7817209700e+01   5.3864057180e+01    0.8944312     0.472312  52.68   0.00277144    1.829    0.453
        23 -11.9950    164.1877     27.8148   5.8138189471e+01   4.0589499169e+01    0.6246419    0.4074906   2.91 0.0003071578    2.001    0.500
        24 -10.8397    198.5918     28.6703   5.3278107543e+01   3.1363105619e+01    0.6890278    0.4186091 -10.55  0.003010835    2.007    0.502
        25  99.0000     88.0926      7.5480   6.6997225116e+01   6.1610992039e+01    0.6561233    0.3307379  55.15  0.003030888    2.016    0.504
        26 -10.7336     91.0559     21.3875   7.2527679510e+01   5.9233361211e+01    0.5820062    0.4761844  -3.40  0.003312143    1.188    0.158
        27 -11.5136     85.7744     14.0341   7.0808386821e+01   6.1305234812e+01    0.7080723    0.3979481 -28.08  0.002150524    1.712    0.416
        28 -11.6967     36.0382     17.8003   9.2451206557e+01   6.8833653831e+01    0.6346079    0.2910926 -32.45  0.002188019    2.149    0.535
        29 -12.2900     48.7167     12.9430   8.4251776053e+01   6.7967992352e+01    0.6315451    0.4683561  26.93  0.003937319    1.402    0.287
        30 -10.6189     32.7319     12.5767   9.1599499694e+01   7.0106226963e+01    0.2205588    0.2009741  60.19  0.000571647    1.661    0.398
        31 -10.3228     64.9215     10.4091   7.6280406553e+01   6.5741771451e+01    0.6572889     0.304904  36.01  0.002577122    2.292    0.564
        32 -10.1021     63.3363      6.2280   7.4721295304e+01   6.6571752024e+01    0.3120274    0.2287263  -0.47  0.001355152    1.310    0.237
        33 -11.9163     68.4866     18.0287   7.8679845848e+01   6.4036405999e+01    0.5447234    0.4662184  10.02  0.002756203    1.101    0.092
        34 -12.2570    239.1947     15.8556   4.5399328979e+01   2.2620083474e+01    0.8414916    0.4865754  61.92  0.004226951    1.781    0.439
        35 -10.9205    218.7209      3.1525   4.3810860576e+01   2.8916532453e+01    0.3381517    0.3061575 -19.18  0.001221387    1.209    0.173
        36 -11.3324    165.2094     17.5767   5.4475925684e+01   4.1510802896e+01    0.5003957    0.3119437  33.62  0.001467795    1.848    0.459
        37 -11.8878    244.4466      6.6048   4.2653427578e+01   2.2343015224e+01    0.8351421    0.4611973 -52.41  0.003536754    1.676    0.403
        38 -10.7011    193.1971     17.4379   5.0569864980e+01   3.4061556839e+01    0.5507928    0.3555399 -78.89  0.001191415    1.779    0.438
        39 -10.6680    186.4650     15.1681   5.0707734710e+01   3.6089894816e+01    0.3262439    0.2655058  51.46 0.0005795979    1.235    0.190
        40 -11.6250    192.6973      6.9776   4.7442425766e+01   3.5267562437e+01    0.7764736    0.4861332  13.04   0.00349276    2.181    0.542
        41 -11.4141    233.5949      7.0576   4.3607979371e+01   2.4869871347e+01    0.5893852    0.3160826  61.01  0.002067513    1.893    0.472
        42 -10.0159    225.9972     15.5955   4.6516060190e+01   2.5843063514e+01    0.4014195    0.1780177 -30.91  0.001324891    2.049    0.512
        43 -11.1944    225.4919      2.5005   4.3072459114e+01   2.7294034967e+01    0.6276466    0.3315693  89.87  0.002476534    2.020    0.505
        44 -11.3894    211.9342      9.6358   4.6225868353e+01   2.9998462450e+01    0.5492762     0.348973  10.03  0.001563135    2.210    0.547
        45  -9.9517    168.9050     10.0781   5.1384967385e+01   4.1307098827e+01    0.3258759    0.2172479  45.57  0.001142538    1.511    0.338
        46  -9.0845    163.2318      9.9545   5.2151964321e+01   4.2837059060e+01    0.2638613    0.1740937 -25.93 0.0007081308    1.569    0.363
        47  -9.7226    162.8839      5.9689   5.0823401621e+01   4.3316002978e+01    0.2373759    0.2071649  21.76 0.0004843319    1.228    0.186
        48  -9.7129    141.5922     12.2849   5.6529974061e+01   4.8318798550e+01    0.2714142    0.2134119  10.78 0.0006662909    1.387    0.279
        49  -9.9594    185.1321      7.3159   4.8407878873e+01   3.7240732076e+01     0.317437    0.2018094 -44.03  0.001076095    1.584    0.369
        50 -10.1615    151.6909      7.5682   5.3059654806e+01   4.6142045749e+01    0.5083053    0.2253496  63.24 0.0009726736    2.029    0.507
        51  -9.7340      1.2648      7.4060   1.0654932157e+02   7.3740797513e+01    0.1774827   0.07578392 -55.61 0.0001206738    1.844    0.458
        52 -10.7967     82.1064      1.3305   6.5719193073e+01   6.3542289703e+01    0.2400128    0.1168577  55.40 0.0003715951    2.078    0.519
        53  -9.1916     78.4854      7.4839   6.9977867587e+01   6.3584213682e+01    0.2258611    0.1845218  44.64 0.0008695534    1.270    0.213
        54 -11.2152     75.5913      3.4979   6.8908082686e+01   6.4619809225e+01    0.5614203    0.3482425  45.87   0.00255267    1.566    0.362
        55 -10.6582     41.2869      4.6727   8.3319698269e+01   7.0255824610e+01    0.4174113    0.2177362 -16.31  0.001679612    2.375    0.579
        56 -10.2606    175.5415      5.0920   4.8855626758e+01   4.0012182198e+01    0.4095259    0.2624963  81.62  0.001945883    1.575    0.365
        57 -11.3434    205.0754      2.6259   4.4892514277e+01   3.2445840137e+01    0.4680198    0.3445959  76.26  0.001114554    1.294    0.227
        58  -9.9123    116.5956      2.7619   5.7586546290e+01   5.5578727116e+01    0.4962393    0.3073487  58.74   0.00244638    1.507    0.337
        59 -10.6690    105.4613      1.7741   5.9645532909e+01   5.8336006884e+01    0.4591395    0.2310971  70.39  0.001155276    2.400    0.583
        60  -9.7854    110.3382      1.6961   5.8485850458e+01   5.7189883165e+01    0.2711975    0.1718826  66.63  0.001334145    1.642    0.391
        61 -10.5569    142.4888      2.8912   5.2800912869e+01   4.8998797208e+01    0.3739081    0.3211927  54.74  0.001334395    1.076    0.071
        62 -11.8489    133.3672      2.6251   5.4259493599e+01   5.1385489227e+01    0.4668292    0.2711286  60.75  0.001072162    1.568    0.362
        63  -8.9417     55.1525      4.1620   7.6875903266e+01   6.8227985218e+01    0.1499551    0.1392167 -23.00 0.0003747562    1.294    0.227
        64  -9.0628    170.0287      3.5057   4.9026823387e+01   4.1633451985e+01    0.2092707    0.1326913  88.35 0.0009615224    1.692    0.409
        65  -9.3882    157.6633      2.6866   5.0411239546e+01   4.5009874372e+01    0.2305775    0.1947771  40.98  0.001268725    1.180    0.152
        66  -8.8965    161.4683      1.0000   4.9294676810e+01   4.4144766192e+01    0.4422189    0.1231534  67.90   0.00144116    3.126    0.680
        67 -10.3817     12.9606      2.0836   9.7097521239e+01   7.3845015947e+01    0.2357841    0.1793256  -4.90 0.0009899067    1.293    0.226
        68  -9.3978    122.7318      1.1979   5.5668394239e+01   5.4205987415e+01    0.3860689   0.06972449  60.08  0.001150936    3.900    0.744
        69  -8.6055    151.8995      1.0000   5.0637292646e+01   4.6689118913e+01    0.2298904    0.0762988  69.13 0.0005874791    2.812    0.644
        70  -9.8233    239.8390    146.8386   7.7372447380e+01   5.1832754949e+00    0.2035886    0.1596259  11.37 0.0006607923    1.183    0.155
        71 -10.9094    249.5492    142.6770   7.4947892503e+01   3.9397441141e+00    0.5718235    0.2308307 -30.40  0.002505902    2.333    0.571
        72 -10.5941     33.0790    144.2304   1.2172311673e+02   4.1794240406e+01    0.2652901    0.1920846  72.93 0.0007585528    1.197    0.165
        73  -9.1962    104.5029    142.1117   1.0411959100e+02   3.2607697586e+01    0.1909016    0.1314913 -60.14 0.0003436118    1.470    0.320
        74 -10.2191    133.3638    140.2841   9.6959478141e+01   2.7715795838e+01    0.3423046    0.2747692  38.05  0.001150977    1.253    0.202
        75 -11.8675     29.7999    132.7681   1.2134474038e+02   4.4620399525e+01    0.5255259    0.3146913  89.01 0.0004925135    1.508    0.337
        76  -8.6194    186.3182    139.3419   8.5370006437e+01   1.7029313925e+01    0.1493357    0.1082734  11.04 0.0007049239    1.715    0.417
        77 -10.4375     80.5273    136.3062   1.0903176053e+02   3.7688828804e+01    0.4271581    0.3481019  -5.73  0.001790132    1.866    0.464
        78 -10.2552     47.3955    135.3908   1.1724377390e+02   4.2213480159e+01    0.4197197    0.1614442 -63.77  0.001515977    2.253    0.556
        79  -9.0037     44.0375    132.9982   1.1779150751e+02   4.3118487916e+01    0.1948695    0.1233267  72.03 0.0004917988    1.583    0.368
        80  -9.5573     26.9887    139.7597   1.2273722303e+02   4.3352721790e+01     0.176621    0.1368012 -79.39 0.0004670907    1.136    0.119
        81  -8.9472    216.6022    135.1842   7.8770871362e+01   1.1381295174e+01    0.1894938    0.1269992 -17.01 0.0005974357    1.607    0.378
        82 -10.3596     93.2956    134.2195   1.0546968523e+02   3.6169239795e+01    0.3919732    0.2313531 -60.14  0.001660863    1.670    0.401
        83  -9.5899     92.6512    129.0034   1.0468336674e+02   3.7417652968e+01    0.3075551    0.2265511  68.25  0.001303123    1.441    0.306
        84  -9.2312     87.3121    135.3170   1.0716302142e+02   3.6877447423e+01    0.1278493    0.1061253 -25.99 0.0007034739    1.642    0.391
        85  -9.4661    107.5064    146.0039   1.0408665482e+02   3.1274255540e+01    0.2100028    0.1729551  52.86 0.0007950235    1.142    0.124
        86  -9.9556     73.6002    132.6020   1.1018957263e+02   3.9510828126e+01    0.2656416    0.2132972  73.16  0.001473455    1.191    0.160
        87  -9.9762     62.3645    131.4871   1.1290131468e+02   4.1276397484e+01    0.3583433    0.1963219 -44.94   0.00134629    2.289    0.563
        88  -8.7890    103.6581    130.7179   1.0221931577e+02   3.5195126895e+01    0.1326427    0.1121795  -5.99 0.0002434808    1.633    0.387
        89 -10.4906     82.8763    124.5134   1.0639348688e+02   3.9954967248e+01    0.4697355    0.3525513  -2.80  0.001876145    2.202    0.546
        90  -9.2659     41.4898    126.9325   1.1768067923e+02   4.4749008447e+01    0.1872256    0.1054223 -72.35 0.0004474389    1.541    0.351
        91 -10.5655     18.5418    124.6404   1.2335256671e+02   4.7411859670e+01    0.3737604     0.151578 -67.97  0.001814005    1.980    0.495
        92  -8.8788    224.2676    126.6878   7.5518700240e+01   1.1070406433e+01    0.1299028    0.1086143 -59.18 0.0002113656    1.545    0.353
        93 -10.7081     55.9511    123.2961   1.1335045459e+02   4.3925049152e+01    0.4584799    0.3431191  18.75  0.001853459    1.800    0.444
        94  -9.1175     50.1910    122.5973   1.1478792080e+02   4.4765673195e+01    0.2091947    0.1444207 -41.68 0.0007967936    1.801    0.445
        95 -10.5228     45.7684    120.3566   1.1565453397e+02   4.5771523010e+01    0.3943589    0.2271404  76.20  0.001597533    2.026    0.506
        96 -11.9341     23.3898    135.9968   1.2324664438e+02   4.4500947302e+01     0.608629    0.3475727  50.67  0.001336831    1.688    0.407
        97 -11.1266     33.2741    119.6525   1.1892737781e+02   4.7217678086e+01    0.4036148    0.2573265 -53.44 0.0004870281    1.609    0.379
        98 -10.6197     26.0724     86.7647   1.1627996368e+02   5.5339280519e+01    0.7300985    0.4187369  37.70  0.004170896    1.977    0.494
        99 -11.5531      9.8740     97.5043   1.2280132282e+02   5.4112362427e+01    0.7114433    0.4343516  89.09  0.004354534    1.468    0.319
       100 -10.9241     35.8167     92.6190   1.1418095507e+02   5.3133010707e+01     1.084624    0.7013845  76.58  0.005336772    1.803    0.445
       101 -12.1512      7.6892     88.9698   1.2242437132e+02   5.6165551873e+01     0.621879    0.4091914  42.47  0.001504409    1.739    0.425
       102 -13.4120     24.6178    109.2709   1.1999390795e+02   5.0346869398e+01     1.713414     1.159036 -35.11   0.01026204    1.966    0.491
       103 -11.7985     18.8531    106.1167   1.2123268332e+02   5.1528148029e+01    0.2116054     0.169816 -80.40 0.0002615808    1.015    0.014
       104 -11.8652     22.0651     95.0799   1.1882644899e+02   5.3774553034e+01    0.5649218    0.3485015   7.66  0.002768586    2.389    0.581
       105 -12.0172     18.3717     90.1907   1.1926134483e+02   5.5166201491e+01    0.3098731    0.2400897 -72.79 0.0004651397    1.035    0.034
       106 -11.5419      2.4150    112.1203   1.2638055221e+02   5.1344857370e+01    0.7369273     0.308329  87.58  0.003705397    2.280    0.561
       107 -12.0093      3.8003    105.5757   1.2540010428e+02   5.2702499207e+01    0.4648658    0.3014671  86.87 0.0009577526    1.301    0.231
       108 -12.0250     43.1369     85.2761   1.1045615766e+02   5.4072259831e+01     0.719233    0.3772816  34.26  0.003690984    2.144    0.534
       109 -10.9154     37.3147     85.8443   1.1246820871e+02   5.4534421170e+01    0.3245824    0.2526785  72.62  0.002014748    1.410    0.291
       110 -11.6200    104.7250    121.7137   1.0013943113e+02   3.6964623603e+01    0.4777988    0.4341941  77.59  0.001581627    1.067    0.062
       111  -9.7764     68.4753    123.7640   1.1007982681e+02   4.2203934382e+01    0.3506005    0.1889169  21.92  0.001519386    2.913    0.657
       112  -9.1036     72.4113    119.8683   1.0834824830e+02   4.2538624919e+01    0.2693757    0.1017794 -53.10  0.001082396    2.502    0.600
       113  -9.0684    137.9747    122.8059   9.2137158603e+01   3.0322009389e+01    0.2400684    0.1673816  19.33  0.001056371    2.028    0.507
       114  -9.1403    221.1841    120.4006   7.4582729218e+01   1.2652374135e+01    0.1909314     0.136634  62.10 0.0008379804    1.689    0.408
       115  -9.1604    148.4021    119.7820   8.8998703160e+01   2.8733118596e+01    0.2060678    0.1418816 -31.74 0.0005611054    1.651    0.394
       116  -9.6484    185.3190    119.3232   8.0952747131e+01   2.0677013916e+01    0.1534872    0.1134021  13.01 0.0007044672    1.672    0.402
       117 -10.0862     81.1843    116.5830   1.0535119188e+02   4.1993481491e+01     0.494485    0.2770604 -84.47  0.001713977    2.781    0.640
       118 -10.6622     90.4395    103.6238   1.0003908739e+02   4.3427171723e+01    0.4477184     0.372177 -77.87   0.00170003    1.229    0.186
       119 -10.1525     85.9316    104.3030   1.0146947253e+02   4.4014556796e+01    0.3473477    0.2273154 -46.38 0.0009983683    1.539    0.350
       120 -11.2601     79.8440    108.1772   1.0403083552e+02   4.4095511525e+01    0.7631778    0.5182738  68.09    0.0038173    1.769    0.435
       121  -9.3178     82.4171    102.5320   1.0208014259e+02   4.4971467318e+01    0.2126944    0.1963742 -65.53  0.000581962    1.035    0.034
       122  -9.9233    113.2690    115.9801   9.6691711061e+01   3.6643375315e+01    0.2481828    0.2094625  36.34  0.000320559    1.261    0.207
       123 -10.7021    107.6739    112.0988   9.7271030278e+01   3.8526420298e+01    0.6903639    0.3996403 -73.33  0.002715237    2.629    0.620
       124 -10.6894    102.1236    109.8391   9.8236409687e+01   4.0028555267e+01    0.4383801    0.3613356  45.61  0.002392477    1.241    0.194
       125  -9.9207    103.1287    106.1178   9.7102403911e+01   4.0663349541e+01    0.3208232    0.2375339  44.44  0.000414858    1.382    0.276
       126 -10.2792     67.1502    112.1616   1.0839856204e+02   4.5017984259e+01    0.5138525    0.2823346 -71.86  0.002422459    1.892    0.471
       127 -11.2796    171.0732    109.9736   8.1566433039e+01   2.5562822409e+01    0.6874908    0.4480002  31.21  0.002547286    1.782    0.439
       128  -9.6612     93.8923    111.8405   1.0091112037e+02   4.1017024598e+01    0.2748287    0.2082313 -76.02  0.001435658    1.406    0.289
       129  -9.6812     48.9637    112.0599   1.1351542128e+02   4.7304606952e+01     0.230535    0.1775616  43.62  0.001222019    1.406    0.289
       130 -10.3554    130.6586    109.7299   9.0811056684e+01   3.4513995602e+01    0.2831765    0.1824801  35.71  0.001262825    1.707    0.414
       131  -9.9630    120.1184    109.3222   9.3374511674e+01   3.6740617557e+01     0.254273    0.1958234 -38.83 0.0006119903    1.379    0.275
       132  -9.6419     58.2291    107.7854   1.1013902582e+02   4.7180336384e+01    0.3043407    0.1599905 -79.33 0.0009189131    2.283    0.562
       133 -11.1524    158.2694    106.0710   8.3355674661e+01   2.9209877511e+01     0.574237    0.3577673  27.62  0.002338741    2.133    0.531
       134  -9.2389    140.4579     96.4876   8.4970290675e+01   3.5088339834e+01    0.3496548    0.2445298  34.24  0.001592449    1.585    0.369
       135 -10.1757    139.0924     93.0500   8.4360867030e+01   3.6073387972e+01     0.373848    0.2577187  52.71 0.0007841085    1.473    0.321
       136 -11.1432    143.1519    106.1701   8.6875287500e+01   3.2568416028e+01    0.3934886      0.32072  42.40  0.001056604    1.225    0.184
       137 -11.9498    145.9151    100.3216   8.4692003398e+01   3.3112287075e+01    0.5526593    0.5300934 -21.86  0.002338804    1.074    0.069
       138 -10.5363     47.5087    103.7308   1.1255140172e+02   4.9375464117e+01    0.7766186    0.2644485 -59.86  0.001367573    2.413    0.586
       139 -10.6963     52.1206     98.0401   1.1013743515e+02   5.0153259748e+01     1.010817    0.3781599 -69.67  0.003842096    2.994    0.666
       140 -10.1387     57.3189     96.9313   1.0833802908e+02   4.9779039436e+01    0.4445848    0.3342574 -71.77  0.002579296    1.221    0.181
       141 -10.2966     57.8348    102.5561   1.0928343583e+02   4.8427167960e+01    0.5022723    0.3058341  25.83  0.002571157    2.061    0.515
       142 -10.4711     64.4520     99.4404   1.0669472561e+02   4.8285296822e+01     0.312444    0.2489046 -30.82  0.000915817    1.522    0.343
       143 -10.5735     68.3987     95.6337   1.0469486133e+02   4.8612729805e+01    0.4215282    0.3424033 -34.42  0.001608794    1.399    0.285
       144  -9.5471    120.9283    101.3163   9.1171768385e+01   3.8268090166e+01    0.2123821    0.1937463  43.06  0.001151503    1.119    0.106
       145  -9.6822     67.4316     88.0801   1.0327250524e+02   5.0457108179e+01    0.2966065    0.2200234 -19.74  0.001239769    1.827    0.453
       146 -12.3045     79.0530     95.8091   1.0153325432e+02   4.7007612795e+01    0.7284044    0.4751414 -41.95  0.003631732    1.618    0.382
       147 -11.0332     89.9509     89.2962   9.6685219957e+01   4.6683257944e+01    0.7071257    0.4082567 -32.65   0.00298377    2.291    0.564
       148 -12.6784     52.6997     73.8901   1.0466914973e+02   5.5558640813e+01    0.5440015     0.286839 -61.48 0.0008836408    1.746    0.427
       149 -10.6186     58.5640     78.3680   1.0379546104e+02   5.3828340733e+01    0.3725671    0.2859478 -69.92   0.00213962    1.279    0.218
       150 -10.1366     60.5082     83.5349   1.0440714654e+02   5.2417168478e+01    0.2664352    0.2389267 -75.42 0.0005745566    1.086    0.079
       151 -10.7557     66.8649     81.8149   1.0192861800e+02   5.1941579767e+01    0.6400861    0.4432742 -57.16   0.00344531    1.305    0.234
       152 -10.6517     79.9640     82.9576   9.8061714319e+01   4.9725849219e+01    0.6659529    0.5074651 -80.76  0.002987899    1.566    0.361
       153 -11.5241     73.2185     77.9367   9.8863259500e+01   5.1874826632e+01    0.7342377    0.6101148  53.92  0.004227924    1.338    0.252
       154  -9.0615    134.1685    100.6752   8.7634477203e+01   3.5626778005e+01    0.3039007    0.1352464  54.42  0.001075383    2.561    0.610
       155 -10.0228    210.8858     97.5450   7.0729919366e+01   1.8448831781e+01    0.4363784    0.2855372  31.23  0.001987215    1.748    0.428
       156 -10.7455    152.9451     91.8319   8.0737023172e+01   3.3139744366e+01    0.6695701    0.3577384  54.47  0.002670909    1.941    0.485
       157 -10.3211    117.4639     93.0379   8.9905713390e+01   4.0708613144e+01    0.4209433    0.3158754  21.93  0.001565627    1.680    0.405
       158 -10.4076    121.9191     88.9572   8.7593391189e+01   4.0631533196e+01    0.4474446    0.2710266  42.91  0.001966158    1.696    0.410
       159 -11.0046    120.5236     85.1223   8.6875332911e+01   4.1708826291e+01    0.4282397    0.3146134  51.56  0.001923177    1.403    0.287
       160 -10.3907    126.0450     93.2908   8.7713781086e+01   3.8871644952e+01    0.3737828    0.3396021  55.70   0.00103799    1.114    0.102
       161 -10.3223    122.4891     93.5324   8.8706858399e+01   3.9570143880e+01    0.2925796    0.2364732 -35.01 0.0007569807    1.288    0.224
       162 -12.5110    101.8135     90.0327   9.3425719850e+01   4.4401685024e+01    0.4235039    0.4070556 -25.89 0.0004280168    1.097    0.088
       163  -9.0344    211.5258     88.4643   6.8262523980e+01   1.9709793039e+01    0.1464281    0.1397409  -6.64 6.349154e-05    1.011    0.011
       164 -10.4493    183.6032     85.6564   7.2521845662e+01   2.6879264541e+01    0.7412342    0.2861194 -44.55  0.002479817    2.816    0.645
       165  -9.7090    102.6652     80.6789   9.0574237094e+01   4.6227574648e+01    0.4420958    0.1825459 -36.18  0.001300853    3.088    0.676
       166 -11.0815    113.5172     84.2010   8.8515515913e+01   4.3349495233e+01    0.6575102    0.3479429 -36.25  0.002080899    2.077    0.519
       167 -11.4447    142.7608     84.0531   8.0909407967e+01   3.6986958399e+01    0.5919731    0.3830158  40.64  0.001203696    1.615    0.381
       168 -10.5189    165.7040     83.5068   7.5547895372e+01   3.1622108186e+01    0.4322463    0.3722957 -54.54  0.001407165    1.231    0.188
       169 -10.5507    127.3583     82.9181   8.4431579413e+01   4.0682760307e+01    0.3984834    0.2919087 -42.22  0.001469215    1.349    0.259
       170  -9.3858     20.0070     71.8105   1.1568921036e+02   5.9190687587e+01    0.2295517    0.1260224 -25.91  0.001037266    2.584    0.613
       171 -11.7613     14.1166     74.8245   1.1827584828e+02   5.8928289829e+01    0.5651008    0.2929692 -66.02  0.002718293    1.496    0.331
       172 -10.2874     14.4074     67.1165   1.1682506742e+02   6.0629285295e+01    0.3367451    0.2692772 -45.57  0.002168623    1.238    0.192
       173 -10.4299     17.7363    100.9935   1.2091884096e+02   5.2770034033e+01    0.2429976    0.2241858 -47.52 0.0008968695    1.302    0.232
       174 -10.3375    232.5937     77.1395   6.2069440403e+01   1.6489325597e+01    0.5447496    0.2664699 -43.08  0.002283093    2.042    0.510
       175  -9.4465    170.2480     77.5314   7.2860272980e+01   3.1549042915e+01     0.283295    0.2182529 -36.12 0.0009219011    1.293    0.227
       176 -10.0142    142.9356    249.3120   1.1081945408e+02   8.0233152371e+00    0.1644982    0.1097581  43.23  0.001166181    1.103    0.093
       177 -10.0626     98.8516     61.8654   8.5852241824e+01   5.0784985739e+01    0.4244263    0.2815638 -16.71  0.001685573    2.066    0.516
       178 -10.4243     93.6024     76.5696   9.2069334898e+01   4.8781562650e+01    0.5775502    0.3169771  31.37  0.002248105    2.274    0.560
       179 -11.6956     85.5998     73.3765   9.3608694077e+01   5.0866137221e+01    0.6460742    0.5485632  44.03  0.003641207    1.264    0.209
       180 -10.8235     79.3354     67.3485   9.3815254842e+01   5.3186767799e+01    0.6829746    0.5451866   6.49  0.003693007    1.544    0.352
       181 -11.1187     91.2440     62.7477   8.8505537905e+01   5.2055553852e+01    0.4402377    0.3567179  68.29    0.0013901    1.531    0.347
       182 -11.4952     89.7066     57.5974   8.7267526374e+01   5.3356788708e+01    0.6190916    0.5403772  45.59  0.002289787    1.233    0.189
       183 -11.7544     40.6522     70.3862   1.0803736069e+02   5.7688298185e+01    0.5605124    0.2611077 -57.00  0.001856883    1.764    0.433
       184  -9.7719     33.0915     77.4977   1.1224028800e+02   5.6828164340e+01    0.2266829     0.152878 -63.31 0.0008072876    1.228    0.186
       185 -11.3709     32.3510     71.9585   1.1134457130e+02   5.8142134324e+01    0.4956756    0.2974981  28.52  0.002408472    1.973    0.493
       186 -10.4678     53.0469     49.4303   9.7467743656e+01   6.0757251144e+01    0.4231831    0.3207295  83.40  0.002287719    2.038    0.509
       187 -11.3111     21.1061     47.3273   1.0980107845e+02   6.4472292467e+01      0.53451    0.2689111 -41.90   0.00240617    1.805    0.446
       188  -8.5449    242.6681    247.9906   9.4546486505e+01  -6.4111987898e+00    0.1582958   0.07092763  -4.11 0.0007051326    4.425    0.774
       189 -11.1856     30.6569     45.3486   1.0522519408e+02   6.4081287985e+01    0.8882381    0.4413084 -19.16  0.003688458    3.671    0.728
       190  -9.3549    175.5081    246.4810   1.0507928166e+02   3.4951334196e+00    0.1119232   0.08218269  40.17 0.0008098881    1.047    0.045
       191 -10.8538     58.1629     62.0521   9.9516843957e+01   5.7451812392e+01    0.6845961    0.4702384  80.58  0.003298108    2.414    0.586
       192 -11.0085     32.9520     58.8240   1.0804154057e+02   6.0991929722e+01    0.4068204    0.2357557 -23.56            0    2.367    0.578
       193 -11.7848     25.4831     55.5925   1.1014011851e+02   6.2349101396e+01    0.8323439    0.6453227   5.54  0.005465362    1.582    0.368
       194 -11.4071     40.1518     56.0852   1.0452320143e+02   6.0870277789e+01    0.6418054    0.4173537  75.09  0.002779523    2.618    0.618
       195  -9.2020    199.2582    244.4487   1.0091946104e+02   1.5150579608e-01    0.1577527   0.08236763  45.95 0.0009529063    1.653    0.395
       196 -11.7741      1.9143     71.3537   1.2195109053e+02   6.0417845665e+01    0.5827068    0.1462199 -70.45  0.002453747    2.866    0.651
       197 -12.5883      6.8302     62.2503   1.1873592626e+02   6.2166547511e+01    0.7487367    0.4445059 -36.34  0.004227139    1.816    0.449
       198 -11.1481     60.7540     36.3409   8.9680300102e+01   6.2233246815e+01    0.3959314    0.2104034 -40.45  0.001139176    1.681    0.405
       199 -11.5224     57.0822     31.5211   8.9184994560e+01   6.3650019300e+01    0.3656658      0.30345 -26.82  0.001540254    1.048    0.046
       200 -11.4812     48.4198     30.5390   9.2376308085e+01   6.5027129392e+01    0.6650724     0.287224  28.78  0.002393217    2.844    0.648
       201 -11.9731     50.7902     61.0989   1.0192747979e+02   5.8590607974e+01    0.3149393    0.2795204  73.59 0.0005097789    1.345    0.257
       202 -11.3907     46.1263     58.1755   1.0283124817e+02   5.9766717510e+01    0.4819298    0.2438505 -51.68  0.001463711    1.658    0.397
       203  -9.9921    135.2921     77.5553   8.0806425017e+01   3.9947963045e+01    0.4172976    0.1531843  56.27  0.001285026    3.345    0.701
       204  -9.6535    126.9482     76.9535   8.2753818413e+01   4.1946325632e+01    0.2254614    0.2226725 -46.03 0.0002997794    1.013    0.013
       205 -10.3086    128.5033     64.3967   7.8372285412e+01   4.3966037763e+01    0.6485743    0.4479511 -53.56  0.002953325    1.621    0.383
       206 -10.3636    123.3195     72.9482   8.2473286361e+01   4.3525323394e+01    0.4240233    0.3225425 -60.29 0.0009604898    1.497    0.332
       207 -11.1685    123.7627     68.5814   8.0971488151e+01   4.4262242402e+01     0.440185    0.3691003 -67.82  0.001097208    1.376    0.273
       208 -10.7174    120.2997     68.6830   8.1931585827e+01   4.5008536425e+01    0.3104874    0.2659828  74.01 0.0006013346    1.342    0.255
       209 -12.0449    186.6144     70.5443   6.7647381340e+01   2.8606301302e+01    0.8983622     0.657353 -36.96  0.003116903    1.345    0.257
       210  -9.9087    184.1538     61.3283   6.5368386324e+01   3.0667908610e+01    0.3642583    0.2940817  -4.47  0.001090935    1.403    0.287
       211 -11.5880    109.3365     80.5811   8.8633327624e+01   4.4940594018e+01    0.9161001    0.6216159  87.78  0.003736075    2.552    0.608
       212 -10.5788     22.9109     36.9976   1.0602035601e+02   6.6483040657e+01    0.4871258    0.3340093  71.26  0.002717956    2.433    0.589
       213  -9.5215    151.9469     73.3153   7.5542375837e+01   3.6788512129e+01    0.4239997    0.1546535  41.54  0.001282524    3.352    0.702
       214  -9.1954     68.5606     70.9236   9.8462903052e+01   5.4095188285e+01    0.3537465    0.2060521 -74.76 0.0008580114    2.745    0.636
       215  -8.8567     70.0650     67.0001   9.6814869499e+01   5.4715543062e+01    0.1883088    0.1517015 -26.30 0.0006094127    1.330    0.248
       216 -10.8195     46.9193     74.3578   1.0677966649e+02   5.6127232187e+01    0.3438084     0.175758 -61.02  0.001680173    1.716    0.417
       217  -9.9454    162.0178     70.7166   7.2538061330e+01   3.4761420849e+01    0.3468387    0.2800709  81.83  0.001120131    1.458    0.314
       218 -10.7037    171.6325     66.4821   6.9277937438e+01   3.3049708189e+01    0.6689473    0.3517992 -44.89  0.002630811    1.998    0.500
       219  -9.2789    114.9899     69.2760   8.3578309727e+01   4.6041149788e+01    0.2106835    0.1978893  44.65 0.0008611238    1.092    0.084
       220 -11.3725    219.8785     66.5407   6.1102058015e+01   2.0968523979e+01    0.7629244    0.3632156  55.48  0.002660154    2.117    0.528
       221  -9.2186    208.0950     68.4950   6.3420659382e+01   2.3556969624e+01    0.2254812     0.145368  57.18  0.001026718    1.580    0.367
       222  -8.7215    111.6004     67.2685   8.3884268908e+01   4.7147130756e+01    0.1498782    0.1174262  87.52 0.0006978189    1.736    0.424
       223 -10.1913     21.2939     65.2561   1.1393501239e+02   6.0555991735e+01    0.2647752    0.1797745  85.45  0.001110039    1.720    0.419
       224  -9.3475     25.8344     65.2031   1.1224258317e+02   6.0210969826e+01    0.2783333    0.1552901 -40.75 0.0003076136    1.808    0.447
       225  -9.7026    192.6088     65.7508   6.5192689495e+01   2.7838823843e+01    0.2815312    0.2399947 -84.00 0.0007302341    1.326    0.246
       226  -9.4998     53.5481     66.0456   1.0231378176e+02   5.7182307104e+01    0.2446949      0.17339  55.09  0.001340262    1.759    0.431
       227 -10.4198    106.5198     63.7387   8.4189527947e+01   4.8884668952e+01    0.3955821    0.3080723   9.64   0.00194837    1.599    0.375
       228 -10.2251    103.0093     58.5090   8.3460771920e+01   5.0601697454e+01    0.4354596    0.2997972 -10.49  0.001943686    2.003    0.501
       229  -9.5382    198.2779     62.9438   6.3429587526e+01   2.6828177804e+01    0.2837083    0.2123008 -75.81  0.001296382    1.654    0.395
       230 -10.1281    162.7133     44.0413   6.3870194642e+01   3.8806204469e+01    0.5884393    0.3348948 -12.88  0.002286683    2.304    0.566
       231 -10.6077    159.3702     61.7354   7.0300851783e+01   3.6932228052e+01    0.5118928    0.3402767  35.26  0.002227783    1.697    0.411
       232 -11.5408    156.0169     41.8480   6.4435263463e+01   4.0863875454e+01    0.4930647    0.3928153 -38.99  0.001028543    1.273    0.215
       233 -10.7442    153.2479     36.2142   6.3039844300e+01   4.2374275123e+01    0.3108369    0.2751659  83.77 0.0004083419    1.207    0.172
       234 -11.2216    157.5201     54.8969   6.8485978685e+01   3.8505196361e+01    0.5677336    0.5331088 -30.23  0.003037868    1.070    0.066
       235 -11.0775    155.1396     49.5751   6.7222216560e+01   3.9942654814e+01    0.5044683    0.3089849 -11.36 0.0005676126    2.157    0.536
       236 -10.8528    127.8815    242.9290   1.1271250761e+02   1.1082212857e+01    0.2846762    0.1843315 -71.36    0.0019239    2.114    0.527
       237  -8.8088    163.5008    243.5151   1.0673681351e+02   5.6642818643e+00    0.1130922   0.08362383  42.36 8.033391e-05    1.033    0.032
       238 -11.1997    113.2091     49.4943   7.7319768686e+01   5.0070934042e+01    0.5907118    0.4192204  34.52   0.00259022    1.503    0.335
       239 -12.6523    116.1374     41.6487   7.3608143760e+01   5.0718600137e+01    0.9722421    0.7257709 -71.64  0.004569134    1.889    0.471
       240 -10.3206    149.3683    237.6767   1.0847435786e+02   8.5628173713e+00    0.3132739    0.1641039  30.74   0.00174371    2.043    0.511
       241  -9.1621     68.3181    240.3287   1.2255262179e+02   1.9620686356e+01   0.08607511   0.07997669  27.00 0.0007046746    1.682    0.406
       242 -10.8828    197.9869    232.6530   9.9556798219e+01   1.6325699180e+00    0.2674161    0.2249196  61.84   0.00194998    1.624    0.384
       243  -9.7167     15.1253    233.7254   1.3082281395e+02   2.6601751388e+01    0.1688872    0.1132006  87.71  0.001136433    1.342    0.255
       244 -11.5680    145.6989     47.8081   6.8639330988e+01   4.2614058596e+01     1.129035    0.4773614 -25.88  0.003901872    2.722    0.633
       245 -11.1334    140.0150     43.7827   6.8500812637e+01   4.4658092850e+01    0.6281557    0.4219085  27.00  0.001416609    1.799    0.444
       246 -10.5820    144.1671     25.1819   6.0872673527e+01   4.6174133497e+01    0.6392047    0.3714125  64.47  0.002791655    1.725    0.420
       247 -10.7864    136.4678     56.3600   7.3698637122e+01   4.3503707494e+01    0.6571095    0.4431643   3.57  0.002140735    2.186    0.542
       248 -10.6580    133.7623     49.6965   7.2052154330e+01   4.5265415265e+01    0.4909215    0.2900572 -56.13  0.001456381    2.255    0.557
       249  -9.9537    247.5144    231.3109   9.1380075838e+01  -5.6045578857e+00    0.1660836   0.09803864 -28.52 0.0007106368    1.972    0.493
       250 -10.9057    154.1572     25.5738   5.9122597834e+01   4.3517703223e+01    0.7430474    0.4156894  45.09   0.00316936    1.798    0.444
       251 -10.2201    157.2712     20.3799   5.6737443916e+01   4.3309942690e+01     0.514074    0.2368797  61.56  0.002044567    2.009    0.502
       252  -9.3899      2.0665     56.1785   1.1947011827e+02   6.3744707565e+01     0.166553    0.1220938 -51.00 0.0005041095    1.206    0.171
       253 -10.0578    234.4369     45.5121   5.3586286398e+01   2.0296708104e+01    0.3821722    0.2064344 -62.95  0.001566291    2.442    0.590
       254  -9.6438    249.0110     53.1533   5.3890107102e+01   1.5974270712e+01    0.2783302    0.1684049 -68.89  0.001038253    2.197    0.545
       255 -10.0377    244.6998     50.9711   5.3823096700e+01   1.7221896226e+01    0.2712083    0.2282267 -38.98 0.0008300025    1.080    0.074
       256 -10.9573    240.2085     50.2507   5.4151437289e+01   1.8344217835e+01    0.3420144     0.327794 -44.04 0.0006014603    1.042    0.040
       257  -9.6453    187.9673     55.0756   6.2827781945e+01   3.0622663777e+01    0.3113919    0.2060325  59.05  0.001413008    1.506    0.336
       258  -9.9316     66.9821     54.7246   9.4031439331e+01   5.7735288368e+01    0.2582991    0.1853319 -55.71  0.000734108    1.394    0.283
       259 -10.0848    210.4849     52.9983   5.8719457377e+01   2.5171325085e+01    0.2769534     0.195264  44.45 0.0006123043    1.512    0.339
       260 -11.2177    201.9933     47.9172   5.8493449360e+01   2.8019353448e+01    0.9176095     0.486027 -38.41  0.003880114    1.802    0.445
       261  -9.3832    227.2536     49.9911   5.5642860297e+01   2.1441871154e+01    0.2690215    0.1276824  32.84 0.0009028545    3.633    0.725
       262 -10.9606    174.1703     48.0270   6.3046734056e+01   3.5236879301e+01    0.5946429    0.4475794  72.79  0.002589051    1.416    0.294
       263  -9.8427    176.3961     43.5372   6.1227005260e+01   3.5290041087e+01    0.3549624    0.2618534 -88.69  0.001325903    1.614    0.380
       264  -9.5035    147.3737     60.6251   7.2565344965e+01   4.0116800925e+01     0.364272    0.1520223  59.13  0.001240383    2.643    0.622
       265 -10.2543     90.8987     47.7910   8.3384606021e+01   5.4986065243e+01    0.3172771    0.2253356 -45.03  0.001017604    1.393    0.282
       266 -10.0551     13.2524     47.2134   1.1307231371e+02   6.5050946524e+01    0.3676329     0.169416 -29.03    0.0017832    2.805    0.644
       267 -10.3061     17.7399     41.8019   1.0974258100e+02   6.5889276176e+01    0.4720805     0.201799 -36.58  0.002271166    2.481    0.597
       268  -9.7431      2.2121     48.8295   1.1802508064e+02   6.5327569810e+01    0.2102448    0.1796886 -57.25 0.0009862661    1.120    0.107
       269  -9.2614      3.1241     44.6147   1.1676599527e+02   6.6184503011e+01    0.2471207    0.1327723 -19.66  0.001109712    2.372    0.578
       270  -9.6847      6.6246     43.3282   1.1497375003e+02   6.6274444791e+01    0.3981273    0.2026431 -86.97  0.001944894    2.750    0.636
       271  -9.9182    209.5748     47.1571   5.7191818766e+01   2.6190395211e+01    0.2785389    0.1918882  80.02  0.001091984    1.636    0.389
       272  -9.8293    195.0236     46.7349   5.9190372676e+01   2.9977308618e+01    0.5477924    0.2687703 -88.53  0.001555034    4.727    0.788
       273  -9.6771     23.3870    231.6864   1.2942640752e+02   2.6106404347e+01    0.1751069   0.07926816  50.87 0.0006517339    1.563    0.360
       274  -9.4451    101.4871     44.4951   7.8852461935e+01   5.3450981650e+01    0.2465522     0.180833  60.42 0.0007196809    1.602    0.376
       275 -11.0335     94.6073     41.2884   7.9730192465e+01   5.5408478725e+01    0.7436749    0.3216098  50.86  0.002927283    2.527    0.604
       276 -10.8016    189.3351     41.4042   5.8453067260e+01   3.2180795929e+01    0.5035606    0.3566918  -8.54  0.001895918    1.660    0.398
       277  -8.7805     87.4876     27.4872   7.6340116187e+01   5.9065730635e+01    0.1388488    0.1252399  -2.59 -7.917685e-05    1.013    0.013
       278  -9.3145     86.4825     30.9776   7.8160275838e+01   5.8718724398e+01    0.2677175    0.1942884 -12.39 0.0009390759    1.470    0.320
       279 -10.8490     81.0068     39.8246   8.3624858598e+01   5.8258977966e+01    0.6103604     0.390247  48.95  0.002511436    1.756    0.431
       280 -10.9304     77.5567     34.4357   8.2650795018e+01   5.9814877666e+01    0.3971502    0.2620561  40.30 0.0009887285    1.593    0.372
       281 -10.4366     82.0294     31.5306   7.9886277711e+01   5.9480680379e+01    0.3996149    0.2858743 -55.20  0.002044958    1.775    0.437
       282 -10.3755    231.5225     39.5153   5.2335503388e+01   2.1739964928e+01    0.3030301    0.2211461 -63.96  0.000617012    1.453    0.312
       283  -9.2300    217.8261     38.8239   5.3763975202e+01   2.5189183793e+01    0.2055186    0.1586578 -58.02 0.0006038536    1.317    0.241
       284  -9.9097    206.9166     37.3167   5.4727338387e+01   2.8143936133e+01    0.2748329    0.2232347 -48.21  0.000629174    1.205    0.170
       285 -11.7774    176.8970     35.4944   5.8566989599e+01   3.6240800496e+01    0.8768247    0.6186297  59.96  0.003131878    1.376    0.273
       286 -10.2867    242.3375    230.9344   9.2126002472e+01  -4.8342126618e+00    0.2212969    0.1607745  52.88  0.001493353    2.050    0.512
       287 -10.7555    176.5464     29.9392   5.6827931036e+01   3.7039320155e+01    0.5083522    0.2372149  48.24  0.001336843    2.167    0.539
       288 -11.6901    182.4601     25.3730   5.4473093859e+01   3.6016060443e+01    0.6989403    0.3536786  51.87  0.002898515    1.926    0.481
       289  -9.7524    133.0642     36.8731   6.7586738813e+01   4.7413598770e+01    0.4137266    0.2424643 -58.21  0.001623166    2.452    0.592
       290  -8.9383     94.1097     36.1508   7.7847684977e+01   5.6367883247e+01    0.1821463    0.1683654 -79.42 0.0005755819    1.338    0.252
       291  -9.7386    234.2565    222.6066   9.2133503113e+01  -2.8389777752e+00    0.1617586   0.08150391  32.29 0.0009419154    1.583    0.368
       292 -10.3210      5.1436     35.7466   1.1376999545e+02   6.7946846853e+01    0.3736546    0.2171448  13.32  0.002331568    2.144    0.534
       293  -9.9311      8.1323     29.8658   1.1072560924e+02   6.8985154167e+01    0.5581703    0.2411189 -26.33  0.002682242    2.999    0.667
       294  -9.4776      9.8653    217.8291   1.3104786554e+02   2.9740117331e+01    0.1448702   0.07904007  66.11 0.0007159513    1.306    0.234
       295  -9.7003    165.6322    212.7650   1.0244906093e+02   9.3660269367e+00    0.2321987    0.1339145  58.89  0.001211745    2.118    0.528
       296  -8.9492    160.9115    209.0000   1.0278765485e+02   1.0694635336e+01    0.2024224   0.05778428  42.73 0.0006910112    2.837    0.647
       297  -9.6768    153.0149    207.8094   1.0408892988e+02   1.2194415936e+01    0.1925047    0.1441613  55.52  0.001131102    1.270    0.213
       298 -10.7964     31.1528     27.9534   9.9056513963e+01   6.7516617534e+01    0.3019141      0.21958 -60.03  0.001455273    1.489    0.328
       299  -9.1789     61.0444    207.0400   1.2141198420e+02   2.6070986476e+01    0.1786263   0.09909708  64.57 0.0004922646    1.562    0.360
       300 -10.8391      5.0458    202.8261   1.3125730172e+02   3.2800526057e+01    0.5218936    0.1095819 -68.39  0.002428182    4.229    0.764
       301  -8.8899    236.6867     33.3049   5.0142633897e+01   2.1253592017e+01    0.1385836    0.1345623 -20.51 0.0005908737    1.106    0.096
       302 -10.6209    240.5218     32.1434   4.9452129082e+01   2.0484059872e+01    0.6136466    0.3120569 -25.96  0.002787866    1.884    0.469
       303 -12.3554      5.1733    185.2962   1.3046653852e+02   3.6014820278e+01    0.7282813    0.3644412  78.15  0.004194253    1.588    0.370
       304 -12.3134    105.9454     20.1528   6.7683722881e+01   5.6162699455e+01     0.321122    0.2615214 -22.32 0.0003533135    1.213    0.175
       305 -12.1320    105.7991     32.8956   7.3041292294e+01   5.4404043924e+01    0.5550984    0.3505695  17.72  0.001659993    2.141    0.533
       306 -10.5699    245.6235    200.9108   8.6776839384e+01  -2.3139205729e+00    0.2055846    0.1307385  26.32   0.00066608    1.293    0.226
       307  -9.7392    248.7644     33.4520   4.8978878886e+01   1.8424387891e+01    0.2699991    0.1727665 -30.39  0.001406285    1.422    0.297
       308  -9.1836    161.5131     23.4848   5.7104955891e+01   4.1822854133e+01    0.2602509    0.2176189  30.28 -6.623627e-05    1.260    0.206
       309 -11.1556    160.2817     29.3689   5.9349460226e+01   4.1430386054e+01    0.5213314    0.2839183 -12.67  0.002057228    2.301    0.565
       310  -8.7034    207.4640    201.4718   9.3242351234e+01   3.8206339297e+00    0.1242031   0.09882645  25.70 0.0008087308    1.029    0.028
       311 -10.4690    234.5246    196.8788   8.7877958623e+01  -1.1083025274e-01    0.3953266    0.2345016  20.21  0.001756633    1.641    0.391
       312 -10.7075    189.3173     28.7811   5.4567709782e+01   3.3789950922e+01    0.6119123    0.3170731 -19.90  0.002106455    2.135    0.532
       313  -9.3478    148.2581     31.8514   6.2485406107e+01   4.4258390807e+01    0.2516838    0.2029119  75.08  0.001216149    1.324    0.245
       314  -9.4683    210.8686     30.0620   5.2143176228e+01   2.8020710202e+01    0.2588309    0.1960475 -22.60 0.0009455854    1.357    0.263
       315  -9.2437    216.5999     32.2228   5.2070043269e+01   2.6307144921e+01    0.1908982    0.1364018 -10.68 0.0004503568    1.598    0.374
       316  -9.2494     35.9474     31.1931   9.8104555997e+01   6.6395305539e+01    0.1776366    0.1380698  65.48 0.0009788859    2.018    0.504
       317  -9.5882    221.4468     29.4501   5.0746000640e+01   2.5421688854e+01     0.246499    0.2216139 -45.20 0.0006010369    1.054    0.051
       318 -11.3823     98.5885     27.2807   7.2807947863e+01   5.6805905096e+01    0.3983539    0.2809928 -43.66  0.000549317    1.538    0.350
       319 -10.0252    230.8504     27.8965   4.9321409496e+01   2.3288162873e+01    0.3683578    0.1853547 -31.67  0.001506406    1.810    0.447
       320 -10.1153    250.5460     26.2508   4.7023167351e+01   1.8843693897e+01    0.3367506    0.1177891 -27.08 0.0008271639    2.596    0.615
       321  -8.9700     41.7360     27.1208   9.3883285916e+01   6.6495784632e+01    0.1608696    0.1192805 -22.51 0.0005423457    1.271    0.213
       322 -10.6360    214.1982     23.7687   4.9971640071e+01   2.7903788846e+01    0.4271963    0.3501433  -2.39  0.001871559    1.403    0.287
       323 -10.4358    211.3272     18.7822   4.8875766871e+01   2.9192105111e+01    0.2422928    0.2300576  80.79 0.0002568075    1.063    0.060
       324 -10.3312     68.5416     32.7847   8.5244862520e+01   6.1647025969e+01    0.4052713    0.3089937  43.16  0.002321105    1.468    0.319
       325  -9.4564     80.5320     19.3145   7.4992096998e+01   6.1632104285e+01    0.3002105    0.2010749  41.40 0.0009033387    1.496    0.332
       326  -8.7520     83.5368    195.5855   1.1605047744e+02   2.5170653523e+01    0.1198089    0.0942727  63.03 0.0001457509    1.020    0.020
       327 -10.0054    169.7630    191.4038   9.8483128247e+01   1.1790940897e+01    0.3375305    0.1640874  33.54  0.001186808    2.106    0.525
       328  -9.6736     86.0389     23.5560   7.5087948162e+01   5.9941372784e+01    0.2167224    0.2073769 -39.12 0.0003412127    1.210    0.173
       329  -9.7860    239.8773    184.6357   8.4819683175e+01   4.2925059996e-01    0.2017443    0.1472823  -3.09 0.0006235364    1.289    0.224
       330 -10.4357     47.0598     19.1419   8.7988066120e+01   6.7206368207e+01    0.3134047    0.2699562  -5.94  0.001545556    1.096    0.088
       331 -10.1300     38.7064     21.8469   9.3010139538e+01   6.7809606520e+01    0.2897052    0.1677143 -32.32  0.001283743    1.564    0.361
       332 -10.0516    250.1734    179.8716   8.2282638724e+01  -7.1019100108e-01    0.2769386     0.147868 -18.46  0.001483349    1.928    0.481
       333 -10.1241    212.8417    181.0120   8.8749682361e+01   5.5441599647e+00    0.2983001    0.1430758  24.21  0.001222428    2.898    0.655
       334  -9.7972     28.4459    176.0178   1.2540394138e+02   3.5650277534e+01    0.1949677    0.1763842  77.39  0.001542248    1.301    0.231
       335 -10.2583    243.1087     21.9690   4.6611189405e+01   2.1035016824e+01    0.4142386    0.1542098  61.78  0.001699565    2.646    0.622
       336  -9.7360    222.8616     21.7106   4.8476612636e+01   2.5954708377e+01    0.3877214      0.21692 -56.01  0.001755802    1.880    0.468
       337 -10.0258     52.1671    173.9159   1.2032259748e+02   3.3465609026e+01    0.3972349    0.1727729  86.59  0.001751045    3.062    0.673
       338  -9.0354    230.2479    175.5494   8.4726060984e+01   3.1766566904e+00     0.175145    0.1026388  31.56 0.0006008309    1.552    0.356
       339  -9.9878     74.0461     19.5344   7.7351947033e+01   6.2819735162e+01    0.3130862     0.208737  32.78 0.0009585466    1.531    0.347
       340  -8.9880     57.2689    174.9801   1.1934753856e+02   3.2632349690e+01    0.1616645    0.1306536  79.34 0.0004166718    1.045    0.043
       341 -10.0844    238.7807    204.2754   8.8446959110e+01  -1.6101505737e+00    0.2265091    0.1442641 -11.35  0.001405448    1.629    0.386
       342  -9.7766    247.2930    173.9311   8.1618640737e+01   4.5627449703e-01    0.3581482     0.136796  30.30  0.001435473    3.156    0.683
       343  -9.7464     39.5959    173.2753   1.2290301909e+02   3.5029892292e+01    0.2012909   0.09731604 -70.47  0.000744826    1.902    0.474
       344 -10.5709      9.5118     21.9770   1.0749359107e+02   7.0470267314e+01    0.2507764    0.1604647 -60.07 0.0008100065    1.390    0.281
       345 -10.6692     35.7798    170.6301   1.2348427490e+02   3.5974428748e+01     0.384603    0.1868129  83.76  0.002071205    2.059    0.514
       346  -9.9216    206.1280     18.1322   4.9261150454e+01   3.0601912398e+01    0.4146158    0.2270554 -70.38  0.001713894    2.284    0.562
       347  -8.5082    170.6391    172.2648   9.5066269285e+01   1.4659176849e+01    0.1324128   0.09991267  67.18 0.0004769507    1.639    0.390
       348 -11.9324      9.9086    166.7504   1.2856782884e+02   3.9223396891e+01    0.5447193    0.3345407 -80.28  0.002781528    1.376    0.273
       349 -10.9957     14.0312    158.3578   1.2717714142e+02   4.0575135777e+01      0.37639    0.1847597 -85.46  0.002233931    1.695    0.410
       350  -9.3614    115.3200     17.8072   6.4289077995e+01   5.4273871844e+01    0.2500588    0.2046295  44.70  0.001359706    1.162    0.139
       351  -9.0184    197.8248    167.8399   8.9007951368e+01   1.0179708449e+01    0.1667748    0.1592401  71.61  0.000663604    1.303    0.232
       352  -9.9906    188.8862    164.2027   8.9997940693e+01   1.2454082129e+01    0.3208032    0.1984564 -24.91  0.001111817    1.940    0.485
       353  -9.9334     40.5931    165.1866   1.2199548616e+02   3.6570723924e+01    0.3335437    0.1174636 -65.29  0.001604625    2.553    0.608
       354  -9.8599    219.6343     12.7629   4.6351013386e+01   2.7726172574e+01    0.4178514     0.150851  62.43   0.00162879    2.566    0.610
       355 -10.2666     18.7807    165.0316   1.2662698326e+02   3.8787853370e+01    0.2303049    0.1843104  35.83  0.001719466    1.535    0.348
       356 -10.4167     28.2874    162.2838   1.2440683679e+02   3.8448370378e+01    0.4227559    0.1328047 -73.11   0.00196865    2.732    0.634
       357  -9.7803    204.9716    163.0093   8.6744368400e+01   9.5322200363e+00    0.2080098    0.1762777  23.91  0.000622356    1.048    0.045
       358 -10.2149    246.4415    159.2514   7.8872560756e+01   2.3887413090e+00    0.2421179    0.1154188 -23.98  0.001146782    2.126    0.530
       359  -9.3921     79.1877    160.1807   1.1284676851e+02   3.2753528655e+01    0.1870741    0.1321281  73.12   0.00107888    1.376    0.273
       360  -9.6379    215.1038    158.3337   8.3975162661e+01   8.2719710199e+00     0.233978    0.1737091 -13.19 0.0008430218    1.399    0.285
       361  -9.0699    223.7566    156.9642   8.2177622262e+01   6.8221413158e+00    0.1689125    0.1074197 -27.77 0.0008811635    1.593    0.372
       362 -10.5904    105.2718    154.2467   1.0599214751e+02   2.9940604041e+01    0.4190113    0.3717568  69.18  0.002586656    1.012    0.011
       363 -10.1398      8.9344    156.1514   1.2812135455e+02   4.1457186591e+01    0.2452646    0.1254964 -74.38  0.001518992    1.646    0.392
       364 -12.1697     22.5903    149.9485   1.2466661477e+02   4.1571547773e+01    0.5586686    0.3779049 -51.94  0.001696388    1.820    0.451
       365 -11.1467     10.9380    126.9365   1.2548515763e+02   4.7505240869e+01    0.5152349    0.2091311 -65.31  0.002170559    2.031    0.508
       366 -10.8441     15.7075    147.8055   1.2605145914e+02   4.2632746493e+01    0.2859089    0.1985409  57.70  0.001026751    1.315    0.240
       367 -11.6852     12.3529    138.9101   1.2613344493e+02   4.4803550732e+01    0.7529991    0.3768404 -87.84  0.004353266    1.684    0.406
       368 -10.8726     31.2909    152.8958   1.2295232702e+02   4.0115603926e+01    0.4795415    0.2594419 -88.95  0.002754015    1.668    0.400
       369 -11.8259      3.7205    147.2759   1.2868923032e+02   4.3704306541e+01    0.6366669    0.3791096 -83.70   0.00352423    1.322    0.244
       370 -12.2084      4.0011    137.0558   1.2794483946e+02   4.5835712068e+01    0.2772218    0.1820741 -74.46 0.0003255561    1.298    0.230
       371 -10.9587      1.9971    142.9988   1.2880042957e+02   4.4725765460e+01    0.2504664    0.1552086 -86.45  0.001013467    1.248    0.199
       372 -10.8276      5.5182    141.5032   1.2790477305e+02   4.4780883169e+01    0.2466328    0.1652419  79.90 0.0006145382    1.179    0.152
       373 -10.2197     70.9412    151.5060   1.1360653690e+02   3.5743052186e+01    0.2839408    0.2368649  53.23  0.001819126    1.183    0.155
       374  -9.5866     47.8920    151.8777   1.1904705759e+02   3.8556221217e+01    0.2515652    0.2190578  71.99  0.000715711    1.124    0.110
       375 -11.3407     47.7968    146.9105   1.1851897771e+02   3.9638515871e+01    0.4670583    0.4287266  83.11  0.002902488    1.186    0.157
       376 -10.4025    214.9302    150.8396   8.2459782208e+01   9.3909991168e+00    0.3277957     0.215854 -25.32  0.001135223    1.566    0.362
       377 -11.3979     62.9553    150.0366   1.1530066809e+02   3.7119131654e+01    0.4276059    0.3725786  34.09  0.001737141    1.390    0.280
       378  -9.6403    234.5126    150.5131   7.9019386516e+01   5.6844208173e+00    0.1336031     0.113994   9.29 7.032965e-05    1.018    0.017
       379 -10.0731     55.7601    149.0000   1.1687505538e+02   3.8245623794e+01     0.176809    0.1425594  89.92 0.0004077241    1.067    0.062
