#   1 NUMBER                 Running object number                                     
#   2 MAG_AUTO               Kron-like elliptical aperture magnitude                    [mag]
#   3 X_IMAGE                Object position along x                                    [pixel]
#   4 Y_IMAGE                Object position along y                                    [pixel]
#   5 X_WORLD                Barycenter position along world x axis                     [deg]
#   6 Y_WORLD                Barycenter position along world y axis                     [deg]
#   7 A_WORLD                Profile RMS along major axis (world units)                 [deg]
#   8 B_WORLD                Profile RMS along minor axis (world units)                 [deg]
#   9 THETA_WORLD            Position angle (CCW/world-x)                               [deg]
#  10 FWHM_WORLD             FWHM assuming a gaussian core                              [deg]
#  11 ELONGATION             A_IMAGE/B_IMAGE                                           
#  12 ELLIPTICITY            1 - B_IMAGE/A_IMAGE                                       
         1 -12.4521    216.4676     25.2569   3.8628547891e+01   2.8833578771e+01     1.042473     0.770056  31.73  0.005890547    1.882    0.469
         2 -12.6968    203.5126     38.3577   4.3333625493e+01   3.0216504474e+01      1.28891     1.055243  30.68  0.006317875    1.524    0.344
         3 -10.1766      6.8792     13.4884   9.2592201554e+01   7.2071185385e+01    0.3310511    0.1270334 -56.18  0.001355311    4.073    0.754
         4 -10.3063    243.2356      2.8894   3.1464731711e+01   2.5490609638e+01    0.5027869    0.2529975  61.68   0.00281013    2.108    0.526
         5  -9.9283    239.0000      2.0000   3.1564623793e+01   2.6455160358e+01    0.3313658    0.1572872  76.20  0.001526373    1.981    0.495
         6 -11.0143     74.8238    219.6053   1.1219484823e+02   1.9232525700e+01    0.7326763     0.295172  52.13  0.003231565    2.476    0.596
         7 -13.6542    117.8674    230.7872   1.0445050811e+02   1.0902852877e+01     10.37446     2.126647  34.06     0.029504    5.442    0.816
         8  -7.8565     92.5319    216.9978   1.0813545374e+02   1.7320401022e+01    0.1738503    0.1239896 -69.49 0.0004900204    1.495    0.331
         9 -13.1769     43.6051    249.8564   1.2075639186e+02   1.7213568127e+01     3.188327    0.6214565  30.95  0.009062571    8.575    0.883
        10  -9.0182     61.2150    199.4841   1.1303069655e+02   2.5265243942e+01     0.235735    0.1868546  89.52 0.0006931526    1.165    0.142
        11  -8.3378    150.7636    179.2989   8.8983262375e+01   1.5653412500e+01    0.3465256    0.2044818 -64.64  0.001396155    2.507    0.601
        12  -8.2274     99.7423    180.4549   1.0145193388e+02   2.4159728674e+01    0.1837932     0.136421  22.12 0.0006012328    1.555    0.357
        13 -10.5070     64.8643    176.6643   1.0948711781e+02   3.0017604892e+01    0.4500193    0.2937131 -28.66  0.001971714    2.359    0.576
        14 -10.3194     69.8100    171.5036   1.0755951400e+02   3.0597240319e+01    0.3080216    0.2941085 -20.15  0.001188846    1.244    0.196
        15  -9.2383     40.1175    177.3917   1.1554272385e+02   3.2727972274e+01    0.2849192    0.1571484 -62.33 0.0009009142    1.662    0.398
        16  -8.1131    101.3418    171.3217   9.9554098187e+01   2.6015913644e+01     0.146166    0.1123339 -18.80 0.0007050381    1.724    0.420
        17 -11.7416     58.3633    242.3495   1.1751468980e+02   1.6869267735e+01    0.4274599    0.3014056  62.46 0.0008041264    1.178    0.151
        18 -10.8357     85.8654    155.4630   1.0084135353e+02   3.2202338973e+01    0.8570389    0.4223506 -40.52  0.003341375    2.513    0.602
        19 -11.2130     78.8537    161.7633   1.0376590550e+02   3.1697128445e+01     0.667946    0.4410579  84.27 0.0005155571    1.918    0.479
        20 -11.7735     66.4573    157.9430   1.0644152085e+02   3.4308576866e+01     0.533967    0.3552266 -43.18  0.001163463    1.661    0.398
        21 -12.2251     68.4936    144.5481   1.0371247088e+02   3.7335999108e+01     1.266842    0.7304092  85.49  0.005015027    2.738    0.635
        22  -9.8600     22.8670    153.3850   1.1725589529e+02   4.0065089934e+01    0.2280427    0.1560613 -62.70  0.001347004    1.301    0.231
        23  -8.1290     25.5861    148.4812   1.1601540734e+02   4.1016358809e+01     0.128844    0.1055669 -76.00 6.606162e-05    1.030    0.029
        24  -8.4562    133.6826    143.0319   8.5576512537e+01   2.6850226472e+01    0.2533755    0.1285477 -67.67 0.0007047906    4.360    0.771
        25  -9.2886    100.5946    140.5870   9.3928948466e+01   3.3471608761e+01    0.4913512    0.3243847 -19.07  0.002025616    2.282    0.562
        26 -10.4186     87.8402    140.3622   9.7466608349e+01   3.5589671420e+01    0.2982364    0.2366657 -42.83 0.0003557948    1.264    0.209
        27  -7.8216    135.6687    138.3366   8.3982250008e+01   2.7527620459e+01    0.1589546    0.1255753  85.50 0.0007052103    1.735    0.424
        28 -11.2073     59.3286    134.8151   1.0464572296e+02   4.0914014335e+01    0.9787874    0.3817578 -73.50   0.00313487    3.761    0.734
        29  -8.8576    110.1765    130.7600   8.9072442905e+01   3.4148997505e+01    0.2929905    0.2123636  24.71  0.000790084    1.556    0.357
        30  -8.4026    105.9710    130.9770   9.0307149298e+01   3.4851776057e+01    0.2918542    0.2220971 -54.56  0.001409465    1.285    0.222
        31  -9.2504     97.4622    126.6848   9.1766357997e+01   3.7356498653e+01    0.2985604    0.2501303 -16.99 0.0008607565    1.345    0.256
        32  -8.9788     32.9938    156.4824   1.1500910289e+02   3.8412786983e+01     0.223682    0.1476674 -73.43 0.0009968337    1.297    0.229
        33  -8.6001    116.4816    124.5065   8.5814047332e+01   3.4446837142e+01    0.2840379    0.1510392  27.10  0.001037214    2.433    0.589
        34  -8.4212    107.1215    119.1739   8.7159416268e+01   3.7439793192e+01    0.2266098    0.1983319 -17.29 0.0003371687    1.211    0.174
        35 -12.1958     23.4684    225.2788   1.2289806019e+02   2.4051691118e+01     1.098954    0.4296255  72.62  0.002838358    2.893    0.654
        36  -8.4361    205.4681    110.0685   6.1363501912e+01   1.8450191840e+01    0.2205522    0.2010345  50.92 0.0009257502    1.191    0.160
        37 -10.0305     17.1760    109.8750   1.1341083279e+02   5.1047181805e+01    0.1942173     0.156031 -85.79 0.0006857806    1.223    0.182
        38  -8.5331     33.0000    108.9387   1.0817545812e+02   5.0055083179e+01    0.2243812   0.06539229 -64.64 0.0007949878    2.891    0.654
        39  -7.7045    134.3519    104.3233   7.5621334939e+01   3.5340634491e+01    0.1653589    0.1234309   1.36 0.0007047895    1.755    0.430
        40 -13.1841      9.6434    207.1758   1.2445411677e+02   2.9050259831e+01     1.088334     0.861176 -13.87  0.003781448    2.110    0.526
        41  -8.2017    248.0047     93.3385   5.0721879294e+01   1.2566214962e+01    0.2014384    0.1110443  86.62 0.0007051754    4.431    0.774
        42 -11.7552     38.6460    203.3986   1.1830509490e+02   2.7025817644e+01    0.4906935    0.4735749  79.43  0.001559648    1.271    0.213
        43  -8.3477     41.9409     91.5481   1.0157865004e+02   5.3389533612e+01    0.1840569    0.1344494  17.15  0.001018134    1.565    0.361
        44 -13.1983     48.0864    193.0845   1.1530603761e+02   2.8256854462e+01     2.105284     1.355286  65.00  0.009172273    1.498    0.332
        45  -8.6564     50.7920     63.5919   9.0558031371e+01   5.8610763283e+01    0.2368934    0.1572012  41.48  0.001042419    1.863    0.463
        46 -10.2934     13.3674     60.0795   1.0511697849e+02   6.2767339512e+01    0.3228216    0.1819055 -63.85  0.001032689    1.651    0.394
        47 -10.7936    189.5014     51.8216   4.8849466085e+01   3.1724328700e+01    0.3779742    0.3211502 -70.56  0.002118028    1.196    0.164
        48 -14.4972      4.0396    153.5126   1.2195168714e+02   4.1457973955e+01     11.97042     1.271582 -75.87   0.02836577    8.475    0.882
        49 -11.3603    194.4958     44.3310   4.6094230830e+01   3.1563205948e+01    0.4624534    0.4082044  48.50  0.001284047    1.219    0.180
        50  -9.6499     59.7160    231.7023   1.1639530602e+02   1.8739758965e+01    0.2990758    0.1902858 -74.16 0.0005053958    1.593    0.372
        51  -8.9436    138.2414     44.2641   5.6042161210e+01   4.5212521632e+01    0.2532795    0.2350062 -87.15 0.0003500491    1.199    0.166
        52 -14.6328      8.5351    240.0231   1.2635152039e+02   2.2653159479e+01     2.934465     1.927244 -71.28   0.02142008    1.610    0.379
        53  -8.3925    142.0849     39.7239   5.3719993977e+01   4.4902818013e+01    0.2070185    0.1852198  88.47 0.0004905988    1.232    0.188
        54  -8.1895     60.2738    220.5388   1.1530664640e+02   2.0903689103e+01    0.1540225    0.1141489  26.24 0.0009410502    1.605    0.377
        55 -11.3734     85.6455    223.2677   1.1031138855e+02   1.7026918741e+01    0.9289436    0.4061272  56.95  0.001500468    2.686    0.628
