#   1 NUMBER                 Running object number                                     
#   2 MAG_AUTO               Kron-like elliptical aperture magnitude                    [mag]
#   3 X_IMAGE                Object position along x                                    [pixel]
#   4 Y_IMAGE                Object position along y                                    [pixel]
#   5 X_WORLD                Barycenter position along world x axis                     [deg]
#   6 Y_WORLD                Barycenter position along world y axis                     [deg]
#   7 A_WORLD                Profile RMS along major axis (world units)                 [deg]
#   8 B_WORLD                Profile RMS along minor axis (world units)                 [deg]
#   9 THETA_WORLD            Position angle (CCW/world-x)                               [deg]
#  10 FWHM_WORLD             FWHM assuming a gaussian core                              [deg]
#  11 ELONGATION             A_IMAGE/B_IMAGE                                           
#  12 ELLIPTICITY            1 - B_IMAGE/A_IMAGE                                       
         1 -12.6903    247.4012     25.8835   3.5785683986e+02   2.2201582919e+01    0.8640689    0.5242341 -42.56  0.005627314    1.393    0.282
         2 -11.3430    242.0047     22.9937   3.5765287582e+02   2.3541237388e+01    0.3292374    0.2708855 -18.05  0.001627158    1.709    0.415
         3  -9.7911      2.0239      2.2145   4.9517715679e+01   7.6192429573e+01    0.2008388    0.1400229 -26.08  0.001305323    1.255    0.203
         4  -9.7141    147.0184    242.9959   5.8445176500e+01   3.6654918706e+00    0.1950811    0.1634895  20.57 0.0004597454    1.039    0.037
         5  -9.3698     74.6332    250.1305   7.5087437107e+01   1.2289196545e+01    0.2735228    0.1388652 -43.90  0.001321452    2.824    0.646
         6  -9.3541     76.2275    244.7057   7.4240718265e+01   1.3118953447e+01    0.2959256    0.1261443 -53.10  0.001334497    2.777    0.640
         7 -14.8436     55.4447    234.2439   7.7937021751e+01   1.7812131276e+01     5.417606     2.365044 -48.40   0.02391666    3.138    0.681
         8 -15.4157      5.6879    135.9908   8.2124372463e+01   4.6291319679e+01     10.39014     1.846546 -78.07   0.02581675    6.478    0.846
         9 -10.4248     72.8392    232.8339   7.3857221451e+01   1.5916022940e+01    0.2382538     0.206371  56.19 0.0006473431    1.069    0.065
        10  -9.3503    185.2556    232.5089   4.8890624425e+01   3.9399127956e-02    0.3022155    0.1083754 -47.72  0.001216409    3.559    0.719
        11 -11.4493    126.4476    229.5719   6.1124751313e+01   9.0233698711e+00    0.4881559    0.3646605 -37.19  0.002800153    1.509    0.337
        12 -12.0435    133.1262    229.2352   5.9564030045e+01   8.0995322751e+00    0.5976083    0.3385886  19.95  0.002849335    1.858    0.462
        13 -11.9523    116.0899    228.5660   6.3360743099e+01   1.0739072854e+01    0.6524723     0.431108  49.76   0.00345018    1.576    0.365
        14 -11.9283     97.6475    223.9088   6.7070200961e+01   1.4348086714e+01    0.6924831     0.553498 -72.58   0.00170938    1.458    0.314
        15 -11.6274     88.9852    223.6992   6.9097294935e+01   1.5619630832e+01    0.8136476    0.5006651  67.79  0.003859593    2.130    0.531
        16 -10.7604     81.3608    220.8875   7.0587871087e+01   1.7269350460e+01    0.4010495    0.2907452  48.55  0.001031825    1.255    0.203
        17  -9.4077     90.2406    217.5610   6.8053605527e+01   1.6735357368e+01    0.2350724    0.1991173 -45.00 0.0006291472    1.344    0.256
        18 -11.3155    147.5454    228.4320   5.6226079839e+01   6.1114228956e+00     0.378639    0.2156098  40.51  0.001835626    1.684    0.406
        19 -10.4694     71.9694    225.2525   7.3292276814e+01   1.7605100558e+01    0.3625497     0.195059  37.08  0.001435038    1.584    0.369
        20 -10.8660    174.0321    223.7093   4.9776433354e+01   3.0448029991e+00    0.4242145    0.2295113   7.64  0.001827653    2.600    0.615
        21 -10.2090     75.6879    220.6190   7.1916027973e+01   1.8097441600e+01    0.3775103    0.2294377 -88.97  0.001768599    2.138    0.532
        22  -9.6307     67.1558    221.3183   7.4026416409e+01   1.9072644120e+01    0.1869847    0.1724718 -65.52 0.0003775527    1.225    0.183
        23  -8.7657    118.5077    221.4782   6.1828250421e+01   1.1771011369e+01     0.137268    0.1201814  29.61 -4.963643e-06    1.010    0.010
        24 -11.8704    107.3056    229.6752   6.5534613293e+01   1.1800142771e+01    0.7123003    0.3622489  48.62   0.00326666    2.046    0.511
        25  -9.7880     96.0602    211.1289   6.5803207646e+01   1.7273659945e+01    0.3781988    0.2005517 -68.98  0.001653153    2.379    0.580
        26  -9.3457    102.2419    211.0230   6.4269025806e+01   1.6376947100e+01    0.1777665    0.1761601  85.99  0.000333553    1.111    0.100
        27  -9.7461    210.9642    198.6627   3.8038007635e+01   1.8596979575e+00    0.2184087    0.1713545 -31.52 0.0004774868    1.253    0.202
        28 -11.5559     67.9167    191.6227   7.0449156632e+01   2.5738545942e+01    0.5078596    0.2906021  86.76  0.001840427    2.404    0.584
        29 -13.9002     18.8886    236.4557   8.6053720202e+01   2.1384216407e+01    0.6618256     0.421076 -68.70  0.004129968    1.700    0.412
        30 -17.1748      5.8122    218.6706   8.7929040659e+01   2.6357355160e+01     3.318244     1.687595  80.86   0.01185163    1.833    0.454
        31  -9.7514    192.1955    193.2006   4.0666640756e+01   5.5822649708e+00    0.3303585    0.1622489 -57.95   0.00109633    4.717    0.788
        32 -11.0621     74.4561    190.9430   6.8623463893e+01   2.5000259824e+01    0.3015496    0.2386246 -72.87 0.0007537079    1.317    0.241
        33 -14.9582     10.0741    206.3063   8.6305723424e+01   2.8717659601e+01    0.7717456    0.5879302  14.31    0.0035614    1.631    0.387
        34  -8.6966    207.5161    189.5143   3.6982556627e+01   3.8771824314e+00    0.1351601    0.1104507  -8.94 0.0004564101    1.050    0.047
        35  -9.5340    130.3203    185.3433   5.3167196540e+01   1.7441418522e+01    0.1544443    0.1122569 -10.65 0.0004546604    1.724    0.420
        36 -10.3015     63.9335    182.5918   7.0354682238e+01   2.8464194991e+01    0.4079549    0.2806969  84.36  0.001189385    1.662    0.398
        37  -9.5825     60.2819    179.3156   7.0931847864e+01   2.9754548584e+01    0.2634153    0.1807189 -47.04  0.000272602    1.597    0.374
        38  -9.8300    116.0297    181.4944   5.6118309216e+01   2.0737045534e+01     0.218786    0.2041423 -48.86  0.000494506    1.128    0.114
        39  -9.5158    100.0187    181.1103   6.0287345017e+01   2.3477432776e+01    0.2156006    0.2035072  36.17 0.0002959631    1.011    0.011
        40  -9.4903    174.7153    180.0417   4.1782779675e+01   1.0857162335e+01     0.204133    0.1768704 -22.61 0.0006131232    1.092    0.084
        41 -10.2903    172.1710    175.6201   4.1457312977e+01   1.2155075033e+01    0.3667046    0.2830181  28.03  0.001251451    1.271    0.213
        42 -10.8770    173.8141    171.3513   4.0237013654e+01   1.2704018218e+01    0.3161664    0.2888613  68.10  0.001563968    1.409    0.290
        43 -11.0533    180.0500    166.9929   3.8007865716e+01   1.2449889109e+01    0.6411893    0.3638292 -55.77  0.002686125    2.355    0.575
        44  -9.3234     81.0089    180.1328   6.5306243664e+01   2.6662001250e+01     0.204883    0.1980498  51.32 0.0004057989    1.023    0.023
        45 -10.1900    104.3252    171.1645   5.7387542485e+01   2.5131350787e+01    0.4221165    0.2511179 -72.60  0.001680648    2.316    0.568
        46  -9.5618    101.7249    167.0061   5.7343622867e+01   2.6569954464e+01    0.2285525    0.2023502  70.10 0.0003040759    1.231    0.188
        47  -9.8285     79.5205    169.4580   6.4048070157e+01   2.9516811669e+01    0.4026502      0.25488  85.79  0.001332538    2.247    0.555
        48 -11.4100     90.3676    165.5646   6.0284347981e+01   2.8796792202e+01    0.7607433    0.3537859  50.54 0.0009013645    2.579    0.612
        49  -8.9358     86.5000    168.5526   6.1906098991e+01   2.8671369079e+01    0.1477571     0.143112  49.57 4.078223e-05    1.006    0.006
        50  -9.4752    110.7736    167.0766   5.4865526463e+01   2.4999473840e+01    0.2276824    0.2056382  73.58 0.0005464352    1.229    0.186
        51 -11.5125     83.0489    154.2968   6.0378710423e+01   3.2786246137e+01     0.869336    0.5451609 -76.62  0.003526527    2.012    0.503
        52 -11.2357     66.7513    125.9946   5.9951830919e+01   4.2531549840e+01     1.165312    0.5266969 -67.66  0.004042062    2.758    0.637
        53 -10.5573     76.1705    133.9315   5.8503689015e+01   3.9061264143e+01    0.8181854     0.272258 -49.73  0.002650633    2.868    0.651
        54 -11.6315     56.1332    141.4236   6.6458819063e+01   4.0007171357e+01    0.9454746    0.6563689 -54.13  0.002339093    1.378    0.274
        55 -10.4511     60.0124    121.2502   6.1266659559e+01   4.4715584684e+01    0.2581814    0.2378029 -54.32 0.0002298069    1.041    0.039
        56 -12.3221     57.3260    125.4269   6.3067038122e+01   4.4008741995e+01     1.553806     0.718796 -76.86  0.002103662    3.565    0.719
        57 -11.9621     76.9915    150.4879   6.1506709184e+01   3.4698986484e+01     1.356214    0.4527328 -53.01 0.0009206552    2.807    0.644
        58 -11.5007     62.4767    162.0358   6.7848270881e+01   3.3827668008e+01    0.4900113    0.3656064  -2.48  0.001322503    1.729    0.422
        59 -11.9607     67.8678    157.8230   6.5563743719e+01   3.4163604581e+01    0.6420326    0.5493286  28.94  0.003424304    1.202    0.168
        60 -12.9663     70.2916    145.0923   6.2588120013e+01   3.7091094404e+01    0.9809862    0.6823782  75.76  0.003889047    1.860    0.462
        61 -12.6086     64.4960    145.7151   6.4532311105e+01   3.7761859623e+01    0.5794798    0.4617124 -40.59 0.0008421757    1.316    0.240
        62 -11.0214    238.4917    161.5184   2.6201944220e+01   3.8796179063e+00    0.2530322    0.1820476 -13.10  0.001078956    1.369    0.269
        63 -11.1903     94.3865    158.1934   5.7773459628e+01   2.9962405074e+01    0.4581573    0.3249204  76.69 0.0004158112    1.926    0.481
        64 -10.9142     92.3405    154.7111   5.7701773826e+01   3.1169774188e+01    0.3913008    0.2832722  68.77 0.0009386131    1.744    0.427
        65  -9.8263    126.6764    157.1408   4.8594197329e+01   2.4448711709e+01    0.3677827    0.2658683 -73.08  0.001180691    1.851    0.460
        66 -11.2334     44.5741    157.0636   7.2508961298e+01   3.7344009290e+01    0.4609292    0.2661231  63.75  0.001789456    2.077    0.518
        67 -10.1039     30.4878    153.5199   7.6336910727e+01   3.9756724748e+01    0.4415975    0.2444528  29.82   0.00135109    1.856    0.461
        68 -10.3725    134.0000    148.0182   4.4697042699e+01   2.5135313215e+01    0.4839767    0.2445735 -54.55  0.001815609    2.222    0.550
        69 -10.5232    134.0000    144.0038   4.3792026251e+01   2.6044933081e+01     0.976524    0.3118776 -55.86   0.00241422    5.199    0.808
        70  -8.8376    122.9692    149.8742   4.8028746410e+01   2.6835789873e+01    0.2427929    0.1914503  78.65 0.0008129497    1.693    0.409
        71  -8.9363    129.4362    163.0147   4.9090932539e+01   2.2589158692e+01    0.2246063      0.15049 -51.05 0.0004998536    1.544    0.352
        72  -9.3070     44.6628    149.6885   7.1440110156e+01   3.9250941530e+01    0.2336869    0.1927154  65.27 0.0002738884    1.245    0.197
        73  -8.8042    115.0401    148.2548   4.9854989812e+01   2.8715006904e+01     0.205988     0.196089  30.41 0.0002267415    1.037    0.036
        74 -11.6244     83.6162    145.7492   5.8565566991e+01   3.4861126198e+01    0.7359358    0.5087785 -24.64 0.0008537886    1.870    0.465
        75 -10.3120     82.4420    141.2238   5.8018073916e+01   3.6199978584e+01    0.2951383    0.2574821  54.09 0.0004794612    1.192    0.161
        76 -10.5246    109.0127    145.3273   5.0922842842e+01   3.0539500376e+01    0.3003505    0.2887409  32.70 0.0006788153    1.032    0.031
        77 -10.3902     36.8334    142.3639   7.2870259602e+01   4.2023024826e+01    0.2948603    0.2200878 -82.18 0.0008931961    1.318    0.241
        78  -8.9090     27.6392    142.5661   7.5856882368e+01   4.2875323339e+01    0.2509675    0.1420966  13.18  0.001141652    2.140    0.533
        79  -9.7684     67.5540    241.4091   7.5856300562e+01   1.4869354968e+01    0.2190214    0.1730448 -75.15 0.0008931937    1.423    0.297
        80 -15.6381     38.8621    181.4221   7.7071565129e+01   3.1799181138e+01      5.60864     4.458749 -84.14   0.02903657    1.193    0.161
        81  -9.1105     37.7766    137.1222   7.1784130121e+01   4.3296387106e+01    0.3045852    0.1381993  52.10  0.001142596    2.757    0.637
        82 -10.6932    100.9987    133.0013   5.0513014388e+01   3.5019513273e+01     0.710916    0.4305517   1.51   0.00232415    3.398    0.706
        83 -10.8143    105.5835    130.7437   4.8611750623e+01   3.4705625798e+01    0.5375898    0.4427907 -55.47  0.002616302    1.242    0.195
        84  -9.6552    185.2263    240.1120   5.0088767503e+01  -1.1259560278e+00    0.2457275    0.1575236 -44.43 0.0009313973    1.878    0.468
        85  -9.1590    241.2986    133.6927   2.0252579368e+01   7.9127564551e+00    0.1219949   0.09046867 -58.21 0.0001822218    1.593    0.372
        86 -11.5707     86.7959    132.1857   5.4720127500e+01   3.7754942873e+01    0.3038662    0.2787333 -40.30 0.0004004619    1.087    0.080
        87 -10.0011     44.0206    130.6629   6.8630944768e+01   4.4301290300e+01    0.3439425    0.2007333 -63.86  0.001558267    1.593    0.372
        88  -9.2408     37.0014    129.7852   7.0890004098e+01   4.5298294779e+01    0.2714932    0.1937769  44.60 0.0004580196    1.493    0.330
        89 -10.1949     33.7363    127.5678   7.1658964121e+01   4.6210595300e+01    0.2666813    0.2060972  48.13 0.0005319153    1.391    0.281
        90 -10.0689     35.0152    124.2236   7.0662507111e+01   4.6954532498e+01    0.2737018    0.2059219 -46.23 0.0003405665    1.282    0.220
        91  -9.4662    110.1728    126.1418   4.6145837067e+01   3.4915357148e+01    0.2765424    0.2155931  20.63  0.001275881    1.423    0.297
        92 -10.1175    134.2131    122.5781   3.8591358635e+01   3.0800839637e+01    0.4015606    0.3178168  81.26  0.001375361    1.683    0.406
        93 -10.6771     46.1106    121.9305   6.6316864816e+01   4.6332505971e+01    0.4483298    0.2943231  57.52  0.002055969    1.847    0.459
        94  -9.5674    116.1982    121.9556   4.3355761783e+01   3.4687805369e+01    0.2698756     0.181898 -19.90  0.001076757    2.050    0.512
        95  -9.8172     97.1221    121.3258   4.8911028796e+01   3.8576143299e+01    0.2783996    0.2408563 -19.79  0.000784486    1.246    0.197
        96  -9.6778    106.9291    116.2815   4.4621821322e+01   3.7872145824e+01    0.2792186    0.2294943 -59.12 0.0004851657    1.296    0.228
        97  -8.6083    141.3350    115.7078   3.5021654076e+01   3.0757817393e+01    0.2151187    0.1586839 -59.31 0.0007159503    1.532    0.347
        98 -10.0591    138.4361    111.6928   3.4698472337e+01   3.2239539571e+01    0.4536859    0.2205411 -52.00    0.0014179    2.321    0.569
        99  -9.4008     24.3949    116.1936   7.3155449395e+01   5.0030504204e+01    0.2213964    0.1882181  26.10 0.0001055441    1.294    0.227
       100 -10.1385    244.5315    114.7554   1.5975240674e+01   1.0388534471e+01    0.2459743    0.1504986  86.35  0.001093823    3.518    0.716
       101 -10.4228     52.8937    110.0374   6.1380307258e+01   4.8534467289e+01    0.4103835    0.2886994 -70.85  0.001840196    1.542    0.352
       102 -10.4278     51.9958    103.8076   6.0279551296e+01   5.0214343906e+01    0.3074364    0.2214104 -66.89  0.001066896    1.463    0.317
       103 -10.4732     33.8215    110.5036   6.8642334846e+01   5.0623140495e+01    0.4251049    0.2391818  50.36  0.001786832    2.187    0.543
       104  -9.7005     28.6927    108.0747   7.0138313401e+01   5.1736903442e+01    0.2450673    0.1968541  38.42 0.0003378374    1.370    0.270
       105 -11.0130     23.7864    104.7056   7.1416811825e+01   5.3026680534e+01    0.3803087    0.3053178  32.30   0.00139099    1.375    0.273
       106 -10.6485    114.0764    104.1328   3.9238092049e+01   3.9147653623e+01    0.3506631     0.241833 -57.41 0.0006199175    1.635    0.388
       107  -9.1023     19.8397    108.3301   7.3568317661e+01   5.2422331663e+01    0.2107389    0.1605396  48.61 0.0008467165    1.488    0.328
       108 -10.0505    133.8796    104.6844   3.3977777550e+01   3.4715160301e+01    0.5128571    0.2806004 -68.20  0.001501157    4.206    0.762
       109  -9.2155     46.4037    103.8271   6.2429354668e+01   5.0919486423e+01    0.2288921     0.191745  44.42  0.001225492    1.314    0.239
       110  -9.6166    110.8493     99.7888   3.8961207755e+01   4.0779850453e+01    0.2887686    0.2091056 -75.86  0.001214082    1.996    0.499
       111  -8.2477     88.2880    100.6824   4.6341964842e+01   4.5116708086e+01    0.1514451     0.124416  83.01 0.0003066262    1.593    0.372
       112 -12.0250     45.7951     94.7918   6.0518948261e+01   5.3227138674e+01    0.4522671    0.3906728  54.93  0.001686911    1.350    0.259
       113 -10.9248     50.8804     89.8682   5.7194639073e+01   5.3754490887e+01     0.387958    0.2415257  44.39  0.001593764    1.842    0.457
       114  -8.5231    145.4165     93.1816   2.7989883044e+01   3.4405616677e+01    0.2092015    0.1406917 -52.17 0.0004490679    1.581    0.367
       115  -8.5332     77.4359     90.5397   4.7200978373e+01   4.9420060667e+01    0.1488505    0.1445865 -11.65 6.891269e-05    1.039    0.038
       116 -10.3531     24.9831     86.6306   6.7259438946e+01   5.7420152690e+01    0.2739253    0.1832316 -61.36 0.0004950211    1.386    0.278
       117  -8.8200     89.7696     87.0278   4.1839526074e+01   4.7869796334e+01    0.2034795    0.1901837 -35.87 0.0003565179    1.081    0.075
       118  -9.3194     73.3827     86.9784   4.7620074862e+01   5.0933998700e+01    0.2299242     0.206157  52.24 0.0006588462    1.245    0.197
       119 -10.0559    116.5718     79.2933   3.1204114003e+01   4.3702588219e+01    0.3290973    0.2458871 -78.92  0.000999068    1.898    0.473
       120  -8.8477     44.5134     79.4957   5.6961555997e+01   5.7008648176e+01    0.1395528    0.1318873 -27.22 0.0007951168    1.075    0.070
       121  -8.8290    133.1855     78.1779   2.6562132172e+01   4.0059731736e+01    0.2101997    0.1763607 -76.19 0.0005318774    1.375    0.273
       122  -9.5671     60.0230     77.3605   4.9831727366e+01   5.5276746065e+01    0.2359551    0.2084777 -60.58  0.001291079    1.288    0.223
       123  -9.2884     28.5385     77.9904   6.3596022604e+01   5.9151344320e+01    0.1954409    0.1724996  -9.90 0.0003274723    1.117    0.105
       124  -9.1982     39.2062     76.4051   5.8388124054e+01   5.8367760422e+01    0.1916262    0.1248002  36.74 0.0009425145    1.678    0.404
       125  -8.9360    144.1294     71.7760   2.2160291305e+01   3.8582803959e+01    0.2942726    0.1673868 -61.86  0.001125264    2.526    0.604
       126 -10.0907     30.3438     71.0627   6.0882888270e+01   6.0564039053e+01    0.3359179    0.2089652 -62.29   0.00166374    1.699    0.412
       127 -11.9863      7.8223     61.2102   6.9225084215e+01   6.4638558789e+01    0.5146847    0.2278305 -59.67  0.002436824    1.931    0.482
       128 -11.5712     13.2639     60.1369   6.6156514789e+01   6.4512911736e+01    0.3686413     0.231132 -30.79 0.0007766293    1.451    0.311
       129 -12.8081    207.4165     53.8872   7.3063322299e+00   2.6676684867e+01    0.8754164    0.7539574 -50.27  0.003134524    1.112    0.101
       130 -13.4483    217.4644     46.6319   4.5844462266e+00   2.5531188715e+01    0.9084984    0.6867602  45.62  0.001250394    1.735    0.423
       131 -11.7057    194.9636     61.9374   1.0771856489e+01   2.8252456702e+01    0.4986443    0.3603273  51.61 0.0008387487    1.539    0.350
       132 -10.0924     20.9515     52.6722   5.9887906100e+01   6.5481261128e+01    0.2226965    0.1781337 -50.65 0.0003622387    1.269    0.212
       133  -9.0162    108.4632    239.9604   6.6537820526e+01   9.6632711506e+00    0.1758572    0.1309679 -58.96   0.00103357    1.601    0.375
       134 -10.4871    103.4255    238.3330   6.7479339175e+01   1.0676655469e+01    0.3429711    0.2145601 -42.38  0.001174755    1.943    0.485
       135 -11.1830     22.6960     33.6601   5.1738242872e+01   6.8991271462e+01    0.3308815    0.2190901  20.40 0.0009500544    1.444    0.307
       136 -13.5175     44.0845    242.3967   8.1065949517e+01   1.7491932063e+01     1.074574    0.7841153  64.99  0.004405841    1.232    0.188
       137 -10.1672     83.0029    245.6685   7.2838519630e+01   1.2052062451e+01    0.1928804     0.177033  89.39 0.0002845588    1.239    0.193
       138 -10.0711      2.3947     22.9397   5.9825637546e+01   7.2783212366e+01    0.2565926   0.09966905 -52.29  0.000869116    2.366    0.577
       139  -9.4486     60.8785     21.1607   2.7261445980e+01   6.4844313097e+01    0.1883601    0.1695595  46.60  0.000584621    1.246    0.198
       140 -10.1643     33.8244     15.8729   3.6902526407e+01   7.0291538339e+01    0.1942417    0.1445156   8.66 0.0005084275    1.167    0.143
       141  -8.5822    189.5863     14.8223   3.5992143664e+02   3.5363631574e+01    0.1717357   0.09734315 -47.18 0.0008007855    1.622    0.383
