#   1 NUMBER                 Running object number                                     
#   2 MAG_AUTO               Kron-like elliptical aperture magnitude                    [mag]
#   3 X_IMAGE                Object position along x                                    [pixel]
#   4 Y_IMAGE                Object position along y                                    [pixel]
#   5 X_WORLD                Barycenter position along world x axis                     [deg]
#   6 Y_WORLD                Barycenter position along world y axis                     [deg]
#   7 A_WORLD                Profile RMS along major axis (world units)                 [deg]
#   8 B_WORLD                Profile RMS along minor axis (world units)                 [deg]
#   9 THETA_WORLD            Position angle (CCW/world-x)                               [deg]
#  10 FWHM_WORLD             FWHM assuming a gaussian core                              [deg]
#  11 ELONGATION             A_IMAGE/B_IMAGE                                           
#  12 ELLIPTICITY            1 - B_IMAGE/A_IMAGE                                       
         1 -13.5407    235.6457      7.9136   3.5254307752e+02   2.5477052028e+01    0.9537693    0.3979789 -40.21   0.00488594    1.770    0.435
         2 -12.2451    249.5124      9.9951   3.5234338694e+02   2.2620595580e+01    0.5183606    0.3667482 -44.32  0.003424473    1.109    0.099
         3 -12.3936    241.7962      9.1507   3.5251891165e+02   2.4158123272e+01    0.4598005    0.1975677 -37.55  0.001365365    1.745    0.427
         4 -12.6833    243.3671      3.2991   3.5120947364e+02   2.4432874464e+01    0.6108495    0.3186406  85.54  0.003027203    1.982    0.496
         5 -11.3963      1.9453     22.7237   6.5270474150e+01   7.5107890691e+01      0.68086    0.2762109 -34.22  0.002473808    2.374    0.579
         6 -11.8571     14.5966     18.4915   5.2492322290e+01   7.5020531840e+01    0.3641414    0.2675025   0.74 0.0007258934    1.334    0.250
         7 -11.2356      8.8591     15.8081   5.6056083731e+01   7.6102283391e+01    0.3843494    0.2606272 -50.56  0.001527769    1.387    0.279
         8 -12.6941     10.5768     10.8633   5.1680952915e+01   7.6919877823e+01    0.6161715    0.4538496  12.33   0.00309705    1.302    0.232
         9 -11.7673      3.4578     10.5881   5.8406163470e+01   7.7588046416e+01    0.4421833     0.216096 -40.30  0.001801859    1.786    0.440
        10 -13.2266    249.4371     20.1532   3.5446462870e+02   2.1590796350e+01    0.8306952    0.3008285 -46.36  0.004289737    1.998    0.500
        11 -10.6848     69.2799     20.7605   2.1326666393e+01   6.5002054649e+01    0.4615254    0.2598581 -49.05  0.002004205    2.254    0.556
        12 -12.9136     28.6215     19.9714   4.2498813845e+01   7.2992302681e+01    0.3079381    0.2547782  15.52 0.0004921952    1.135    0.119
        13 -12.1722    216.8525     15.9882   3.5543111098e+02   2.8511767500e+01    0.6003878    0.2035159  61.45    0.0023792    3.161    0.684
        14 -12.8556     65.3216     11.6505   1.7779783034e+01   6.7078739808e+01    0.2759166    0.2514924  32.92 0.0004838754    1.032    0.031
        15 -10.2907     26.8259     13.1520   3.9578663167e+01   7.4459448434e+01    0.1816011    0.1686424  -2.94 0.0004798311    1.135    0.119
        16 -11.6742     76.0406     10.3501   1.3382933642e+01   6.4647021590e+01    0.3824129    0.3020338  33.49  0.001503005    1.257    0.204
        17 -10.0018     90.2070      9.4640   9.0319669051e+00   6.1148480683e+01    0.2076938    0.1784396 -61.06 0.0003461805    1.283    0.220
        18 -11.6674    155.3041      8.5778   3.5835054189e+02   4.3947898372e+01    0.4363873    0.2123171  74.83  0.001961284    1.870    0.465
        19  -9.3051    202.5448      8.4824   3.5450821465e+02   3.2425834921e+01    0.1270078    0.1046004 -62.33 9.057537e-05    1.015    0.015
        20 -10.7720    177.9957     12.0348   3.5727584711e+02   3.7866704131e+01    0.2048139    0.1772942 -72.98 0.0003478593    1.025    0.024
        21 -11.4307     82.1150      6.9221   9.8144258914e+00   6.3471807131e+01     0.215726    0.1887885  58.41 0.0002972037    1.023    0.023
        22 -11.1270    223.1088      4.9138   3.5248640501e+02   2.8312273364e+01    0.2618715    0.1519391 -29.59 0.0004419448    1.631    0.387
        23  -9.7287     36.0389      6.1708   2.8444178585e+01   7.3968923863e+01    0.2315652    0.1327644  22.99  0.001085349    2.065    0.516
        24 -11.7903    179.2057      3.6072   3.5479893253e+02   3.8385046440e+01    0.3805659    0.2181031  62.49 0.0004710462    1.790    0.441
        25 -10.3720    164.4793      4.8695   3.5633223739e+02   4.1937576274e+01    0.1863457    0.1271119 -30.99 0.0005863016    1.508    0.337
        26  -9.6611     68.2311      5.4249   1.3128622973e+01   6.7061845106e+01    0.1807781    0.1262762  70.67 0.0004551871    1.479    0.324
        27 -10.3760     58.4660      4.8265   1.6309988185e+01   6.9424393398e+01    0.2532973     0.198814  89.46 0.0005718818    1.655    0.396
        28 -10.9152      4.6859      3.0587   5.2519436651e+01   7.8948581516e+01    0.4920604    0.2308039 -19.55    0.0021483    2.864    0.651
        29  -9.5556     28.3752      3.9146   3.1884950851e+01   7.5650002338e+01    0.1899256    0.1554824 -43.75  0.001155993    1.496    0.332
        30 -11.0748     18.5613      2.3132   3.8390055116e+01   7.7435507220e+01    0.4236094    0.2349215  44.29  0.002169445    2.075    0.518
        31 -10.2190     97.1662      2.9803   4.4037191452e+00   5.9916810495e+01    0.2099628    0.1850577  60.20 0.0005740082    1.046    0.044
        32 -10.0673    168.5151      2.0516   3.5515563055e+02   4.1173270354e+01    0.1846974    0.1243643 -31.44 0.0003989704    1.512    0.339
        33  -9.5201     91.1979      1.9128   5.1115642832e+00   6.1573494296e+01    0.1862669    0.1435221  43.61 0.0004517225    1.264    0.209
        34 -10.3559     32.7979      1.5143   2.7013114496e+01   7.5182738246e+01    0.2114682    0.1425892  47.63 0.0006120932    1.472    0.321
        35  -9.6795    121.8112      1.3448   3.5969682101e+02   5.3467379812e+01    0.1948704    0.1092761  64.72 0.0001340551    1.558    0.358
        36  -9.8644     73.4727      1.3146   9.1490330217e+00   6.6156804478e+01    0.2459481    0.1145671  65.30  0.001059225    1.937    0.484
        37  -9.3880    104.6692    223.6942   6.1551703379e+01   1.4822150797e+01    0.1240494   0.09091329   0.89  0.000703812    1.659    0.397
        38 -12.0852    237.7943    228.7289   3.6384980244e+01  -2.9389255944e+00    0.5113208    0.2448009   3.58  0.002821462    2.458    0.593
        39 -13.4152    218.7243    238.6228   4.0917292927e+01  -1.9713366494e+00     1.575217    0.6371403  12.70  0.006887435    3.761    0.734
        40 -12.0117    231.5175    235.2018   3.8334777174e+01  -2.9756812435e+00     0.406821    0.2468151  -7.27  0.002881395    1.367    0.269
        41 -12.9366    247.7529    246.8223   3.7481339589e+01  -5.7996871820e+00    0.9815543    0.4465807  26.18  0.006622218    1.860    0.462
        42 -13.5818    245.9426    236.9980   3.6350407232e+01  -4.6447824482e+00     1.862909    0.6841463  37.19   0.01011804    3.252    0.693
        43 -12.4589    197.3306    244.3443   4.5396265545e+01  -2.1874826618e-01    0.6462534    0.3268913   9.10  0.003620209    2.126    0.530
        44 -12.5899    182.5325    249.9055   4.8800290968e+01   8.3874310308e-01    0.7005281    0.2427185  29.67  0.003539991    2.274    0.560
        45 -12.2871    188.1720    246.0323   4.7264989609e+01   6.4529893181e-01    0.3915226    0.2304601  14.68  0.001714609    1.406    0.289
        46 -10.4001    160.1988    249.7469   5.2978438181e+01   3.5438636503e+00    0.1628321    0.1071166  10.18 0.0009144188    1.368    0.269
        47 -10.7262    149.7840    250.3777   5.5081859196e+01   4.7456850459e+00     0.172289   0.08558443  22.87 0.0009489324    1.700    0.412
        48 -11.1583    121.3325    250.4167   6.0814246059e+01   8.3039232737e+00    0.3482021    0.1379203  21.25  0.001024918    2.946    0.661
        49  -9.8764    102.7612    250.6245   6.4687410520e+01   1.0591847367e+01    0.1757704   0.07939798  37.64 0.0007267538    1.645    0.392
        50 -11.7442     73.8565    249.6822   7.0705975338e+01   1.4242685369e+01    0.4473997    0.1998136  31.26  0.002412605    1.693    0.409
        51 -11.8126     72.5086    244.4983   7.0611630830e+01   1.5275114988e+01    0.3561791    0.1863571  30.35   0.00168114    1.508    0.337
        52 -13.5129     74.4025    239.7733   6.9838330506e+01   1.5864682954e+01    0.8349799    0.4403886  37.33  0.003967554    1.410    0.291
        53 -11.7182      4.5458    243.6992   8.4931965386e+01   2.2474319911e+01    0.3641531    0.1604095  26.01  0.001104077    2.021    0.505
        54 -12.9612     21.8347    248.7432   8.1555710920e+01   1.9995175546e+01     1.064641    0.1947827  31.00  0.004473182    3.236    0.691
        55 -11.6057     11.7825    249.2687   8.3612811929e+01   2.0842990252e+01    0.4004453    0.1267894  44.72  0.002166041    1.961    0.490
        56 -11.4737     18.6560    241.9432   8.1976620039e+01   2.1509009070e+01    0.4069339    0.1772291  30.35  0.001966653    1.814    0.449
        57 -13.1358     10.4179    237.1193   8.3548155428e+01   2.3151436383e+01    0.7705042    0.3374942  44.38  0.004535167    1.568    0.362
        58 -12.9064     26.4763    242.4865   8.0356087909e+01   2.0655937244e+01     1.158393          nan  44.48   0.00394169    4.686    0.787
        59 -13.5939     31.8616    235.7877   7.8912749373e+01   2.1342239977e+01     1.361752    0.4026549  53.84  0.006057011    2.854    0.650
        60  -9.3950    207.4826    222.4892   4.0457557103e+01   1.2322710475e+00    0.1174134   0.08523252   4.56 0.0003073263    1.064    0.060
        61 -13.7390    226.0513    244.5049   4.0547400714e+01  -3.3965890339e+00     1.396552    0.5616714  18.01  0.007490212    2.518    0.603
        62 -10.1275     42.1668    220.6318   7.5778868615e+01   2.3165724153e+01    0.1675817    0.1040024  20.82 0.0006103527    1.679    0.405
        63  -9.7306    233.4090    218.8350   3.5567621585e+01  -1.3572931326e+00    0.1488457   0.08086059 -17.79 0.0005677685    1.648    0.393
        64  -9.5209    183.6523    219.6741   4.4378413655e+01   4.6209094872e+00    0.1272964   0.07769265   2.16 0.0007049637    1.750    0.429
        65 -12.6420    219.6002    245.8744   4.1794716164e+01  -2.8619700617e+00    0.6982712    0.3544804  11.61  0.004356795    1.788    0.441
        66 -10.5628    115.9949    241.2530   6.0971660593e+01   1.0385278559e+01    0.1763041    0.1323612  29.03  0.001168425    1.026    0.025
        67  -9.3874     56.0197    216.9577   7.2267235120e+01   2.2327503054e+01    0.1455538    0.1183468  48.44 0.0009400707    1.034    0.033
        68  -9.6345     51.4613    217.5077   7.3389171695e+01   2.2747559148e+01    0.1270848    0.1000567  46.71 0.0001607648    1.010    0.010
        69  -9.4386     38.5219    217.5287   7.6442802774e+01   2.4178466862e+01    0.1244007   0.09794549  48.08 0.0002036013    1.011    0.011
        70 -10.2219      9.6935    217.0345   8.3082010316e+01   2.7091431401e+01    0.2407243    0.1068549  48.04  0.001320372    1.650    0.394
        71  -9.7805    204.7665    216.4649   4.0009679272e+01   2.3321176744e+00    0.1604124   0.08972032  17.95 0.0006041849    1.622    0.383
        72 -10.1645     23.8736    216.0959   7.9790177702e+01   2.5965559008e+01     0.187319    0.1199313  52.74 0.0002945207    1.231    0.187
        73 -11.8393    218.7966    208.2014   3.6273001928e+01   1.6405099386e+00    0.7490282    0.3543142 -12.51  0.003533815    2.925    0.658
        74 -10.1117    225.9581    205.0171   3.4566973261e+01   1.1617895276e+00    0.2418376    0.1337618  17.08  0.001440575    1.723    0.419
        75 -10.4830    229.4909    204.4436   3.3899879699e+01   8.0560458324e-01    0.1816012     0.121842 -10.79 0.0008875809    1.229    0.186
        76  -9.6178    106.5374    211.0142   5.9644639755e+01   1.6870706718e+01    0.1731263    0.1319861 -56.92  0.001025395    1.578    0.366
        77 -10.3222      5.0074    210.5079   8.3944806985e+01   2.8824243513e+01    0.2026228    0.1482933 -71.27 0.0005870346    1.594    0.372
        78 -10.5706     11.1003    208.9600   8.2475984545e+01   2.8619639313e+01    0.2553875     0.192631  59.23  0.001079662    1.064    0.060
        79  -9.1524    180.2987    215.3330   4.4364250290e+01   5.6781131322e+00    0.1252242   0.08004026  -0.31 0.0004388972    1.648    0.393
        80 -10.5825      3.5158    205.3873   8.4136224254e+01   3.0013134050e+01    0.3400994    0.2074715 -48.93  0.001943522    2.316    0.568
        81  -9.6461    247.6382    205.4903   3.1255406962e+01  -1.4135872669e+00    0.1839086   0.08345021 -30.24  0.001089725    1.909    0.476
        82 -10.0516    237.2018    196.5701   3.1375148122e+01   8.4474881224e-01    0.2025253     0.123841 -18.30 0.0009013422    1.376    0.273
        83 -11.4265    234.6547    205.1883   3.3198649073e+01   1.0220422156e-01    0.4133529    0.1412827 -25.32  0.001828859    3.322    0.699
        84 -10.9570    238.4008    201.0215   3.1929748308e+01   1.6298115246e-01    0.3609036    0.1504849 -28.48   0.00157903    2.141    0.533
        85  -8.9671    123.9757    205.9999   5.4932548986e+01   1.5268082749e+01    0.1548806    0.1262038  28.62 0.0009330443    1.029    0.028
        86  -9.4548    206.3869    204.8559   3.7870650709e+01   3.6532487912e+00    0.1657311   0.09427021 -21.76 0.0009429477    1.722    0.419
        87  -9.4443    250.4593    199.7552   2.9902610532e+01  -1.0695821849e+00    0.1517203   0.08003116 -18.70 0.0009375107    1.629    0.386
        88 -10.1891    230.4410    198.9792   3.2843979919e+01   1.3663028451e+00    0.2199502     0.128445  10.91  0.001108894    1.679    0.404
        89  -9.0542    132.7016    199.2866   5.1964472089e+01   1.5178508943e+01    0.1276618    0.0966409  54.38 0.0001628891    1.552    0.356
        90  -9.6703    177.5000    198.0243   4.2162757873e+01   8.6427703958e+00    0.1771903    0.1199559 -37.47  0.001025693    1.583    0.368
        91  -9.4958     50.7598    197.5773   7.2026591801e+01   2.6987205969e+01    0.2016845   0.09434857  40.22 0.0009548012    1.711    0.416
        92  -9.6516    209.6161    193.1394   3.5338824138e+01   4.8178429386e+00    0.1552297   0.09618067 -19.75 0.0002205851    1.517    0.341
        93 -11.2790     15.5551    192.2351   8.0691585230e+01   3.1823285646e+01    0.3127925    0.2590849  31.95  0.001182921    1.241    0.194
        94 -10.3565     62.0070    184.8575   6.7874985625e+01   2.8431145428e+01    0.2226306    0.1953852  88.55 0.0007439682    1.193    0.162
        95 -10.6479     15.6761    181.9730   8.0153724971e+01   3.4136604758e+01    0.3917588    0.1788315  56.04  0.001895602    1.893    0.472
        96  -9.1850     23.5339    180.6055   7.7967452120e+01   3.3733751561e+01    0.1329414    0.1043224  55.28 -7.674272e-06    1.064    0.060
        97  -9.4788      7.5015    163.4767   8.1471678663e+01   3.9186611480e+01    0.1299329    0.1089852  65.60  8.51493e-05    1.007    0.006
        98 -10.8674    117.7600    159.4154   4.9028399781e+01   2.5606113419e+01    0.4285053     0.234775 -45.63  0.001849926    1.970    0.492
        99 -11.7488     17.4705    159.8820   7.8355660063e+01   3.9257484595e+01    0.3153113    0.2875414 -77.34  0.001334897    1.188    0.158
       100 -10.1612     55.4614    158.4922   6.6748715141e+01   3.5535902901e+01    0.2901427    0.1742437 -40.19  0.001286704    2.169    0.539
       101  -9.6743      2.9471    157.0295   8.2484262403e+01   4.1089296850e+01    0.1916866    0.1433371 -41.63 0.0007792898    1.668    0.400
       102  -9.1131    221.3575    150.6792   2.5502580499e+01   9.1803527391e+00    0.1156489   0.09806198 -63.17 0.0007044913    1.763    0.433
       103  -9.5484     13.7129    148.0287   7.8704663359e+01   4.2532012013e+01    0.1819973    0.1487963  86.09 0.0002286857    1.111    0.100
       104  -9.6668    234.1145    146.8387   2.2802866979e+01   7.8040622079e+00    0.1695072    0.1202781 -12.39 0.0005016804    1.301    0.231
       105  -9.3482     17.4365    142.9626   7.7143872676e+01   4.3522503069e+01    0.2040547   0.08930776  69.69 0.0008061053    2.495    0.599
       106 -10.4155    239.6475    140.9194   2.0850265939e+01   7.8070033957e+00    0.1725962    0.1266275 -27.23  0.000480298    1.126    0.112
       107  -9.1872    189.2930    140.3002   2.8880011730e+01   1.6173820032e+01    0.1368107    0.1001427  -0.11 0.0003376241    1.568    0.362
       108  -9.3338    207.9667    136.0280   2.4678100529e+01   1.3576959547e+01    0.1552911    0.1368989 -13.67 0.0003408662    1.019    0.018
       109 -11.5440     37.6121    135.2862   6.9624741624e+01   4.3596361956e+01    0.2512906    0.2228028  67.00 0.0003240576    1.044    0.043
       110 -10.1524     36.4713    131.0081   6.9482611758e+01   4.4843815458e+01    0.2768407    0.2020155 -87.25  0.001417665    1.345    0.256
       111 -10.9427    241.8272    134.5342   1.9288910858e+01   8.3596166320e+00      0.20455    0.1181051 -34.98 0.0007357037    1.454    0.312
       112  -9.7251     47.0291    133.6626   6.6175311719e+01   4.2936043082e+01    0.1951977    0.1774076  43.52 0.0003928213    1.092    0.084
       113  -9.5802     53.2181    133.0315   6.3958020119e+01   4.2318946881e+01    0.1893464     0.116843 -67.86 0.0003331858    1.610    0.379
       114  -9.1614    128.4890    132.4593   4.0664389991e+01   2.9477187529e+01    0.1513903    0.1458421  38.08 9.845621e-05    1.022    0.021
       115 -11.9029      4.9021    130.0770   8.0389391251e+01   4.7759976043e+01    0.2325363    0.2071289  87.96 0.0003049952    1.053    0.050
       116  -9.9961     73.6574    129.0786   5.6345872320e+01   4.0372864935e+01    0.2175654    0.1903902 -59.45  0.001128739    1.171    0.146
       117 -10.6428     55.8651    126.6663   6.2009373432e+01   4.3629771600e+01    0.2371754    0.1925959 -52.66 0.0003617092    1.279    0.218
       118  -9.8485     68.0992    121.7184   5.6808061678e+01   4.3134453588e+01     0.208472    0.1973028  47.94 0.0007084385    1.042    0.041
       119  -9.5619     10.6587    122.3370   7.7786887471e+01   4.9402335582e+01    0.1519753   0.08482417  57.85 0.0007050422    1.763    0.433
       120  -9.7650     61.2700    121.2600   5.9128448555e+01   4.4281617477e+01    0.2026383    0.1642966  64.64 0.0004694049    1.270    0.212
       121 -10.0515     56.8014    121.0371   6.0688708773e+01   4.4976495468e+01    0.2224555    0.1461676  52.85 0.0004692555    1.575    0.365
       122  -8.9191     35.4640    121.4686   6.8571943551e+01   4.7478867959e+01    0.1433861    0.1327455  80.80 0.0001423357    1.004    0.004
       123 -12.6988    249.4981    113.0673   1.3996962005e+01   1.0106568700e+01    0.8181718     0.152495 -33.53  0.002712699    4.358    0.771
       124  -9.7773     73.5352    117.0021   5.3935057267e+01   4.3474380060e+01    0.2178993    0.1510266 -61.37 0.0003064828    1.463    0.317
       125  -9.7272     52.8369    115.8805   6.1197845766e+01   4.6875992325e+01    0.2044209    0.1663416  66.03 0.0003452996    1.263    0.208
       126 -10.2391     16.0548    115.3625   7.5123880733e+01   5.0860955296e+01    0.1876065    0.1696565  50.02  0.000393083    1.122    0.109
       127 -10.3458     30.8212    110.0164   6.8696258857e+01   5.1011695625e+01    0.4961727    0.2266344 -35.92  0.001785354    3.112    0.679
       128  -9.9032     30.4874    106.4729   6.8291714526e+01   5.1992460603e+01    0.2403439    0.1859954  44.05 0.0006977127    1.303    0.232
       129 -11.1315     11.8767    109.4031   7.6127056918e+01   5.2740833237e+01    0.3511024    0.1939738 -58.30 0.0009399937    1.699    0.411
       130 -10.7167     61.8455    107.8933   5.6207033416e+01   4.7678391991e+01    0.2401733    0.2060807 -30.87  0.001221774    1.299    0.230
       131  -9.9631     19.9962    108.2491   7.2768753055e+01   5.2451902942e+01     0.177293    0.1197495  20.68 0.0008889546    1.592    0.372
       132 -10.9016     75.3338    104.5750   5.0438331286e+01   4.6321760657e+01    0.3373553    0.2582473  88.08 0.0006675581    1.587    0.370
       133 -10.0920      3.5837    104.9776   7.9007972295e+01   5.4407926406e+01    0.1875385    0.1612953  24.65  0.001129103    1.279    0.218
       134  -9.6204     36.1963    102.3951   6.5278489875e+01   5.2490768355e+01    0.2034571    0.1263358  38.74 0.0005175044    1.612    0.380
       135  -9.1353      1.2825    118.3153   8.0893000266e+01   5.1028878483e+01    0.1342038   0.08898302 -51.03 0.0002983577    1.578    0.366
       136 -10.1141     10.1072     99.0555   7.5743623083e+01   5.5603916690e+01    0.1977962    0.1758323  87.65 0.0002910262    1.046    0.044
       137  -9.8150     76.6870     97.9355   4.8256354932e+01   4.7738853444e+01    0.2193802     0.195658 -55.19 0.0004100277    1.128    0.113
       138  -9.7845     33.6156     98.2087   6.5610049293e+01   5.3881509750e+01    0.2205915     0.117424 -56.88 0.0009525049    1.741    0.426
       139 -10.6477     14.8189     97.8853   7.3601004849e+01   5.5605393578e+01    0.2210312    0.1721447 -51.18 0.0005138664    1.267    0.211
       140  -9.2948     52.2379     97.0063   5.7562437198e+01   5.1917327221e+01    0.1872445    0.1230324 -62.39 0.0002066789    1.487    0.327
       141 -10.2889      2.4376     96.1833   7.8699784301e+01   5.6784055170e+01    0.2138124    0.1923893  19.07 0.0004962952    1.245    0.197
       142  -9.9089     31.7441     92.9292   6.5446559882e+01   5.5477301482e+01    0.2115967    0.1859028 -42.79 0.0002535091    1.158    0.137
       143 -10.0851     35.0298     90.4927   6.3513958255e+01   5.5774887958e+01     0.213063    0.1834812 -68.75 -4.057621e-05    1.106    0.096
       144 -11.7354     57.1282     90.9626   5.4090454840e+01   5.2762082053e+01    0.3257511    0.2887269 -49.39 0.0005403701    1.122    0.109
       145  -9.4752      1.3116     91.6430   7.8759980516e+01   5.8030722708e+01    0.1447708   0.08683611  60.11 0.0005249364    1.737    0.424
       146  -9.3180     87.6989     89.2749   4.1867639778e+01   4.7716234366e+01    0.1551107    0.1228331  76.17  0.000167622    1.536    0.349
       147  -9.9061     22.4335     88.2774   6.8793821172e+01   5.7575666910e+01    0.2003545    0.1289983 -87.29 0.0008910465    1.627    0.385
       148 -11.7992    249.1082     91.6335   9.6231801241e+00   1.3022154658e+01    0.2483805    0.1558052 -27.51  0.001480762    1.379    0.275
       149 -10.8503    184.9058     85.2068   1.6600514914e+01   2.6346603695e+01    0.2218031    0.1844303 -40.91  0.000304188    1.116    0.104
       150  -9.9283      8.3149     85.4216   7.4897219203e+01   5.9316958084e+01    0.2333063     0.149759  72.27  0.001163302    1.663    0.399
       151 -11.6831    239.4964     85.0084   9.2488951402e+00   1.5537885947e+01    0.1761164    0.1670454 -49.92  0.001044055    1.167    0.143
       152 -10.1687      4.0809     84.8850   7.6801075752e+01   5.9677835096e+01    0.2107332    0.1686621  69.95 0.0006928248    1.265    0.210
       153 -10.7175     17.3474     81.3197   6.9991545562e+01   5.9811552455e+01     0.240738    0.2069018  79.27 0.0006674443    1.194    0.163
       154 -10.2298    120.0758     79.8948   2.8848686077e+01   4.2554384162e+01    0.2406711    0.2277888  31.32 0.0008422601    1.106    0.095
       155  -9.9353     39.7800     79.5657   5.8864255254e+01   5.8069404549e+01    0.2001369    0.1301806  40.94 0.0007968955    1.598    0.374
       156  -9.8377    211.9902     76.2752   1.0477502201e+01   2.1961589270e+01     0.174321    0.1580851 -45.67 0.0003413254    1.040    0.038
       157 -11.0525     88.1759     77.2041   3.7946443322e+01   5.0372140048e+01    0.2629296    0.2464707  88.71            0    1.129    0.114
       158  -9.9904    168.2921     74.2479   1.6472258087e+01   3.1937930607e+01    0.3074266    0.1897699 -64.04  0.001178582    2.069    0.517
       159  -9.7492     76.8403     74.8282   4.1372805736e+01   5.3231316267e+01    0.2041122    0.1796003  81.72 0.0002496151    1.291    0.225
       160 -11.2006      7.1224     73.3142   7.3782400209e+01   6.2546966095e+01    0.3588988    0.2089394  -8.95  0.001095213    2.015    0.504
       161  -9.4847    206.9781     73.0542   1.0331969878e+01   2.3459326074e+01    0.1609335    0.1390193 -43.94 0.0004212626    1.020    0.019
       162 -12.9253    249.8024     70.6826   5.1434485922e+00   1.5618084708e+01    0.7733583    0.1820076 -29.75  0.002660703    4.154    0.759
       163  -9.7750    160.0184     71.7127   1.7252149895e+01   3.4339648268e+01    0.1957924    0.1839151  80.42 0.0002792064    1.063    0.060
       164  -9.7317      1.4462     72.4641   7.6572084959e+01   6.3029922942e+01    0.1325603    0.1168678 -68.56 1.800478e-05    1.003    0.003
       165 -11.5463    102.7515     69.4836   3.0481014897e+01   4.8746374736e+01    0.3169479    0.2670145 -50.78 0.0003042478    1.225    0.184
       166 -11.6316     92.4912     68.0511   3.3331460145e+01   5.1394342517e+01    0.3264406    0.2771495 -63.45 0.0003592795    1.285    0.222
       167  -9.4093     45.0224     70.5599   5.3896276171e+01   5.9649565544e+01    0.2008287    0.1430671  28.33 9.356884e-05    1.440    0.306
       168 -10.8314     50.3348     68.1195   5.0594898228e+01   5.9470331402e+01     0.291079    0.2339177 -38.42 0.0006067037    1.250    0.200
       169 -12.0951     16.5322     67.4810   6.7776628381e+01   6.3460972486e+01     0.336736    0.2296481 -71.15 8.585273e-05    1.385    0.278
       170 -12.1904     13.5798     65.8357   6.9039535537e+01   6.4089008532e+01    0.2460852     0.211027 -43.74  0.001455781    1.099    0.090
       171 -11.2560      6.4870     67.6780   7.3227410412e+01   6.4034139164e+01    0.2489039    0.2086078 -47.38 0.0002012968    1.116    0.104
       172 -11.5927      3.2842     61.8382   7.4031856871e+01   6.5675815699e+01    0.3519135    0.2514991 -42.18 0.0007828886    1.313    0.238
       173 -10.0147    129.2544     66.0587   2.2033506888e+01   4.2935797769e+01    0.3329734    0.1793315  34.18  0.001178759    2.685    0.628
       174 -11.0212     29.4412     65.0520   6.0245947216e+01   6.2921475568e+01    0.3340249    0.1839481 -38.58  0.001027699    1.914    0.477
       175 -11.6628     28.4804     61.0058   5.9635476559e+01   6.4025516626e+01    0.7040061     0.370856  15.77  0.002473191    2.144    0.534
       176 -10.6742    159.2434     64.9430   1.5407601951e+01   3.5638165033e+01    0.2400706    0.2046477  55.42 0.0003486376    1.206    0.171
       177  -9.4767    161.6114     61.5612   1.3985069400e+01   3.5591401819e+01    0.2177154    0.1620437 -62.95 0.0001077608    1.414    0.293
       178 -12.4421    122.8980     63.7254   2.2825052942e+01   4.4944250668e+01    0.3172102    0.2999586 -59.38 0.0003781105    1.068    0.064
       179  -9.5631     81.6065     64.8134   3.6076344444e+01   5.4454833984e+01    0.2033104    0.1466703 -56.37 0.0003313168    1.524    0.344
       180 -10.0445    155.0441     64.0116   1.5901883352e+01   3.6826547805e+01    0.2183983    0.2047088 -76.42 0.0003378438    1.024    0.024
       181  -9.8169    109.0889     64.5045   2.6841871684e+01   4.8208573248e+01    0.2335431    0.1500949  51.34 0.0005840968    1.507    0.336
       182 -11.5675     46.4550     60.8836   5.0092444171e+01   6.1770099478e+01    0.4432292    0.2755187 -34.73 -4.867553e-05    1.781    0.438
       183 -13.2278    232.4907     58.3901   4.0603315205e+00   2.0333116429e+01    0.6565831    0.3327084 -53.68  0.003329338    1.933    0.483
       184 -10.6076      8.1812     51.5058   6.9094025241e+01   6.8019317887e+01    0.2438413    0.1903759  52.61 0.0008905895    1.488    0.328
       185 -12.7022      2.6732     53.0473   7.2831675678e+01   6.7910703155e+01     1.490813    0.6291324  44.17  0.006230779    2.912    0.657
       186 -12.9134     12.4961     48.1164   6.5508773590e+01   6.8574862538e+01    0.4485129    0.2983595 -64.30 0.0003542304    1.397    0.284
       187 -11.3526     10.6091     43.8400   6.5551478177e+01   6.9730946152e+01    0.2286859    0.1658266 -54.87 0.0002558461    1.224    0.183
       188 -10.8425    246.5068     61.4925   3.4777325133e+00   1.7350396531e+01    0.1205491   0.09711648 -40.83 1.651334e-05    1.031    0.030
       189 -10.1463    189.0532     59.9169   9.3245768822e+00   2.9288858126e+01    0.2035128    0.1806277 -60.78 0.0003208641    1.040    0.039
       190 -10.6785    167.5341     59.3283   1.2336851095e+01   3.4481076269e+01    0.2983025    0.2150209 -66.60 0.0007868957    1.499    0.333
       191  -9.3294    135.2593     58.3112   1.8097252019e+01   4.2751561857e+01    0.1459614    0.1197837  17.78 0.0003068936    1.529    0.346
       192 -12.1471      5.2484     45.8862   6.9658833825e+01   6.9551449135e+01    0.8264377    0.3284991 -40.98  0.003540862    2.325    0.570
       193 -10.6159    110.4024     56.7393   2.3691766217e+01   4.9313975022e+01    0.2573377    0.2232989  64.92 0.0003032635    1.132    0.117
       194 -11.9551    115.4930     55.0837   2.1713922718e+01   4.8327432625e+01    0.2723924    0.2535075  77.53 -6.319121e-05    1.055    0.053
       195 -10.0439     88.8599     55.0996   2.9784438933e+01   5.4798706149e+01    0.2390439    0.2108597 -89.29 0.0009498547    1.292    0.226
       196  -9.8762     97.9423     53.0198   2.5978598991e+01   5.3038871911e+01     0.295217    0.1872538 -58.92  0.001190495    2.000    0.500
       197 -13.4037    149.6161     51.1525   1.2909902571e+01   4.0206215435e+01    0.3552212    0.3308801 -69.29 0.0006971527    1.029    0.028
       198 -10.6978    105.0471     52.5127   2.3643050736e+01   5.1388978385e+01    0.2664944    0.2246677 -44.67 0.0003310298    1.230    0.187
       199 -10.9464     39.1181     52.5953   5.1008660741e+01   6.4741584367e+01    0.3631493    0.2372168 -10.90  0.001061952    2.038    0.509
       200 -10.4997     39.8640     48.2914   4.8962818555e+01   6.5608974791e+01    0.4834238    0.2762899 -18.01  0.001880348    2.797    0.643
       201 -12.1431    246.6008     43.0826   3.5951276308e+02   1.9560607131e+01     0.404569    0.3223315  26.02  0.002673093    1.837    0.456
       202 -10.6917     54.1250     48.5926   4.1582043407e+01   6.3258236317e+01    0.3409764     0.259101  42.85  0.001742113    1.339    0.253
       203 -10.9248    180.5172     47.2109   6.9811747189e+00   3.3072280240e+01    0.3710595    0.2190138 -88.21  0.001662659    2.066    0.516
       204 -11.5847    121.5126     46.6343   1.7148097526e+01   4.8172201664e+01    0.2839653    0.2490817  78.73 0.0001905398    1.121    0.108
       205 -10.2851     79.6474     47.2137   2.9919391607e+01   5.8370915625e+01    0.4332897    0.1758472  50.10  0.001549441    2.412    0.585
       206 -12.0491     44.4535     43.3379   4.4376415599e+01   6.5986301803e+01     0.566761    0.3794275 -62.30  0.002700844    1.837    0.456
       207 -10.9640    143.5461     42.9553   1.1331902775e+01   4.2972074671e+01    0.4232848    0.2845783 -11.70            0    1.990    0.497
       208  -9.8531    237.5007     44.5199   5.1590486407e-01   2.1091675729e+01    0.1229297    0.0981598 -48.08 -6.218629e-05    1.001    0.001
       209 -11.6732     53.2916     43.2781   3.9710464509e+01   6.4497571825e+01    0.6113936    0.3001181  31.49   0.00245261    2.244    0.554
       210  -9.5829     72.6697     43.2604   3.0937096700e+01   6.0635629946e+01    0.1433442    0.1172936  81.80 0.0001923406    1.567    0.362
       211 -10.8828     16.4693     42.5404   6.1227844952e+01   6.9597878414e+01    0.2629554    0.1444071 -51.52 0.0009763574    1.601    0.376
       212  -9.8232    108.0672     42.5157   1.8939517425e+01   5.2281386569e+01    0.2285973    0.1421851  56.68 0.0003590759    1.512    0.338
       213  -9.1224    119.0000     40.9954   1.5643764758e+01   4.9683679760e+01    0.2420534   0.08674526 -31.78 0.0008022931    2.941    0.660
       214 -10.1567     89.4315     41.2829   2.3944738948e+01   5.7125028542e+01    0.2730408    0.1979862  55.69 0.0006396644    1.326    0.246
       215  -9.9321    127.0341     43.2770   1.4691085217e+01   4.7244440887e+01    0.2070922    0.1802291  74.56 0.0002088795    1.099    0.090
       216 -11.2203    225.4096     39.2552   2.8994333139e-01   2.4104492864e+01    0.2474109    0.1125735 -26.38  0.001154493    2.208    0.547
       217  -9.7638    203.7663     39.9905   2.4120431224e+00   2.8623947715e+01    0.1852435    0.1497588 -46.48 0.0002942314    1.089    0.082
       218 -10.2632    148.5268     39.9555   9.4810011787e+00   4.2093157775e+01    0.2588438    0.1910275 -85.61 0.0003454591    1.422    0.297
       219 -11.8109     83.3805     38.8581   2.4943320171e+01   5.8969506668e+01    0.3621733    0.2987083  -1.82 0.0004020847    1.413    0.292
       220 -11.0448     87.2403     33.8971   2.1422599316e+01   5.8829476232e+01    0.3546675     0.263243  22.94  0.000940147    1.600    0.375
       221  -9.9259    233.2723     39.5971   3.5974350008e+02   2.2495220002e+01    0.1365171   0.06840277 -52.56 0.0006979372    1.754    0.430
       222  -9.2590    167.7379     39.0060   6.3029249659e+00   3.7305757874e+01    0.1717262    0.1184526 -34.54 0.0004197946    1.430    0.301
       223 -11.0204     27.6677     37.5483   5.1928014605e+01   6.9582658310e+01    0.2564399    0.2296869  28.16 0.0001488692    1.190    0.160
       224 -10.7257     23.3588     35.1067   5.3768156784e+01   7.0612456186e+01    0.3715405    0.2377349 -30.75  0.001899654    1.583    0.368
       225 -11.2608     56.5869     35.7479   3.4580267551e+01   6.5325319176e+01    0.4816234    0.3478887  21.60  0.001718785    1.526    0.345
       226  -9.9231     97.5604     36.1868   1.9263032087e+01   5.5921291599e+01    0.2276036    0.1916675 -85.81 0.0002716438    1.333    0.250
       227 -11.1369    240.1098     34.6681   3.5814661903e+02   2.1746636762e+01    0.2171527    0.1273035 -44.15 0.0006484729    1.329    0.247
       228  -9.5421    129.2516     35.6007   1.1458862093e+01   4.7751261540e+01    0.2024679    0.1289186  55.02 0.0002770999    1.502    0.334
       229  -9.8037     63.9652     34.7408   3.0672648423e+01   6.4009898542e+01    0.1967376    0.1798125  34.20 0.0002939228    1.041    0.039
       230  -9.7204     76.2654     33.3481   2.4995898792e+01   6.1523839479e+01    0.2041079    0.1334699  60.04 0.0006749844    1.605    0.377
       231 -10.0302     34.2425     33.2283   4.5761804891e+01   6.9621559558e+01    0.2081929    0.1722983 -10.50 0.0007986019    1.192    0.161
       232 -10.7650    196.1562     31.6768   9.9990137657e-01   3.1361175701e+01    0.2233802    0.2067401 -58.41 0.0003327372    1.113    0.101
       233 -10.5989    199.0125     28.5330   3.5991401082e+02   3.1074592153e+01    0.2839212    0.1252986  76.33  0.001259542    2.371    0.578
       234 -10.6245     11.5245     29.4693   6.0049548825e+01   7.2977861520e+01    0.2636645    0.1531306 -37.16  0.001358693    1.592    0.372
       235 -11.5631      7.8902     30.1266   6.3114278984e+01   7.3096875510e+01    0.4153055    0.2337723 -57.76  0.001230489    1.584    0.369
       236 -11.1724      9.4837     24.9896   5.9836332210e+01   7.4119477674e+01    0.3517099    0.2104364   0.21  0.001652522    1.782    0.439
       237 -10.2983     19.0618     30.7926   5.4946976171e+01   7.2004711997e+01    0.2247436    0.1790881 -47.35 0.0006723472    1.191    0.160
       238  -9.2121    163.0000     29.9799   4.1897284897e+00   3.9642839089e+01    0.2250371   0.07834156 -28.07 0.0006802654    2.923    0.658
       239 -12.5271    232.0376     26.6558   3.5691166598e+02   2.4222144245e+01    0.3450058    0.2309463 -83.68  0.001054744    1.524    0.344
       240 -10.5257    111.7784     27.2144   1.1894598016e+01   5.3481645316e+01    0.2646131    0.2557177  58.62 0.0007843547    1.071    0.066
       241  -9.7772     48.8092     28.4269   3.4822707032e+01   6.8117793006e+01    0.1832248    0.1249947  28.14 0.0003421378    1.493    0.330
       242  -9.2890    118.5251     27.4943   1.0560486218e+01   5.1657919167e+01    0.1480548    0.1355578  61.59  0.000809339    1.063    0.059
       243 -11.6306    215.1644     25.8973   3.5792690463e+02   2.7796348269e+01    0.2783116    0.1731479  67.39  0.001151753    1.733    0.423
       244 -10.8378    141.0081    248.0116   5.6551273596e+01   6.1717220980e+00    0.1878303    0.1217727   2.92  0.001047373    1.728    0.421
       245 -10.8610     83.3478    247.9647   6.8557498163e+01   1.3396244142e+01    0.2867336     0.111136  41.43  0.001316942    1.935    0.483
       246 -10.4867    165.2221    246.8670   5.1656165123e+01   3.3038103121e+00    0.2231697    0.1196564  10.75  0.001218496    2.038    0.509
       247 -10.7656     88.4659    246.8240   6.7372326019e+01   1.2961383345e+01    0.2093475     0.114038  28.37 0.0008748126    1.479    0.324
       248 -10.0603     54.9947     24.9843   2.9810971900e+01   6.7490928469e+01    0.1995516    0.1835509  14.32  0.001170875    1.021    0.020
       249 -11.6684      3.7187    238.1477   8.4970166483e+01   2.3552781483e+01    0.2524646    0.1585197  85.22  0.001131382    1.607    0.378
       250 -11.6494    156.6887    245.6555   5.3159166088e+01   4.5248560689e+00    0.2459141    0.1556461   3.71  0.001101954    1.671    0.402
       251 -12.5864     59.6096    242.5928   7.3266165042e+01   1.7106098825e+01    0.5052888    0.3421137 -15.23  0.002882344    2.495    0.599
       252 -11.9968    177.3860    244.0417   4.8988160336e+01   2.1802269531e+00    0.3460301    0.1501645  23.92  0.001830878    1.981    0.495
       253 -11.1669      2.7252     15.5859   6.1611432980e+01   7.6605705258e+01    0.2939818    0.1952109  22.19  0.001072475    1.580    0.367
       254 -11.6841     44.9950    244.4831   7.6521505677e+01   1.8391107586e+01    0.2619845    0.1211408  33.77 0.0009006874    1.600    0.375
       255 -10.7333     34.0614     22.7099   4.0383765933e+01   7.1672050069e+01    0.2188341    0.1836445   4.51 0.0002668147    1.128    0.113
       256 -11.2636    148.7397    243.5155   5.4470754887e+01   5.8251263179e+00    0.3008649   0.08729678  33.95  0.001302614    2.617    0.618
       257 -10.5710    157.7469     21.9691   2.3461848198e+00   4.1927709385e+01    0.4191104    0.1710833  88.16  0.001428894    3.312    0.698
       258  -9.8944     99.4506     21.6357   1.2422344232e+01   5.7409302625e+01    0.3017688    0.1716718 -41.56   0.00133953    1.882    0.469
       259 -12.1854    133.7619    239.6936   5.7067372370e+01   8.3153547615e+00    0.4154138    0.2496244 -15.27  0.002216559    2.442    0.590
       260  -9.4710     51.4910     22.4953   3.0170561438e+01   6.8591960233e+01    0.1418323    0.1239559  15.78  0.000809236    1.083    0.077
       261 -10.5836    193.0780     20.9187   3.5843189979e+02   3.3307523305e+01    0.1944527    0.1655306 -64.41 0.0002988479    1.008    0.008
       262  -9.4538     58.9469     21.2130   2.5874904826e+01   6.7245059932e+01    0.1890874    0.1071055  50.27 0.0004375027    1.676    0.403
       263 -11.3116     89.3081    240.5266   6.6644474005e+01   1.3905379490e+01    0.2324467    0.1738941  17.53  0.001113019    1.343    0.256
       264 -10.3733     42.8576     19.7652   3.3258886011e+01   7.0680317034e+01    0.5572442     0.170725  45.88  0.001945196    3.284    0.696
       265 -11.1361    210.9585     19.0153   3.5655916324e+02   2.9464299117e+01    0.2161074     0.163018  54.83 0.0007815057    1.618    0.382
       266 -10.2111    170.5072    240.0339   4.9762664986e+01   3.5480323898e+00    0.2378943    0.1293749  16.12  0.001350283    1.724    0.420
       267 -10.1228    187.8158     16.0894   3.5757595881e+02   3.5070465833e+01    0.2025595    0.1517929 -61.11 0.0003157303    1.160    0.138
       268  -9.5831    165.6689     16.6266   3.5979155226e+02   4.0475894407e+01    0.1412198   0.09886432  37.71 0.0003196974    1.839    0.456
       269  -9.5641    131.8564     16.1206   3.8701020474e+00   4.9398213779e+01    0.1850275     0.159179  43.63 0.0002527004    1.274    0.215
       270 -10.5265    137.1437     14.8645   2.6481921193e+00   4.8115111004e+01    0.2180643    0.1735937 -68.56 0.0002690407    1.217    0.178
       271 -11.3223    170.5965     14.3275   3.5861011973e+02   3.9470754537e+01    0.2726733    0.1565969  71.58  0.001345541    1.641    0.391
       272  -9.2364     52.4426     14.5541   2.5027388432e+01   6.9572302081e+01     0.137923    0.1213355  24.41 -1.051123e-05    1.035    0.034
       273  -9.9304    154.3433    239.3121   5.2830637990e+01   5.6994874242e+00    0.1223273   0.07733326   4.49 0.0007046341    1.704    0.413
       274 -10.7068     52.4902    238.7368   7.4569338306e+01   1.8596973959e+01    0.2779467   0.08349905  39.15  0.001281389    2.208    0.547
       275 -10.1161    196.2047    237.9833   4.4717664791e+01   6.7451026390e-01     0.162126    0.1309684  15.97 0.0009223226    1.249    0.199
       276  -9.6634     70.7564     11.5867   1.5785834899e+01   6.5798727427e+01    0.1873997    0.1290019  71.71 0.0002619775    1.587    0.370
       277 -12.2305    184.2496    234.9191   4.6471232796e+01   2.5065390734e+00    0.4923073    0.2251741  33.11  0.002582089    1.836    0.455
       278 -10.3806    188.8372    230.4414   4.4987242914e+01   2.5159649963e+00    0.2689918    0.1467861   2.36 0.0009482718    2.190    0.543
       279 -10.9706    193.4382    227.6788   4.3742164248e+01   2.3004406744e+00    0.3165811    0.2425402  50.37  0.001503547    2.165    0.538
       280  -9.8653    124.3210    238.6972   5.8929870882e+01   9.7024917577e+00    0.1199207   0.07882364  48.67 0.0005076044    1.631    0.387
       281 -11.3147    160.7853    234.9896   5.0990845946e+01   5.4757013361e+00    0.2710052    0.1350038  22.72  0.001067959    1.775    0.437
       282 -10.3769     92.3541    235.2797   6.5496089550e+01   1.4416226787e+01    0.2286967    0.1300244  21.69 0.0008209668    1.704    0.413
       283  -9.6657    204.8002    234.4254   4.2691508725e+01   9.2539028881e-02    0.1578467   0.08267363  18.68 0.0009376115    1.642    0.391
       284 -10.0809     55.1540    232.1862   7.3555886927e+01   1.9495926907e+01    0.1827516    0.1093914  49.94  0.001083753    1.373    0.272
       285 -11.2824     20.3749    237.5449   8.1457600601e+01   2.2149451822e+01    0.4438435    0.1546699  36.04  0.002049252    1.944    0.486
       286 -12.1144    247.8755    226.8409   3.4554318529e+01  -3.7854186654e+00    0.6246745    0.3283103  -3.56  0.004018061    1.798    0.444
       287 -11.2145     11.3782    231.6333   8.3179366887e+01   2.4090737931e+01      0.28003    0.1566508  31.99  0.001218274    1.477    0.323
       288 -11.4137     32.4999    242.0354   7.9061813840e+01   2.0134413161e+01      0.40793    0.1858987  42.43  0.001713841    1.542    0.351
       289 -10.9563      3.0125    226.4634   8.4832753913e+01   2.5811737272e+01    0.1963304    0.1826952 -15.84  0.001252998    1.542    0.351
       290 -10.2062      2.1453    221.4007   8.4892727989e+01   2.6871087233e+01    0.2880292    0.1240018  78.00  0.001476198    2.200    0.546
       291  -9.8430    175.3105    227.8089   4.7164123299e+01   4.5888423824e+00    0.1727992    0.1221838  24.02 0.0009050827    1.152    0.132
       292 -10.3213    153.8734    228.4257   5.1506415984e+01   7.3372384403e+00     0.243081   0.09425613  35.05  0.001144141    2.096    0.523
       293  -9.9991    224.8364    224.6979   3.7852897468e+01  -1.0685467775e+00    0.1825837     0.105876   8.97  0.001171268    1.522    0.343
       294 -10.4067     79.2314    223.6201   6.7378045121e+01   1.8186873676e+01    0.2290331     0.173294   2.75  0.001039237    1.652    0.395
       295 -10.0453    200.6721    223.8277   4.1864018160e+01   1.8974953946e+00    0.1946245    0.1252722   5.76  0.001008068    1.373    0.272
