#   1 NUMBER                 Running object number                                     
#   2 MAG_AUTO               Kron-like elliptical aperture magnitude                    [mag]
#   3 X_IMAGE                Object position along x                                    [pixel]
#   4 Y_IMAGE                Object position along y                                    [pixel]
#   5 X_WORLD                Barycenter position along world x axis                     [deg]
#   6 Y_WORLD                Barycenter position along world y axis                     [deg]
#   7 A_WORLD                Profile RMS along major axis (world units)                 [deg]
#   8 B_WORLD                Profile RMS along minor axis (world units)                 [deg]
#   9 THETA_WORLD            Position angle (CCW/world-x)                               [deg]
#  10 FWHM_WORLD             FWHM assuming a gaussian core                              [deg]
#  11 ELONGATION             A_IMAGE/B_IMAGE                                           
#  12 ELLIPTICITY            1 - B_IMAGE/A_IMAGE                                       
         1 -15.0648     70.1508    144.7838   9.3596366037e+01   3.6986929881e+01     4.504562     1.916342  62.19  0.002750942   10.916    0.908
         2 -13.7202    204.0543     44.0527   3.6576434393e+01   2.9114160239e+01    0.8237556    0.7930256 -64.64  0.003237169    1.192    0.161
         3 -13.9867    215.5448     33.8225   3.3049536803e+01   2.7958035075e+01    0.6920449    0.6457209  44.46  0.002702861    1.415    0.293
         4 -13.8690    242.0167      8.4386   2.5801169491e+01   2.5550915993e+01    0.7987067    0.5887216 -60.08   0.00430364    1.040    0.038
         5 -11.0105      2.0000      3.9665   8.1166217984e+01   7.5761425450e+01    0.3006525   0.05648471 -45.97  0.001063047    5.041    0.802
         6 -10.7114     58.4823      2.4964   5.0159519500e+01   6.7272474419e+01    0.2608714    0.1187904  72.04 0.0008102765    5.992    0.833
         7 -12.6863    118.4641    211.6095   9.1599352585e+01   1.3723233721e+01    0.4412211    0.2294696  31.98   0.00200791    1.780    0.438
         8 -12.2531    140.0114    249.4161   9.2034687198e+01   3.5863858886e+00    0.2920945    0.2520705  47.99   0.00195938    1.316    0.240
         9 -17.1433     41.9386    192.0839   1.0804225610e+02   2.8632831336e+01     10.35225     4.276496  65.76   0.03022777    3.548    0.718
        10 -13.6548     58.2523    130.6598   9.4738501748e+01   4.2298529519e+01     2.134163    0.8323799 -77.66  0.004661674    7.661    0.869
        11 -13.4579     66.6181    153.1241   9.6128031251e+01   3.5335253745e+01    0.6252664    0.4662784 -11.42 0.0009124109    1.777    0.437
        12 -14.7319     55.0229    232.9496   1.0866228407e+02   1.7979761443e+01    0.9980096    0.6216822 -87.57  0.002633922    1.750    0.428
        13 -10.1158    110.4559    167.2253   8.6228437280e+01   2.4933511962e+01    0.2081788    0.1472688 -70.66 0.0009422511    1.674    0.403
        14 -10.5967    109.3103    199.3132   9.1958736388e+01   1.7750833011e+01    0.1410716    0.1084634 -13.41 0.0004363861    1.630    0.386
        15 -16.2629     10.7611    209.3763   1.1679530159e+02   2.7753381420e+01     1.918985     1.190517  84.84  0.006316382    1.431    0.301
        16 -10.2769    158.0378    192.6411   7.9309265875e+01   1.1246352212e+01    0.2190823    0.1905699 -52.18 0.0004724014    1.312    0.238
        17 -11.8812     34.0455    160.5343   1.0678399215e+02   3.7333184452e+01    0.2881206    0.2162534  63.84 0.0008991458    1.327    0.247
        18 -17.6261     11.0212    241.2650   1.1838250347e+02   2.1003808309e+01     6.107859      2.02357  24.07   0.01722049    3.654    0.726
        19 -11.4731    133.8193    145.0824   7.5489990558e+01   2.5848065966e+01     1.172806    0.2756592 -54.11  0.002354327    7.701    0.870
        20 -12.4457     86.1133    151.5118   9.0061244846e+01   3.2838883549e+01    0.6211445      0.42448 -17.35  0.001592861    2.115    0.527
        21 -12.2810     65.3403    170.4657   9.9193006882e+01   3.1088279478e+01    0.4744126    0.2991128 -28.81  0.002058913    2.274    0.560
        22 -10.5210     99.5918    180.8775   9.1509203903e+01   2.3483559511e+01     0.241393    0.1974164  21.92 0.0006012456    1.280    0.219
        23 -11.3335    100.8103    138.0337   8.2975250822e+01   3.3723833504e+01    0.5216839    0.3314165 -17.21  0.001951186    2.589    0.614
        24 -12.3990     87.9792    137.1068   8.6606419027e+01   3.6173056674e+01    0.3087854    0.2743645 -43.43 0.0004002757    1.118    0.106
        25 -11.0591    105.8872    130.8284   7.9849661026e+01   3.4556861039e+01    0.3655053    0.3432283 -51.53  0.001199478    1.051    0.049
        26 -10.5492    110.4690    129.0254   7.8096413753e+01   3.4125019429e+01    0.2962059    0.2232331  15.10 0.0007107621    1.608    0.378
        27 -11.3501    124.0638    202.3748   8.8864438452e+01   1.4776439844e+01    0.2522624    0.2081581 -65.76 0.0006331461    1.398    0.285
        28 -10.8844     97.6053    124.6513   8.0850304612e+01   3.7587242620e+01    0.3045067    0.2486481  -0.33  0.001203714    1.463    0.316
        29 -12.3360     69.8770    165.9628   9.7242335318e+01   3.1602925921e+01     0.367587    0.3326786  -0.48  0.001333172    1.268    0.212
        30  -9.8071    107.1203    118.1145   7.6377663412e+01   3.7363107743e+01    0.2251426    0.2020899 -10.29 0.0002766323    1.201    0.167
        31 -11.4233     86.4289    173.5031   9.3827286000e+01   2.7305672586e+01    0.4698105     0.275319  16.62  0.001927062    2.275    0.560
        32 -10.3291    231.1981    113.9266   4.9001719303e+01   1.3018580103e+01    0.1976613    0.1919425 -60.22 0.0007635709    1.173    0.147
        33 -10.8867     22.0342    114.0650   1.0430723572e+02   5.0503785506e+01    0.2095522    0.1511418  64.57  0.000390223    1.599    0.374
        34 -13.4788     78.6879    157.8686   9.3383102716e+01   3.2378291630e+01     1.392397    0.6264532  60.05 0.0004364149    4.468    0.776
        35  -9.6719    205.5403    110.4301   5.2121792384e+01   1.8407720034e+01    0.1392688    0.1244373 -42.45 0.0002477397    1.011    0.011
        36 -10.6268     33.3946    109.1610   9.9306354773e+01   5.0745491386e+01    0.2009824    0.1276096 -78.17 0.0006181237    1.684    0.406
        37 -10.1390     28.6645    106.7189   1.0060832955e+02   5.1818479563e+01    0.1452787   0.09413602 -34.85 0.0003311229    1.617    0.381
        38 -10.6554     39.0000    101.9743   9.5738131020e+01   5.1992106780e+01     0.222429    0.1654694  63.60 0.0007219805    1.676    0.403
        39 -11.9296     46.8391    168.0615   1.0406051546e+02   3.4014912720e+01    0.5587282    0.3092502  85.24  0.001413877    2.229    0.551
        40  -9.9707     73.1319     83.8447   7.7977536091e+01   5.1553715579e+01    0.2205565    0.2018568  71.09  0.000684633    1.304    0.233
        41 -10.7757     13.4122     59.9295   9.6639343075e+01   6.4311715803e+01    0.2193082    0.1726895 -12.95 0.0004177374    1.240    0.194
        42 -12.6951    193.9406     51.1779   3.9510388640e+01   3.0382494518e+01    0.3914864    0.3447283  43.78 0.0009291764    1.373    0.272
        43 -12.4527    119.3915    245.9312   9.5954369384e+01   7.0193429279e+00    0.2505347    0.1841596  42.35  0.000831926    1.236    0.191
        44 -11.8917    191.7154    192.0928   7.2063675663e+01   5.9273970919e+00     0.550405    0.3094114 -62.31  0.001997832    4.221    0.763
        45 -10.8967      2.2477     25.0020   9.1297425111e+01   7.2216838947e+01    0.1713994    0.1290207 -32.70 0.0004931213    1.083    0.077
        46 -10.7995    168.2779    233.1596   8.3867379854e+01   2.3388228433e+00    0.1956206    0.1824602 -71.09  0.001290586    1.546    0.353
        47 -11.6061    138.5080    213.2830   8.7225603919e+01   1.0306890368e+01    0.3646992    0.1179417  29.34  0.001209003    3.453    0.710
