#   1 NUMBER                 Running object number                                     
#   2 MAG_AUTO               Kron-like elliptical aperture magnitude                    [mag]
#   3 X_IMAGE                Object position along x                                    [pixel]
#   4 Y_IMAGE                Object position along y                                    [pixel]
#   5 X_WORLD                Barycenter position along world x axis                     [deg]
#   6 Y_WORLD                Barycenter position along world y axis                     [deg]
#   7 A_WORLD                Profile RMS along major axis (world units)                 [deg]
#   8 B_WORLD                Profile RMS along minor axis (world units)                 [deg]
#   9 THETA_WORLD            Position angle (CCW/world-x)                               [deg]
#  10 FWHM_WORLD             FWHM assuming a gaussian core                              [deg]
#  11 ELONGATION             A_IMAGE/B_IMAGE                                           
#  12 ELLIPTICITY            1 - B_IMAGE/A_IMAGE                                       
         1 -18.4242    217.2158     94.8643   8.3632645406e+01   1.7167313344e+01     8.843948     7.786141  -3.62   0.04270358    1.211    0.174
         2 -11.6718    225.6697     23.6331   6.4092419271e+01   2.5208849423e+01    0.4664339    0.3326022 -52.92  0.001499956    1.323    0.244
         3 -10.9996    202.9808     14.2613   6.4075449544e+01   3.1975298926e+01    0.3159351     0.281606 -50.78  0.001054042    1.153    0.132
         4 -10.8575    238.4994     10.2938   5.9692072571e+01   2.3601836874e+01    0.3315024    0.2488855  70.41  0.001119813    1.317    0.241
         5  -9.3804    184.8895      8.5047   6.4556507758e+01   3.7278407920e+01    0.2171629    0.1243879  70.57  0.001018904    1.549    0.355
         6  -9.3737    142.8434      8.1434   7.0549522670e+01   4.8380326929e+01    0.1950938    0.1469075  39.05 0.0003514848    1.287    0.223
         7  -9.3670    117.0346      7.4763   7.5387026951e+01   5.4908580395e+01    0.2026787    0.1759516  -1.37 0.0006129644    1.215    0.177
         8  -9.3854    209.8813      6.3514   6.1266163671e+01   3.1015143382e+01     0.181678    0.1477444  77.59 0.0004087679    1.116    0.104
         9 -11.5464    166.5731      2.3878   6.5027662301e+01   4.2667025608e+01    0.3154285    0.2281711  63.09 0.0006492534    1.203    0.169
        10  -9.4281    238.4989    223.9709   1.0739684144e+02  -6.2450399345e+00    0.1571174    0.1091887 -20.48 0.0004106982    1.499    0.333
        11  -9.6883    228.5194    250.4759   1.1334262589e+02  -7.6500112342e+00    0.1170163   0.08425514  23.56 0.0008098775    1.002    0.002
        12 -10.6731    180.9271    222.9080   1.1780706653e+02   3.4684660763e+00    0.4460938    0.1519607  38.97  0.001830705    2.444    0.591
        13 -10.0012     63.3353    219.8367   1.4050229838e+02   2.2850427136e+01    0.2331507    0.1076472  56.52 0.0009965438    1.848    0.459
        14  -9.9044    124.2903    215.9513   1.2804729452e+02   1.4405196753e+01    0.1776405    0.1527247  54.47 0.0006783865    1.056    0.053
        15 -10.6066     59.1491    214.8239   1.4088502107e+02   2.4335236563e+01    0.3609869    0.1412842  45.75  0.001359033    2.044    0.511
        16 -10.0919      3.6079    214.1228   1.5097822697e+02   3.0506059673e+01    0.1827657    0.1368855  40.58  0.001453618    1.567    0.362
        17  -9.6070    202.4039    210.7890   1.1172257008e+02   1.4366433592e+00    0.1669393    0.1169403 -15.44   0.00052489    1.647    0.393
        18  -9.1963    210.2079    204.2110   1.0909347427e+02   9.8652027687e-01    0.1580494    0.1422952  38.18 0.0002852173    1.263    0.208
        19  -9.0844    250.6363    202.2074   1.0145027557e+02  -5.5653883434e+00    0.1545939    0.1018561 -13.45 0.0002870149    1.448    0.309
        20 -11.3189    190.2748    200.7876   1.1234341800e+02   5.1054134877e+00    0.4414531    0.2485054  55.26  0.001862917    2.210    0.547
        21 -10.8567    214.0330    197.2573   1.0710967059e+02   1.2930778336e+00    0.4103317    0.3575805  69.61  0.001893072    1.683    0.406
        22 -12.0581    200.4430    193.4174   1.0901258551e+02   4.3520287933e+00    0.6903398    0.4176675  -3.68  0.002869611    2.586    0.613
        23 -11.6295    207.9389    190.8770   1.0708179263e+02   3.3428785782e+00    0.4026478    0.3153687 -14.10 0.0008831293    1.334    0.250
        24 -12.4303    150.0864    194.7607   1.1958056499e+02   1.3632158371e+01    0.6080172    0.3455395 -31.08  0.002253596    2.650    0.623
        25 -12.0068    156.3246    194.4371   1.1820454346e+02   1.2523120915e+01    0.4878836    0.2606959  43.13  0.001841992    1.614    0.380
        26 -10.9249    166.8673    195.7102   1.1621067182e+02   1.0314546252e+01    0.2228999    0.1906132 -18.65  0.001015707    1.359    0.264
        27 -11.8388    142.3205    193.3185   1.2100751535e+02   1.5335519312e+01    0.4243888    0.2781754  74.84  0.001963536    2.266    0.559
        28 -10.4500     46.6918    194.8122   1.4166347582e+02   2.9811559552e+01    0.2026538    0.1709857  75.27 0.0004628874    1.116    0.104
        29 -11.4903    118.0117    190.7517   1.2590127327e+02   2.0187126132e+01    0.3896165    0.2548423 -65.34  0.001194858    1.736    0.424
        30 -10.1766    226.8768    191.0269   1.0354930848e+02  -1.1845823487e-01    0.2907502    0.1843277 -28.61  0.001254332    1.636    0.389
        31 -11.0170    231.3260    187.7295   1.0210468797e+02  -4.4602379462e-01    0.2988907    0.2706407  10.10 0.0006880082    1.170    0.145
        32  -9.7492    129.9064    192.1849   1.2351571687e+02   1.7809207492e+01    0.2042319    0.1640497  64.31 0.0004343803    1.228    0.186
        33 -10.3291    128.4811    188.5111   1.2325708404e+02   1.8775849599e+01    0.1863146    0.1316652 -42.51 0.0009729295    1.710    0.415
        34 -11.6942    214.5607    185.7774   1.0483824393e+02   2.8774684707e+00    0.5003934    0.2839427  26.84  0.002371254    1.821    0.451
        35 -14.0810    194.4515     64.3055   7.9301450548e+01   2.7716715148e+01     1.138215    0.7183467 -36.81  0.001701246    1.582    0.368
        36 -14.6722    189.8970     73.9374   8.2844639980e+01   2.7367007230e+01     1.307242    0.7036792  56.42  0.005305682    1.813    0.448
        37 -15.4036    211.1553     63.8450   7.6460558772e+01   2.3522431928e+01     1.512969      1.13645  -8.56  0.005186751    1.634    0.388
        38  -9.0108    165.2967    249.6100   1.2446973848e+02   2.3710403105e+00    0.1159129   0.08232125  64.19 0.0007011849    1.785    0.440
        39 -14.6507    222.5221     75.7783   7.7868499415e+01   1.8921380944e+01    0.6331146    0.5320547 -43.53  0.001318548    1.148    0.129
        40  -9.9999     33.3206    177.4909   1.4297828096e+02   3.4901677416e+01    0.2919672    0.1209312 -74.80   0.00121521    2.146    0.534
        41 -12.4022     98.1709    117.6725   1.1745969154e+02   3.9651401828e+01    0.5316246    0.3748071  38.40  0.001481587    1.464    0.317
        42 -10.5222     89.8679    116.8062   1.1964496245e+02   4.1270623914e+01    0.2180742    0.1986699 -29.21 0.0005509235    1.201    0.168
        43 -11.3006    177.5907    175.1823   1.1019572315e+02   1.1808048383e+01    0.2674026    0.2326162  29.77 0.0002565288    1.048    0.046
        44 -11.5453    125.6903    109.4657   1.0778110057e+02   3.6124602030e+01    0.3576633     0.282085  65.34  0.001356677    1.439    0.305
        45 -12.5033    130.4045    105.8571   1.0556210380e+02   3.5882927533e+01    0.6413335    0.3693017 -25.31  0.002345449    2.578    0.612
        46 -11.9613    100.3583    106.0288   1.1403357549e+02   4.1895632006e+01    0.5242473     0.406493 -37.28  0.002558522    1.342    0.255
        47  -9.5416     29.5922    106.7067   1.3576057573e+02   5.1158621176e+01    0.1714254    0.1042244 -78.68 0.0004976763    1.546    0.353
        48 -13.1308    124.6162     89.9637   1.0268036426e+02   4.0465139369e+01    0.8262843    0.6028103  -9.25   0.00362663    1.853    0.460
        49 -11.6334    130.8887     92.9207   1.0183130337e+02   3.8468602914e+01    0.4028109    0.2881781  22.76 0.0007045455    1.722    0.419
        50 -11.4329    143.2582     83.6490   9.5871679576e+01   3.7420708702e+01    0.5676777    0.3953549 -12.71  0.001897577    1.913    0.477
        51 -12.3655    140.3177     80.2002   9.5568648947e+01   3.8778497906e+01    0.8354217     0.534179   4.09  0.002998361    2.836    0.647
        52 -12.1676    132.1418     88.1913   1.0011291304e+02   3.9138706917e+01    0.5767475    0.3403977 -47.35   0.00238649    1.780    0.438
        53 -11.9034    136.6724     85.3211   9.8061393397e+01   3.8658577106e+01    0.7965478    0.4911519  76.77  0.002758353    3.051    0.672
        54 -11.9947    127.2421     95.8665   1.0366026219e+02   3.8672590328e+01    0.4357472    0.2985184 -37.81  0.001926781    1.499    0.333
        55 -15.0367    232.6067     79.1702   7.7233466544e+01   1.6021179365e+01     1.375287    0.9244816  32.98  0.002494807    1.847    0.459
        56 -11.7508    231.3145    164.4093   9.7395882355e+01   2.9336950810e+00    0.6471868    0.2377913  40.67  0.001804314    2.624    0.619
        57  -9.3588    236.3018    177.4128   9.9174010903e+01   1.1621562823e-01    0.1701556     0.121149  46.94 0.0009299931    1.552    0.356
        58 -11.3507    116.0675     84.6396   1.0351342730e+02   4.3394765783e+01    0.4204949    0.2709151  53.81  0.001736494    1.697    0.411
        59 -10.0514     95.8556    165.8363   1.2721308416e+02   2.9132772377e+01    0.1909754    0.1479387  70.85  0.000440028    1.281    0.219
        60 -12.5232    125.7280     77.4293   9.8572111057e+01   4.2705821912e+01    0.3929195    0.3053946  43.40 0.0005299594    1.266    0.210
        61 -12.6264    133.2093     73.2822   9.5248216897e+01   4.1757572265e+01    0.7656198    0.4132759  61.90  0.002850823    2.360    0.576
        62 -11.7371    119.5022    158.4987   1.2023026512e+02   2.6603953581e+01    0.3147595    0.1940021  53.47  0.001299741    1.623    0.384
        63 -11.8278    138.5429     64.5207   9.1049113503e+01   4.2038162837e+01    0.5283079    0.3485522 -88.27  0.001965542    2.784    0.641
        64 -11.5097    142.0069     69.5538   9.1812603870e+01   4.0313748738e+01    0.3804569    0.3051932 -58.61  0.001112735    1.441    0.306
        65 -11.0991    145.4898     68.0434   9.0478719878e+01   3.9718812458e+01    0.2915706     0.261359  15.16  0.001072555    1.171    0.146
        66 -11.3519    119.5266     69.5345   9.7773091858e+01   4.5591480696e+01    0.3114068     0.275245 -84.41  0.000970057    1.389    0.280
        67 -10.1992    101.0158     69.6914   1.0334270785e+02   4.9458578665e+01    0.2088169    0.1933692  28.08 0.0007410279    1.083    0.077
        68 -10.8550    152.2941     67.5322   8.8709869243e+01   3.8101642982e+01    0.5202448    0.2345838  37.74  0.001719551    2.812    0.644
        69 -11.1649    102.7231     78.0888   1.0548724184e+02   4.7452832146e+01    0.3528569    0.2047719  24.71   0.00138997    2.343    0.573
        70 -12.5429    161.9696    174.5297   1.1343237582e+02   1.5063547408e+01    0.6494053    0.3398022 -34.88  0.002499463    2.399    0.583
        71 -10.3128     77.2885    154.4465   1.3001598149e+02   3.4543833925e+01    0.2315602    0.1514574  88.50 0.0005355541    1.741    0.426
        72  -9.0277     18.3243     62.2918   1.3124259400e+02   6.1912175283e+01    0.1248811   0.07169943 -37.54 0.0002793731    1.614    0.381
        73 -12.1513    125.9249     56.8500   9.1736687779e+01   4.6365763745e+01    0.6074869    0.2959474  33.06  0.002138169    2.722    0.633
        74  -9.8894     46.0384     58.0008   1.1910382414e+02   6.0358331256e+01    0.1906347    0.1647959 -33.97 0.0003773142    1.023    0.022
        75 -11.5796    121.0936    150.0533   1.1822853460e+02   2.8138074163e+01    0.4098024    0.2801746  71.19   0.00185346    1.861    0.463
        76 -11.9639    116.3659    150.2307   1.1944270794e+02   2.8989531028e+01    0.4619002    0.3038396  75.16  0.002002942    2.117    0.528
        77 -11.1489    123.9849     48.8556   8.9448974128e+01   4.8114127618e+01    0.2862077     0.222288  75.35  0.001382229    1.616    0.381
        78 -11.3377    243.6665     37.3529   6.5594656501e+01   1.9246358400e+01    0.4617444    0.3245607  43.01  0.002462858    1.752    0.429
        79 -10.5160    147.2600     36.9763   7.9753842484e+01   4.4032843485e+01    0.3978313    0.2179134  69.99  0.001596602    2.078    0.519
        80 -11.3124    142.3032     34.8714   8.0080267744e+01   4.5583585769e+01     0.428054    0.2825799  48.13   0.00201768    1.396    0.284
        81 -10.6534    132.3984     31.3667   8.1032921809e+01   4.8537538424e+01    0.3373556    0.2629585 -40.32  0.001492989    1.414    0.293
        82  -9.2640      8.1082    153.1147   1.4655282590e+02   4.2421489795e+01    0.1498487    0.1030545  73.79            0    1.244    0.196
        83 -10.5083    141.1996     29.5378   7.8441352058e+01   4.6537728720e+01    0.3249729    0.1950763   3.22 0.0008246778    2.383    0.580
        84 -10.7433    250.4198     24.6183   6.1985343548e+01   1.9243248644e+01    0.3602179    0.1492183 -32.32  0.001445522    2.231    0.552
        85 -11.2951    240.4943     23.8678   6.2703498942e+01   2.1618826430e+01    0.4982169    0.2255712 -52.17  0.001921483    2.155    0.536
        86 -10.1379    214.8788    243.9290   1.1473748267e+02  -4.8622288850e+00    0.2036597    0.1521542  24.99 0.0005718319    1.018    0.018
        87 -10.0763     12.1121    147.3175   1.4516587806e+02   4.3375641328e+01    0.4591573    0.1587501  61.74  0.001897904    3.660    0.727
        88  -9.9997    201.6641     21.6907   6.6252914326e+01   3.1509627311e+01    0.2273459    0.1936253  52.78 0.0003418529    1.225    0.183
        89 -11.0210    159.9998     19.8415   7.1602841679e+01   4.2732221047e+01    0.2842483    0.2428509  33.00 0.0003894769    1.225    0.184
        90  -9.1889    250.5014    153.5332   9.1761822710e+01   9.5573518768e-01    0.1349284    0.1157554  -0.84 4.653028e-05    1.006    0.006
        91  -9.9782    197.5200     18.0476   6.5744577480e+01   3.2989640709e+01    0.2502133    0.1714669  55.13  0.000390021    1.427    0.299
        92  -9.2190    247.4728    173.9482   9.6523047815e+01  -1.3760595848e+00    0.1783219     0.117823 -24.57 0.0003271742    1.441    0.306
        93 -10.4386    226.0882    241.3798   1.1238078651e+02  -6.3045507302e+00    0.1861293     0.135588   8.67 0.0004726093    1.246    0.197
        94  -9.3067     66.0180    242.4590   1.4178017356e+02   1.8476875595e+01    0.1626707   0.08483343  45.67 0.0003707025    1.507    0.337
        95 -10.8510    213.8405    172.0980   1.0225003764e+02   5.1114769160e+00    0.3901488    0.2867075 -64.48  0.001454473    2.266    0.559
        96  -9.1683    127.3252    238.2765   1.3015833111e+02   1.0177629813e+01    0.1132315   0.08630673  24.04  0.000275997    1.586    0.370
        97  -9.6451    237.0253    234.3415   1.0936817874e+02  -7.1886634322e+00    0.1754167    0.1198843  27.58 0.0007714359    1.135    0.119
        98  -9.0844     69.4001    230.4751   1.4024520165e+02   2.0110373195e+01    0.1149878   0.08716737  64.44 7.630106e-05    1.019    0.019
        99  -9.8521    204.4184    225.7873   1.1382302014e+02  -9.4970177971e-01     0.302692    0.1177512  38.55   0.00137933    2.086    0.521
       100  -9.7354      6.9414    131.0039   1.4498727364e+02   4.7356953935e+01    0.1698053    0.1311321 -80.01  0.001197102    1.045    0.043
