#   1 NUMBER                 Running object number                                     
#   2 MAG_AUTO               Kron-like elliptical aperture magnitude                    [mag]
#   3 X_IMAGE                Object position along x                                    [pixel]
#   4 Y_IMAGE                Object position along y                                    [pixel]
#   5 X_WORLD                Barycenter position along world x axis                     [deg]
#   6 Y_WORLD                Barycenter position along world y axis                     [deg]
#   7 A_WORLD                Profile RMS along major axis (world units)                 [deg]
#   8 B_WORLD                Profile RMS along minor axis (world units)                 [deg]
#   9 THETA_WORLD            Position angle (CCW/world-x)                               [deg]
#  10 FWHM_WORLD             FWHM assuming a gaussian core                              [deg]
#  11 ELONGATION             A_IMAGE/B_IMAGE                                           
#  12 ELLIPTICITY            1 - B_IMAGE/A_IMAGE                                       
         1 -14.0330    208.8500     10.4640   4.4770667773e+01   3.1211509505e+01     1.866834     1.484172 -70.78   0.01036983    1.231    0.187
         2 -14.0093    191.3574     35.8527   5.4513545870e+01   3.2802950012e+01     1.170088       1.0481 -32.24  0.003181217    1.101    0.092
         3 -13.9227    199.6057     25.9010   5.0353900977e+01   3.1887824613e+01     0.935644    0.8316185  14.78  0.001469584    1.264    0.209
         4 -12.6858    221.8273      2.3429   4.1346225756e+01   2.8769146605e+01    0.8500459    0.3542831  76.86  0.002973513    2.417    0.586
         5 -12.9844     60.3717      4.0303   7.2660420415e+01   6.7795679896e+01      0.55238    0.3875415  32.06  0.003257913    1.386    0.279
         6 -12.5661     49.0168    233.4605   1.2455829644e+02   2.2163323721e+01    0.2568228    0.1469887  79.50 0.0005578917    1.580    0.367
         7 -16.3767     95.3230    239.6799   1.1710313473e+02   1.5367789155e+01     6.522512     2.114072  34.07   0.02725634    3.850    0.740
         8 -11.2496     69.7622    209.2087   1.1915296931e+02   2.3849788946e+01    0.2955963    0.1556154  53.03 0.0002838137    1.540    0.351
         9 -10.9078     58.4091    214.9325   1.2170686988e+02   2.4235547154e+01    0.4649481    0.2890693  58.35  0.003162996    1.252    0.201
        10 -14.0207     55.6475    204.8798   1.2146947491e+02   2.6395853051e+01    0.8747354    0.5475173  62.02  0.002594124    1.288    0.224
        11 -10.3486     53.5708    231.2630   1.2365653345e+02   2.2000711363e+01    0.1981028    0.1435604  88.71  0.001369839    1.321    0.243
        12  -8.0398     43.5882    210.6572   1.2410955626e+02   2.6731696479e+01    0.4800187    0.1979816  78.35  0.002409791    2.798    0.643
        13 -10.7834     43.8898    205.7733   1.2373306047e+02   2.7593957306e+01    0.1895159    0.1644447  70.80  0.001496406    1.251    0.201
        14 -11.9674     38.6125    211.8683   1.2508306242e+02   2.7062035575e+01    0.4212399    0.1561187  64.46  0.002139186    2.616    0.618
        15  -9.8765     43.8427    219.9998   1.2464732015e+02   2.5037300052e+01    0.1415669    0.1158044 -61.30  0.001066292    1.705    0.413
        16 -11.8237    129.4158    210.8786   1.0793728975e+02   1.4957238551e+01    0.2589589    0.1811732  76.62  0.001539682    1.775    0.437
        17 -12.9280    106.0927    209.5471   1.1225326468e+02   1.8752541804e+01     0.682614    0.3959573  84.22  0.003551827    2.470    0.595
        18 -12.6704    107.9265    203.5563   1.1122239970e+02   1.9526860640e+01    0.4449247    0.2236968  51.85 0.0002886564    1.756    0.430
        19 -10.6936     75.3520    206.8391   1.1788530448e+02   2.3553095698e+01    0.2399979    0.2029242 -82.88  0.001239621    1.274    0.215
        20  -9.8574     52.1778    227.1958   1.2364172704e+02   2.2845593334e+01     0.188699   0.09807906  63.20   0.00121493    1.570    0.363
        21 -19.3500      7.5321    135.2598   1.2635720446e+02   4.5587392511e+01     17.07651     1.883431 -78.21   0.04070815    9.476    0.894
        22 -11.2148    114.0879    209.5064   1.1071145923e+02   1.7559159282e+01    0.1857154    0.1002539  42.25  0.000673232    1.556    0.358
        23  -9.7853     31.9632    205.2140   1.2588907402e+02   2.8990402575e+01    0.1711058    0.1165328  44.00 0.0004441446    1.433    0.302
        24 -12.0579    193.3408    193.6975   9.3255670079e+01   6.9004472083e+00    0.7942446     0.429455 -53.97  0.003672553    3.022    0.669
        25 -10.5912    155.9785    199.9996   1.0134374274e+02   1.2371544954e+01    0.3261199    0.2367465  79.77   0.00180798    2.039    0.510
        26 -11.2706     96.2191    200.1513   1.1314885190e+02   2.1878793462e+01     0.354248    0.2469355  31.65    0.0016123    1.625    0.385
        27 -10.7266    209.8894    199.6120   9.1270490107e+01   3.2891866742e+00    0.2038892    0.1732981 -29.58 0.0005946603    1.383    0.277
        28 -11.1889     44.5892    198.9545   1.2313048932e+02   2.8795445449e+01     0.255144    0.2541347   7.56  0.002066472    1.552    0.356
        29 -11.1603    141.3065    198.2720   1.0395783016e+02   1.5120460568e+01    0.2319678    0.1909293  61.32 0.0004430466    1.206    0.171
        30  -9.6155     36.1460    234.0637   1.2672813508e+02   2.3492246719e+01    0.1349163    0.1069244  72.89 0.0005038432    1.203    0.169
        31 -10.6554     49.0473    216.7735   1.2352350873e+02   2.5013721851e+01    0.3498355     0.244051  21.86  0.002300526    2.247    0.555
        32 -10.7220     35.4173    197.6693   1.2478384615e+02   3.0044477043e+01    0.1870494    0.1168941  54.41 0.0006371745    1.299    0.230
        33 -10.6382     80.5330    194.5990   1.1569378223e+02   2.5139471081e+01    0.3708505    0.1757248  50.44  0.001351209    1.807    0.446
        34 -13.3307     65.1088    191.3740   1.1848661366e+02   2.7801504662e+01    0.7015289    0.6202558 -74.21  0.003577766    1.330    0.248
        35 -12.5939     30.4249    197.5172   1.2571387790e+02   3.0596127719e+01    0.1977139    0.1460653  64.85  0.001246783    1.078    0.072
        36 -10.3496     60.7607    230.7057   1.2238955254e+02   2.1239078254e+01    0.1627111    0.1133239  76.97 0.0003857448    1.246    0.197
        37  -9.4600     42.3262    230.5253   1.2551537885e+02   2.3405062772e+01    0.1455604   0.08188199 -82.31  0.001009354    1.730    0.422
        38 -10.4918    150.2818    181.9562   9.9672454365e+01   1.6375006140e+01    0.2379047    0.1556652 -76.25  0.001124766    2.486    0.598
        39 -11.4136     99.3402    180.8163   1.1019711360e+02   2.5090893024e+01     0.265697    0.2051341  42.19 0.0005273699    1.264    0.209
        40 -11.0074    143.8091    178.8215   1.0049616002e+02   1.8079937720e+01    0.1891491    0.1483137  63.32  0.001080514    1.343    0.256
        41  -9.8667     73.6082    189.7744   1.1660775548e+02   2.7008298997e+01    0.2122727     0.148254  56.90  0.001346682    1.207    0.171
        42 -11.9406     42.6594    172.0039   1.2140520132e+02   3.4392575011e+01    0.5546199    0.2241219  55.92   0.00173717    2.325    0.570
        43 -10.0570    164.9745    171.5244   9.4871166487e+01   1.5519664923e+01    0.2202415    0.1869162 -70.05  0.000534353    1.461    0.315
        44 -10.8464    152.4815    193.6406   1.0107147446e+02   1.4000776349e+01    0.3263897    0.1898766  61.90  0.001541244    2.298    0.565
        45 -11.1487    194.1969    167.2448   8.8269585474e+01   1.0728369593e+01    0.3007884    0.2825098  13.88 0.0008559041    1.091    0.083
        46 -10.4896    203.5089    165.4376   8.6151205320e+01   9.2569493833e+00    0.4075281     0.299239  -8.43  0.002228204    1.487    0.327
        47 -10.1415    230.3037    166.6395   8.1592625979e+01   4.1895149280e+00    0.1184937    0.1049494 -64.29 0.0007038306    1.726    0.421
        48  -9.7549     72.0411    230.1681   1.2039473387e+02   1.9933237865e+01    0.1576032   0.09974878  59.32 0.0003860045    1.223    0.182
        49 -12.7935     94.3683    155.2153   1.0770195757e+02   3.1152063724e+01    0.6469517    0.4476046 -31.80  0.003232864    2.199    0.545
        50  -9.5209    140.7798    157.5701   9.7452780708e+01   2.2632159347e+01    0.1923815    0.1234484  53.82  0.000352425    1.576    0.366
        51 -10.9767    189.2243    155.3779   8.6849431507e+01   1.3613946815e+01    0.4138345    0.3075115  47.98  0.002206048    1.350    0.259
        52 -10.8816    134.2441    148.2630   9.7160357117e+01   2.5719204442e+01    0.3992788    0.2563456 -66.45  0.001846097    1.929    0.482
        53 -11.4984    134.0000    144.0083   9.6379593466e+01   2.6637048839e+01    0.8078359    0.2891101 -58.87  0.002380899    4.556    0.781
        54  -9.9631    113.1996    151.0282   1.0257246778e+02   2.8952382318e+01    0.2322901     0.154245 -89.94  0.001075765    2.045    0.511
        55 -10.4628    174.7320    149.1680   8.8480337106e+01   1.7577955721e+01    0.2488586    0.2039415  39.04 0.0007161027    1.154    0.133
        56 -10.9065    144.8574    146.7832   9.4452325562e+01   2.3980678732e+01    0.2827581     0.195559 -80.00  0.001263747    2.173    0.540
        57 -11.6502    106.5869    140.1475   1.0220614302e+02   3.2440429038e+01    0.5159829    0.3214195 -32.27  0.002260074    2.408    0.585
        58 -12.5405     94.1965    140.5332   1.0534939919e+02   3.4404830099e+01    0.2958768    0.2744148 -24.48 0.0004204148    1.340    0.254
        59 -10.8439    106.0227    130.8291   1.0055896086e+02   3.4601957747e+01    0.3665069    0.2981721 -89.20  0.001205639    1.311    0.237
        60 -10.9987    101.5121    126.8592   1.0092543888e+02   3.6271578869e+01    0.2663467    0.2265793 -26.16  0.000647202    1.452    0.312
        61 -11.4401    114.2317    130.6625   9.8447739506e+01   3.3177173878e+01    0.7215279    0.2872916  33.67  0.002451533    3.314    0.698
        62 -11.3734    118.4469    125.7885   9.6354044381e+01   3.3468412605e+01    0.6040418    0.3155784 -31.85   0.00215386    3.172    0.685
        63 -10.9802    135.8186    128.2236   9.2608912010e+01   2.9567748228e+01    0.4137927    0.1702429 -53.52  0.001460939    2.752    0.637
        64 -10.2521    109.8408    119.3956   9.7167679727e+01   3.6479581218e+01    0.2513206    0.2023619 -45.97 0.0006988512    1.263    0.208
        65  -9.4287     63.9290    223.6062   1.2134324251e+02   2.2048517512e+01    0.1440964   0.09760129  61.18 0.0004793713    1.123    0.110
        66  -9.8945    167.7561    112.6740   8.1487444605e+01   2.5876518761e+01    0.3124087    0.2244936 -79.23  0.001317654    2.161    0.537
        67 -11.2778    119.1177    110.7302   9.2711859792e+01   3.6649903043e+01    0.5694007    0.2666387  52.91  0.002122629    2.484    0.597
        68 -10.1753    205.6076    110.1199   7.3246743533e+01   1.7796897677e+01    0.2771487    0.2092249  38.78 0.0007114207    1.349    0.259
        69  -9.4366     99.5288    108.4430   9.7463737033e+01   4.0802109729e+01    0.1443101    0.1355876 -74.58 8.012479e-05    1.013    0.013
        70 -10.3811    198.6504    222.8248   9.6909583850e+01   2.1717902581e+00    0.1946537    0.1285394  30.76 0.0004523775    1.223    0.182
        71 -11.7507     53.2866     90.7839   1.0740670953e+02   5.1741982966e+01    0.3336549    0.2196032 -63.75  0.001426233    1.320    0.242
        72 -11.5983     42.0882     91.7493   1.1121753548e+02   5.2740287666e+01    0.2482717    0.2287789 -78.61 0.0006964199    1.107    0.097
        73 -12.1830    184.2288    215.9699   9.8442848104e+01   5.3428120169e+00     0.481088    0.3826676 -71.46  0.003062445    2.020    0.505
        74  -9.5291     66.8382     70.8637   9.7871282339e+01   5.4585764527e+01    0.1781128    0.1584706  83.87 0.0004844274    1.308    0.236
        75 -11.1948    161.0930     62.4586   6.8403218531e+01   3.6693906741e+01    0.3322932    0.2723845 -84.31 0.0008039798    1.473    0.321
        76 -10.8954    162.8969     55.5752   6.5790137590e+01   3.7364193802e+01    0.2803222    0.2188658  -6.85 0.0005415174    1.458    0.314
        77 -10.4758    172.0089    239.3792   1.0376127290e+02   4.2337732506e+00     0.208347    0.1722182  54.84  0.001548285    1.346    0.257
        78 -13.5900    180.6564     45.0021   5.9070345576e+01   3.4357536259e+01     1.057021     0.772532 -18.18 0.0008256615    1.455    0.313
        79  -9.5993     53.4650    238.8414   1.2413130155e+02   2.0774016708e+01    0.1308148   0.08700941 -88.76 0.0006390936    1.465    0.317
        80  -9.4814     43.1064    236.8250   1.2572747504e+02   2.2278040709e+01    0.1208073    0.1138932  73.62 0.0007546055    1.543    0.352
        81 -16.2749     72.2203    150.3509   1.1227591343e+02   3.5458193685e+01      5.66395     2.865642  79.73   0.01535918    3.115    0.679
        82  -8.9640     60.2379    236.2425   1.2284002099e+02   2.0394137825e+01   0.08175547   0.07309173  57.27            0    1.387    0.279
