#   1 NUMBER                 Running object number                                     
#   2 MAG_AUTO               Kron-like elliptical aperture magnitude                    [mag]
#   3 X_IMAGE                Object position along x                                    [pixel]
#   4 Y_IMAGE                Object position along y                                    [pixel]
#   5 X_WORLD                Barycenter position along world x axis                     [deg]
#   6 Y_WORLD                Barycenter position along world y axis                     [deg]
#   7 A_WORLD                Profile RMS along major axis (world units)                 [deg]
#   8 B_WORLD                Profile RMS along minor axis (world units)                 [deg]
#   9 THETA_WORLD            Position angle (CCW/world-x)                               [deg]
#  10 FWHM_WORLD             FWHM assuming a gaussian core                              [deg]
#  11 ELONGATION             A_IMAGE/B_IMAGE                                           
#  12 ELLIPTICITY            1 - B_IMAGE/A_IMAGE                                       
         1 -14.1927    117.0876    128.9372   1.0721350363e+02   3.3354320034e+01      3.40153     1.014953 -49.33   0.01110525    3.392    0.705
         2 -13.3304    184.9479     32.8527   6.3717706786e+01   3.4770697827e+01     1.052574    0.9933156  35.65  0.003276984    1.051    0.048
         3 -13.7213    191.4569     23.5289   5.9878782354e+01   3.4141900200e+01     1.051211    0.8419901  -0.51  0.001273114    1.378    0.274
         4 -11.6382    208.4913      4.7053   5.2398596909e+01   3.1650528772e+01    0.5952135     0.192422 -20.42  0.002153603    3.232    0.691
         5  -9.8243    114.5155      2.9992   6.5753824519e+01   5.6289800330e+01    0.2147685    0.1374652 -15.64  0.001043175    1.622    0.383
         6 -11.6128    180.3987    193.3172   1.0482283299e+02   1.0205775723e+01      0.34066    0.3019431  71.43   0.00215285    1.628    0.386
         7 -17.5123    116.7878    230.2060   1.2228674188e+02   1.4549797713e+01      7.97316     3.609143  42.63   0.04442159    1.689    0.408
         8 -11.7673     70.7129    194.5219   1.2795884413e+02   2.6760135384e+01    0.5695761    0.4692323  31.15  0.003972542    1.345    0.256
         9 -15.5603     75.4215    245.2612   1.3107256051e+02   1.7626264312e+01     1.383843    0.6006266  32.01  0.007496915    2.267    0.559
        10 -11.0152     82.9436    178.8506   1.2367310623e+02   2.8216466581e+01    0.3480844     0.220473 -38.42  0.001845086    2.279    0.561
        11 -11.3352     86.0133    173.9851   1.2239270542e+02   2.8770405766e+01    0.3083552    0.2648406  21.50 0.0009843091    1.351    0.260
        12 -11.0969    197.7278    174.8725   9.8098475552e+01   9.9130189586e+00    0.4355186    0.3079407 -38.45  0.001896388    1.640    0.390
        13 -11.4302    136.1656    171.0926   1.1046656814e+02   2.1514977094e+01    0.3890391    0.1990428  32.68  0.001751681    1.927    0.481
        14  -9.9564    203.1997    167.6441   9.5626974343e+01   9.9942204859e+00    0.2278995    0.1853614 -56.72  0.001130671    1.871    0.465
        15 -19.4884     19.4125    141.5594   1.3501385410e+02   4.2937859949e+01     17.60806     1.578843 -75.77   0.03981908   10.663    0.906
        16 -12.7039     98.4106    156.2004   1.1697242024e+02   3.0634423409e+01     1.107253    0.7988905  -9.65  0.005539171    2.188    0.543
        17 -12.4943    104.9604    129.4259   1.1055640012e+02   3.5355041725e+01    0.7124854    0.4969141  77.02  0.003308995    2.022    0.505
        18 -13.4632    108.6853    141.1080   1.1181870438e+02   3.2199475762e+01    0.9949734    0.7206734 -47.70  0.004002577    1.446    0.309
        19 -10.3181     60.6802    189.9053   1.2965240709e+02   2.8840666036e+01    0.2464146    0.1683157 -73.14   0.00155714    1.498    0.332
        20 -11.5240    144.0235    145.2677   1.0385307552e+02   2.5008295035e+01    0.3999086    0.3240147 -75.77   0.00128791    1.637    0.389
        21 -12.1607     96.9182    141.5435   1.1495010226e+02   3.3999504995e+01    0.3917034    0.3657383  74.77 0.0005216072    1.048    0.046
        22 -10.8665    160.6858    128.6569   9.6274529169e+01   2.4883818036e+01    0.4404728    0.2620838 -39.81  0.001951758    1.747    0.427
        23 -11.6449     68.3441    116.0113   1.1838881141e+02   4.3857626223e+01    0.3236072    0.2585841 -48.22 0.0009504164    1.255    0.203
        24  -9.7651    167.8442    112.6554   9.0699620920e+01   2.6337313005e+01    0.3770776     0.273873 -74.00  0.001589105    2.315    0.568
        25 -11.9079    207.6177    183.7823   9.7860485296e+01   6.9287463908e+00    0.4763948    0.2871104 -39.72  0.001932046    1.992    0.498
        26 -11.8989    220.2469    185.6415   9.5860635076e+01   4.5629546881e+00    0.6628355    0.2540155  29.88  0.002710881    2.742    0.635
        27  -9.4750    205.4084    110.1270   8.2226817278e+01   1.8489034361e+01    0.2578471    0.1889278  34.05 0.0007016045    1.338    0.252
        28 -12.7212    111.8290    119.4073   1.0656495019e+02   3.6360437612e+01    0.7054995    0.5351331  -3.90  0.002184061    1.760    0.432
        29 -13.5296    133.3622    143.2700   1.0602301944e+02   2.7401106487e+01     1.228059    0.7093259 -54.41  0.005523385    1.967    0.492
        30 -11.5105    173.2327     72.1542   7.8132469148e+01   3.2182236680e+01    0.6395091    0.4201807 -81.16  0.001304984    2.918    0.657
        31 -13.1634    135.5306    125.3407   1.0163088513e+02   3.0634482286e+01     1.219831    0.4734758 -46.96    0.0043712    2.693    0.629
        32 -11.1451    163.5773     54.2626   7.4508362198e+01   3.7417783242e+01     0.439728    0.1483782 -29.75  0.001395311    2.994    0.666
        33 -11.5478    134.6265    107.7662   9.7592090421e+01   3.4428034375e+01     1.299353    0.1459081 -44.39  0.002428815    9.092    0.890
        34 -13.0049    173.6446     43.1625   6.8914970104e+01   3.6406667488e+01    0.8184243    0.7064243  39.74 0.0008363993    1.133    0.118
        35 -11.4818    210.9924    181.2596   9.6757277663e+01   6.6971945369e+00    0.4013337    0.2493903  -6.51  0.001717257    1.836    0.455
        36 -10.9366     78.0030    217.6806   1.2852926504e+02   2.1712524447e+01    0.1767398    0.1352716  68.23 0.0004811079    1.195    0.163
        37  -9.4247    216.5215     18.5121   5.5445661217e+01   2.8324442327e+01    0.1344262    0.1282309 -60.55 0.0001407988    1.002    0.002
        38 -11.5385    127.3873    181.4437   1.1406776311e+02   2.1079697090e+01    0.4203237    0.3434821  32.32  0.001157192    1.137    0.120
