#   1 NUMBER                 Running object number                                     
#   2 MAG_AUTO               Kron-like elliptical aperture magnitude                    [mag]
#   3 X_IMAGE                Object position along x                                    [pixel]
#   4 Y_IMAGE                Object position along y                                    [pixel]
#   5 X_WORLD                Barycenter position along world x axis                     [deg]
#   6 Y_WORLD                Barycenter position along world y axis                     [deg]
#   7 A_WORLD                Profile RMS along major axis (world units)                 [deg]
#   8 B_WORLD                Profile RMS along minor axis (world units)                 [deg]
#   9 THETA_WORLD            Position angle (CCW/world-x)                               [deg]
#  10 FWHM_WORLD             FWHM assuming a gaussian core                              [deg]
#  11 ELONGATION             A_IMAGE/B_IMAGE                                           
#  12 ELLIPTICITY            1 - B_IMAGE/A_IMAGE                                       
         1 -14.3007     68.2523    144.4713   1.0721078982e+02   3.7318372473e+01     3.480165     1.596259 -85.63  0.002709285    4.632    0.784
         2 -14.2516    224.9823     15.3743   3.9055608237e+01   2.7296266846e+01     1.928393     1.296548  35.05  0.008940104    2.220    0.550
         3 -14.0669    199.5630     38.6657   4.7791951549e+01   3.0546014989e+01     1.590071     1.369123  -7.35  0.004696201    1.424    0.298
         4 -13.3601    207.6970     33.1826   4.5297948206e+01   2.9263173644e+01      0.87598    0.6875789 -70.23  0.003367836    1.216    0.178
         5 -12.6872    215.3342     25.4290   4.2450453454e+01   2.8387280271e+01    0.6100873    0.4308552  45.13  0.001172592    1.721    0.419
         6 -10.4915      2.1532      3.9811   9.5328637061e+01   7.3911681567e+01    0.2684705   0.06203951 -49.19  0.001129651    3.643    0.726
         7 -10.4365     49.3495      3.0640   7.0276650717e+01   6.8677113236e+01    0.1859923    0.1699289  51.83 0.0009170308    1.636    0.389
         8 -13.2490     31.6085    248.0426   1.2527646604e+02   1.9519389249e+01    0.8272285    0.7981337  29.63  0.006933857    1.700    0.412
         9 -10.0586    174.5023    250.0442   9.9280370523e+01  -1.1456810397e+00    0.2310226    0.1414407  49.34  0.001272378    1.645    0.392
        10 -13.4706     44.5613    221.7074   1.2128544850e+02   2.2980651005e+01     1.412137    0.8864742  34.01  0.008720285    1.794    0.443
        11 -15.1231     87.0811    246.9227   1.1537808114e+02   1.2672639853e+01     8.847402     2.962564  30.03   0.02666353    6.823    0.853
        12 -15.4786      8.2082    238.9980   1.2872276133e+02   2.3620212275e+01     6.811619     1.127029 -78.73    0.0231524    5.533    0.819
        13 -14.5340      9.5598    207.3573   1.2694259970e+02   2.9603304133e+01     1.065261    0.9403822   9.53  0.003334351    1.832    0.454
        14 -15.8971     43.6093    197.4178   1.1952185992e+02   2.8126242618e+01     9.167343     3.344312  76.71   0.02707695    6.328    0.842
        15 -10.3484     65.6739    196.6826   1.1475545871e+02   2.5519136498e+01    0.3667779    0.3174199 -38.77  0.002324551    1.603    0.376
        16  -8.6291    156.6345    200.6751   9.5404821366e+01   9.9036854456e+00    0.1425323    0.1051683   5.73  0.000703826    1.797    0.444
        17 -11.1529    193.2335    193.1206   8.6444989249e+01   4.6124887512e+00     0.733511    0.4423237 -52.07  0.003478898    2.116    0.527
        18  -9.1270    150.4933    188.4769   9.4641814144e+01   1.3377232346e+01     0.141977    0.1306442  43.58 0.0006280809    1.013    0.013
        19 -12.2070     62.3555    180.3608   1.1366925929e+02   2.9596623256e+01    0.4420034    0.3521809 -19.14  0.001578904    1.982    0.495
        20 -12.0479     67.3591    174.8700   1.1182841416e+02   3.0190263155e+01    0.3212796    0.2556228 -58.04 0.0007845681    1.344    0.256
        21  -9.4024     99.4953    180.9808   1.0508331467e+02   2.3980683174e+01    0.2100212    0.1737208  49.81 0.0004907949    1.146    0.128
        22 -13.5417     35.4731    208.5353   1.2206408925e+02   2.6703682333e+01    0.7460343    0.5327684  17.78  0.001735171    2.187    0.543
        23 -11.7021     77.0061    164.9858   1.0813166408e+02   3.1147484955e+01    0.3078945    0.2854398  64.67 0.0003472737    1.114    0.103
        24 -13.7937     81.6406    158.1364   1.0591265950e+02   3.2089325545e+01     3.249418     1.218811  53.70  0.001173678    3.610    0.723
        25 -10.1777    230.8351    168.0968   7.4231716900e+01   2.0217016414e+00    0.3435539    0.1804548 -56.40  0.001229545    3.931    0.746
        26  -9.1149    162.1118    167.4928   8.8069691702e+01   1.5381137780e+01    0.2111065     0.141123  42.26 0.0003261789    1.436    0.304
        27  -8.8612    192.5015    165.4844   8.1092109303e+01   9.7165023902e+00    0.1458988     0.135158   6.75 0.0002987199    1.017    0.016
        28 -11.1598     32.3287    155.9283   1.1804113596e+02   3.8777329918e+01    0.2086298    0.1952654  32.37 0.0008605164    1.355    0.262
        29 -12.4453     39.8293    233.9659   1.2301048351e+02   2.1164166578e+01    0.4271913    0.2524189  66.25  0.001246109    1.355    0.262
        30  -9.3785    174.5954    148.3053   8.1166907397e+01   1.6745134354e+01    0.2929493    0.1449004 -47.34  0.001105961    2.106    0.525
        31 -10.3518    134.0000    146.5744   9.0343841748e+01   2.5552061372e+01    0.6058323    0.1951589 -54.99  0.001745955    3.823    0.738
        32  -9.9644    133.4030    141.1693   8.9309228766e+01   2.6899829028e+01    0.3620274    0.1914374 -51.62  0.001434783    1.921    0.479
        33 -13.7545     87.5280    227.6690   1.1346028559e+02   1.6117965078e+01     1.437256    0.6797927  55.00  0.001051025    1.942    0.485
        34  -8.6946    211.2788    202.6747   8.4675875588e+01  -1.0408568535e-01    0.1155419    0.1071131  85.84 0.0006627954    1.591    0.371
        35 -10.6685     47.9465    145.7426   1.1281806073e+02   3.9552714864e+01    0.2452694    0.1899032   8.36  0.001387258    1.794    0.443
        36 -10.9022     98.2943    143.9603   9.9043730577e+01   3.2820680876e+01    0.3210419    0.3006238 -47.32 0.0007757854    1.138    0.122
        37 -10.0219    101.2148    140.1787   9.7509780389e+01   3.3224622198e+01    0.3567572    0.2583503 -22.92  0.001616156    1.955    0.488
        38 -12.3908     86.4730    142.3180   1.0190870959e+02   3.5157982741e+01    0.2997296    0.2634166 -47.82 0.0005098547    1.199    0.166
        39 -10.1313     81.5238    141.5440   1.0310991462e+02   3.6113582968e+01    0.2777563     0.206433  72.60 0.0005993104    1.494    0.331
        40 -10.6942     31.8506    143.9529   1.1679850246e+02   4.1673521852e+01    0.2785748    0.1741817  49.42  0.001556102    1.664    0.399
        41 -10.8346    107.9111    131.4657   9.3846711353e+01   3.4107227317e+01    0.6106159    0.3427461  44.96  0.002562187    1.822    0.451
        42  -9.3457     38.0855    133.5374   1.1378032817e+02   4.3572713980e+01    0.1711459    0.1274918  37.28 0.0008740652    1.513    0.339
        43 -11.4610     17.1554    132.2778   1.1930817041e+02   4.5739835372e+01    0.3435771    0.1369873 -66.86  0.001635035    1.940    0.485
        44 -11.0633    135.3601    122.8869   8.4508990467e+01   3.0643149200e+01    0.7123893    0.1485363 -50.80  0.001534847    6.244    0.840
        45 -11.5258     46.9189    129.3731   1.1068505931e+02   4.3653964272e+01    0.3255982    0.2337162  36.63  0.001827986    1.554    0.356
        46 -10.6905     96.8207    128.1541   9.6192877533e+01   3.6878834147e+01    0.3261125    0.2632068 -21.90  0.001621436    1.538    0.350
        47 -13.5977     64.4018    160.9409   1.1069544239e+02   3.3861895518e+01    0.5831286    0.3373346 -48.09  0.002806987    1.957    0.489
        48  -8.8693    125.6412    127.3302   8.8126927097e+01   3.1646005573e+01    0.1641865    0.1227541  82.97 0.0007042454    1.793    0.442
        49 -10.1892    116.2611    126.0891   9.0345119412e+01   3.3796755572e+01    0.3910452    0.2743983 -78.51  0.001679229    1.896    0.473
        50  -9.2993    239.3299    126.7012   6.3724523039e+01   7.3504192726e+00     0.136875    0.1073544 -66.01 0.0002676337    1.641    0.391
        51 -11.5333     45.9744    123.1448   1.0994979925e+02   4.5278314819e+01     0.378791    0.2579418 -20.78  0.001921736    2.108    0.526
        52 -11.4780     23.3897    117.8628   1.1575787577e+02   4.8691136586e+01    0.3830292    0.1886922 -62.40 0.0009555363    1.615    0.381
        53  -9.8965    168.0502    113.1793   7.4097369010e+01   2.5438460703e+01    0.3781464    0.2601689 -72.36  0.001218191    2.127    0.530
        54  -8.8490    230.6682    113.3195   6.2038599954e+01   1.1378690429e+01    0.1460536    0.1087265 -66.50 0.0004184507    1.693    0.409
        55 -10.1723    205.2565    110.5697   6.5794253914e+01   1.7388283421e+01    0.3281865    0.2589956  32.89  0.001130753    1.407    0.289
        56 -10.8896    245.8226    106.7007   5.8151311610e+01   9.3990484864e+00    0.3117066    0.1807798  79.17  0.001221819    3.343    0.701
        57 -10.1163    134.4853    102.9616   7.9520081958e+01   3.5241226763e+01    0.3152301    0.1524217 -39.60   0.00110579    2.122    0.529
        58  -9.6116     63.1371    201.8334   1.1583259661e+02   2.4747403365e+01    0.1910212    0.1389304  71.18 0.0003829788    1.198    0.165
        59  -9.9554    106.7632    120.0792   9.1549109423e+01   3.7020258608e+01    0.2249804    0.2143236  49.57 0.0003282117    1.084    0.078
        60 -10.8728    248.4936    102.6724   5.6843037816e+01   9.5235609197e+00    0.3063825    0.1304536  55.11  0.001267815    2.687    0.628
        61  -9.5141    137.6552    170.6941   9.4324674077e+01   1.9484708987e+01     0.147722    0.1172406  -0.44  0.000704224    1.692    0.409
        62 -11.6349    245.7896     92.8062   5.4952533585e+01   1.1665258887e+01      0.32609    0.2097452  -7.24  0.001431952    2.452    0.592
        63 -11.0169    249.3748     87.6784   5.3285615396e+01   1.1747900076e+01    0.2843882    0.1807088  82.27 0.0009891539    2.232    0.552
        64  -9.7555     72.4469     83.4356   9.2666929495e+01   5.1321876212e+01    0.3032319    0.2106295  75.04 0.0008732956    2.427    0.588
        65  -9.7117    159.9806     81.4813   6.7139848560e+01   3.3619469114e+01    0.2356474    0.1526433  51.53 0.0005533571    1.540    0.351
        66  -9.0741     48.0059     62.5446   9.5425858122e+01   5.9094567715e+01    0.1726651    0.1281029  25.13 0.0004481397    1.487    0.328
        67 -10.4376     13.4087     60.2050   1.0870059068e+02   6.2656390273e+01    0.2069905    0.1719383 -57.02 0.0004233512    1.120    0.107
        68 -13.1230     23.7485    224.4975   1.2531850351e+02   2.4770990114e+01    0.9190621    0.4063885  64.88  0.003737079    1.938    0.484
        69 -11.4732     63.7486    237.6200   1.1890962245e+02   1.7522060689e+01    0.4208435    0.2378895  51.24  0.001293029    1.402    0.287
        70  -9.3168     20.4862     52.5107   1.0374182278e+02   6.3798101121e+01    0.1238949   0.09749582 -41.46 0.0008104366    1.004    0.004
        71 -10.3074     56.1999    235.3383   1.2012705298e+02   1.8917299931e+01    0.1780355    0.1437257 -81.47 0.0007740025    1.324    0.245
        72 -10.5529    137.9060     44.0905   6.0335635476e+01   4.5324946839e+01    0.3418482     0.254678 -84.09 0.0008789871    1.787    0.440
        73 -10.5617     53.9591    231.4522   1.2024859021e+02   1.9934824287e+01    0.3285538    0.1523697 -79.06  0.001603158    2.213    0.548
        74 -10.4258    189.6748     15.1344   4.2666077988e+01   3.5873140431e+01    0.2340124    0.1727469  88.82 0.0006251456    1.278    0.217
        75 -13.9657      4.7861    183.2569   1.2646908049e+02   3.5088137269e+01     1.888677    0.4423888 -79.58  0.007392542    3.678    0.728
