#   1 NUMBER                 Running object number                                     
#   2 MAG_AUTO               Kron-like elliptical aperture magnitude                    [mag]
#   3 X_IMAGE                Object position along x                                    [pixel]
#   4 Y_IMAGE                Object position along y                                    [pixel]
#   5 X_WORLD                Barycenter position along world x axis                     [deg]
#   6 Y_WORLD                Barycenter position along world y axis                     [deg]
#   7 A_WORLD                Profile RMS along major axis (world units)                 [deg]
#   8 B_WORLD                Profile RMS along minor axis (world units)                 [deg]
#   9 THETA_WORLD            Position angle (CCW/world-x)                               [deg]
#  10 FWHM_WORLD             FWHM assuming a gaussian core                              [deg]
#  11 ELONGATION             A_IMAGE/B_IMAGE                                           
#  12 ELLIPTICITY            1 - B_IMAGE/A_IMAGE                                       
         1 -14.8599      3.1475    133.2684   1.4348333474e+02   4.6856842434e+01     5.583023    0.5978842 -70.37   0.01590628    6.223    0.839
         2 -11.9532      3.5552     49.5902   1.2895916435e+02   6.4308329365e+01    0.3777205    0.2124793 -46.99  0.002487118    1.291    0.225
         3 -13.5122    214.5587      8.2567   6.1652138734e+01   3.0691828734e+01    0.9695243    0.7691889  65.04  0.003288613    1.262    0.208
         4 -13.5220    199.4657     26.4196   6.7755736563e+01   3.2261539699e+01     1.437962     1.314884  22.82  0.007189043    1.381    0.276
         5 -13.1490     62.2031    176.4316   1.3516552399e+02   3.1038477027e+01    0.5104365    0.2739227 -47.19  0.001673496    2.305    0.566
         6 -11.1805    247.8900    249.6399   1.0904424503e+02  -1.4012653591e+01    0.4059399    0.1808548  39.12  0.002157515    2.002    0.500
         7 -10.9062    139.3969    245.7860   1.2845904085e+02   4.4217101193e+00    0.1984854    0.1754968  22.03 0.0009700529    1.385    0.278
         8 -11.5495    124.4890    249.8228   1.3173472691e+02   6.2480463472e+00    0.5538898    0.1417549  42.21  0.002051309    3.299    0.697
         9 -10.9694     99.1351    248.4893   1.3620939913e+02   1.0575149760e+01    0.3508694    0.2612326 -10.63  0.001759563    3.505    0.715
        10 -11.3495     47.8575    248.0544   1.4504535726e+02   1.7978654058e+01    0.3151568    0.2851816  39.94  0.002416414    1.707    0.414
        11 -13.1116     33.4098    246.7002   1.4730218269e+02   2.0016518531e+01     1.309998    0.8137652 -49.45  0.007890144    2.907    0.656
        12 -13.2346     46.1951    216.0350   1.4273788378e+02   2.4452443727e+01     1.089344    0.7872413  88.50  0.005729835    1.120    0.107
        13 -14.0783     35.6547    227.5147   1.4556917772e+02   2.3419150827e+01    0.7521954    0.5138776  65.90  0.002364098    1.167    0.143
        14 -12.8419      5.5985    246.2441   1.5159288205e+02   2.3186922355e+01     1.096389    0.5678298  71.87  0.007594672    1.424    0.298
        15 -12.3281     12.1978    240.6650   1.5028565670e+02   2.3525300628e+01     0.654423    0.2527598  83.28  0.003460325    2.507    0.601
        16 -11.6551     11.7154    233.0016   1.4991996933e+02   2.5019896811e+01    0.2516668    0.1982636  35.70  0.001281419    1.866    0.464
        17 -12.4461     19.8653    242.4041   1.4918610597e+02   2.2371728045e+01    0.6029839    0.3093036  74.96  0.003883775    1.560    0.359
        18 -11.2000    163.5467    249.5995   1.2443353343e+02  -3.4855736040e-01    0.4666455   0.09768653  44.34  0.001538703    3.902    0.744
        19 -11.9977    139.1263    250.1345   1.2906380264e+02   3.7405425895e+00    0.8015627    0.1765366  42.32  0.002732183    3.781    0.736
        20 -10.7522    216.4776    248.8650   1.1450927697e+02  -9.1213118748e+00    0.2690335    0.1355131  27.58   0.00134933    1.990    0.498
        21  -9.7853     82.0313    243.5080   1.3877897506e+02   1.4094920185e+01    0.1836234   0.09962148  46.64  0.001031811    1.587    0.370
        22  -9.4915     81.3409    249.3238   1.3945250676e+02   1.3128060879e+01    0.1001993   0.09544493   8.31 0.0007050945    1.727    0.421
        23 -11.1533     49.8007    235.5562   1.4375101531e+02   2.0090685654e+01    0.2434653    0.1666114 -64.52  0.001609654    1.661    0.398
        24 -12.4470    108.1309    231.1278   1.3258070213e+02   1.2344497787e+01    0.8121746    0.1646166  46.21  0.002658704    4.016    0.751
        25 -10.6298     81.6311    224.4089   1.3689637311e+02   1.7849317302e+01    0.3107787   0.08985633  46.83  0.001239932    2.900    0.655
        26 -11.6876     93.5057    228.4955   1.3508025746e+02   1.5210651835e+01     0.466926     0.170131  47.86  0.002047101    2.332    0.571
        27 -12.0734      6.2516    228.3713   1.5052426443e+02   2.6463724823e+01     0.441648    0.2322469  82.68  0.002916999    1.464    0.317
        28 -10.2261    174.2402    222.9974   1.1835360174e+02   2.1142035145e+00    0.3569194    0.2515348  69.35  0.001826781    1.897    0.473
        29  -9.0061    152.6598    213.0504   1.2109679095e+02   7.9289249428e+00    0.1765705    0.1681576 -85.59 0.0003887694    1.132    0.117
        30 -13.0889     31.0676    233.8907   1.4681426167e+02   2.2713681369e+01    0.3106127    0.2475108 -75.31  0.000781677    1.444    0.308
        31 -12.3411     10.0441    207.1193   1.4855446054e+02   3.0306552894e+01     0.578746     0.410317  35.62  0.002990153    1.844    0.458
        32 -11.8491     58.4826    199.8268   1.3876212010e+02   2.6301779534e+01     0.287197     0.222805 -83.34 0.0006002728    1.124    0.110
        33 -10.4904     39.4571    198.4893   1.4240143456e+02   2.8973700643e+01    0.4705414    0.1816366  69.16  0.001774473    3.931    0.746
        34 -10.1671      9.5764    194.3730   1.4772675424e+02   3.2995211918e+01    0.2202562    0.1470536  64.25 0.0007695737    1.325    0.245
        35 -12.0836     65.0962    191.2392   1.3641067587e+02   2.7295220447e+01    0.2666835    0.2243589 -76.33 0.0004150574    1.171    0.146
        36 -13.7169      9.4574    155.7721   1.4442385489e+02   4.1387917643e+01     3.142458     1.131909  84.09   0.01019352    5.628    0.822
        37 -11.2506    238.2993    247.7059   1.1040475942e+02  -1.2364784539e+01    0.2676992    0.1944706 -45.75  0.001691767    1.953    0.488
        38 -10.4619     96.4582    153.0410   1.2333423226e+02   3.1347187987e+01    0.3627859    0.2924441 -55.95 0.0008210671    1.207    0.172
        39  -9.4965     99.3757    148.8960   1.2181200428e+02   3.1828491438e+01    0.2219928    0.2042598  29.42 0.0005966164    1.256    0.204
        40 -12.0654     84.9960    152.0303   1.2600056138e+02   3.3449312044e+01     0.302175    0.2471312 -47.74 0.0006022742    1.301    0.231
        41 -12.0837     67.4095    143.4639   1.2892582878e+02   3.8054642420e+01    0.6697063    0.4313616  67.38  0.003217847    1.873    0.466
        42 -10.1007    108.9036    137.6004   1.1705720212e+02   3.2788987466e+01    0.5213079     0.348888 -10.72  0.001781613    2.977    0.664
        43 -10.5973     95.7274    135.1909   1.1997108509e+02   3.5685699930e+01    0.2446604    0.2238023 -41.64  0.000314636    1.163    0.140
        44  -8.9924     77.0081    129.9587   1.2387535747e+02   3.9885652573e+01    0.2265926    0.1620204  77.76  0.000969475    1.748    0.428
        45 -11.3672     26.3228    128.8826   1.3716441991e+02   4.6052930530e+01    0.4268416     0.208518  52.60  0.001742069    2.560    0.609
        46 -11.4510     18.6749    125.0749   1.3859360944e+02   4.7556265629e+01    0.3986968    0.1898244  41.41  0.001858363    2.444    0.591
        47  -8.9510    106.1883    124.1613   1.1474424471e+02   3.6411872256e+01    0.1994512    0.1900154 -42.72 0.0003220542    1.077    0.072
        48  -9.2049     40.6208     95.8302   1.2721674020e+02   5.2161353739e+01    0.2812995    0.1413036  46.68  0.001321041    2.664    0.625
        49  -8.6316     65.0326     81.5287   1.1598738310e+02   5.2361207602e+01     0.168219    0.1124102  60.31 0.0008063465    2.334    0.571
        50 -10.8581    158.5883     76.4310   8.8662721583e+01   3.4991822171e+01    0.2927629    0.2680651  25.46 0.0008139352    1.171    0.146
        51 -10.8508     75.8572    178.0808   1.3233681588e+02   2.8739462688e+01    0.2458517    0.2081013 -79.32 0.0003373983    1.079    0.073
        52 -11.0194    198.7372    245.6442   1.1726471622e+02  -5.7654413403e+00    0.2140015     0.178514 -27.56  0.001095019    1.379    0.275
        53 -11.8290    172.2264    248.2874   1.2262143202e+02  -1.6380121085e+00    0.4075288    0.2501981  46.23  0.002114326    1.375    0.272
        54 -10.9423    151.9121    249.2124   1.2655922272e+02   1.7108226889e+00    0.2451583     0.160761  31.32  0.001373486    1.605    0.377
        55 -11.9700     83.6379    168.7756   1.2915213987e+02   2.9719873050e+01    0.6782119    0.6306746 -46.41  0.004110348    1.293    0.227
