#   1 NUMBER                 Running object number                                     
#   2 MAG_AUTO               Kron-like elliptical aperture magnitude                    [mag]
#   3 X_IMAGE                Object position along x                                    [pixel]
#   4 Y_IMAGE                Object position along y                                    [pixel]
#   5 X_WORLD                Barycenter position along world x axis                     [deg]
#   6 Y_WORLD                Barycenter position along world y axis                     [deg]
#   7 A_WORLD                Profile RMS along major axis (world units)                 [deg]
#   8 B_WORLD                Profile RMS along minor axis (world units)                 [deg]
#   9 THETA_WORLD            Position angle (CCW/world-x)                               [deg]
#  10 FWHM_WORLD             FWHM assuming a gaussian core                              [deg]
#  11 ELONGATION             A_IMAGE/B_IMAGE                                           
#  12 ELLIPTICITY            1 - B_IMAGE/A_IMAGE                                       
         1 -15.6755     44.2633     62.9060   1.1066142648e+02   5.7538512138e+01     2.092864     1.481048   7.45    0.0131152    1.679    0.404
         2 -14.9805      6.4620     71.4544   1.2464198754e+02   5.8788615657e+01     2.003431    0.4902757 -58.13  0.009367406    2.557    0.609
         3 -15.1865     22.0255     65.0189   1.1843249203e+02   5.9056844877e+01     1.235201      0.85307 -72.81  0.008057203    1.596    0.373
         4 -13.1607    224.1639     75.0608   6.9554951643e+01   1.8845472331e+01     1.935831     1.200909  78.84  0.008251335    2.086    0.521
         5 -14.8832     92.2203     67.6564   9.7020573154e+01   5.0200768833e+01     2.206863     1.990753  57.61   0.01331278    1.327    0.246
         6 -13.2451    131.4947     62.6811   8.4727714927e+01   4.3450944941e+01    0.7566255    0.5822719 -64.89  0.003728301    1.698    0.411
         7 -12.6956    236.9949    216.0466   9.8342972371e+01  -6.1111954446e+00    0.3615933    0.3324158 -68.79  0.002418969    1.654    0.395
         8 -12.1051    152.4786    218.6569   1.1426186441e+02   8.8272076017e+00    0.2412258     0.102854  45.20  0.001093086    1.967    0.492
         9 -11.4861    169.5229    214.8354   1.1048929906e+02   6.3374003202e+00    0.2572175    0.1358956  59.70  0.001155671    2.280    0.561
        10 -12.1957    228.7456    211.0898   9.8924011685e+01  -4.0189694956e+00    0.4044897    0.2550743  63.16  0.001934821    2.637    0.621
        11 -14.0014    206.3791    204.5233   1.0183806088e+02   1.0185517629e+00    0.5080895    0.3356799  51.91  0.002685454    1.522    0.343
        12 -12.2715    142.0759    203.2787   1.1399485323e+02   1.3376128354e+01    0.2763442      0.19278 -34.91  0.001473866    1.985    0.496
        13 -14.0182     27.7979    201.4100   1.3512204777e+02   3.0426875099e+01     0.258995    0.1713768  75.42  0.001870212    1.179    0.152
        14 -12.9352    192.0578    195.6227   1.0296236775e+02   5.1602131799e+00    0.2545055     0.231631  67.41  0.001286876    1.235    0.190
        15 -13.0977    140.2330    192.2482   1.1265446790e+02   1.5750756193e+01    0.4207922    0.2973514  52.78  0.002305457    1.264    0.209
        16 -14.7232     77.6925    181.2247   1.2378703809e+02   2.8328622405e+01    0.8170189    0.7490287  33.84  0.005559066    1.444    0.307
        17 -14.8250     63.6729    186.7958   1.2722668586e+02   2.9099059759e+01    0.7582968    0.4638645 -76.00  0.004249991    1.483    0.326
        18 -13.8044     69.0755    184.1560   1.2586763188e+02   2.8919867220e+01    0.4525864     0.250214 -72.26  0.002151215    1.694    0.410
        19 -12.2560    222.1546    168.5055   9.1925036494e+01   3.5606845404e+00    0.5928664    0.3972251  -6.40  0.002794555    1.957    0.489
        20 -14.6318    235.0857    183.6604   9.2625947613e+01  -1.3130302838e+00    0.9005998     0.822168 -58.84  0.004574422    1.449    0.310
        21 -14.1624     23.5189    189.2899   1.3493054566e+02   3.3208729171e+01    0.3367576    0.2124766  68.88  0.002351554    1.338    0.253
        22 -11.4330    189.4882    189.0166   1.0225649521e+02   6.7601638394e+00    0.1948087    0.1387561 -41.27 0.0006897317    1.569    0.362
        23 -13.9952     46.7732    186.7577   1.3045538672e+02   3.1196852575e+01    0.3417683    0.2341844  31.17  0.002182728    1.977    0.494
        24 -11.1934    194.3107    187.6619   1.0106318957e+02   6.0269490486e+00     0.135149    0.1089534  82.59 0.0006903324    1.688    0.407
        25 -14.7059    117.4000    174.1056   1.1447152889e+02   2.3477225169e+01    0.9236963    0.6549408 -88.42   0.00483659    1.627    0.385
        26 -14.9850    130.8938    175.0221   1.1175060658e+02   2.0848597163e+01    0.9552782    0.6192419  38.86  0.004526989    1.589    0.371
        27 -14.6467     27.9824    182.2349   1.3354106563e+02   3.4155659876e+01    0.3956531    0.3543479 -16.33  0.003015372    1.896    0.473
        28 -14.5582    247.4595    173.3186   8.8346687163e+01  -2.1215131601e+00     1.144328    0.5799835 -27.13  0.005169739    2.085    0.520
        29 -12.7232    205.9043    177.6034   9.6869328888e+01   5.3679228488e+00    0.5042745    0.3017991  11.99  0.001970612    2.970    0.663
        30 -12.4576    192.4167    178.5398   9.9691462921e+01   7.9565067195e+00    0.5053301    0.2508684  38.45  0.002141895    1.974    0.493
        31 -13.7743    198.6004    167.9050   9.6337457554e+01   8.5259777762e+00    0.5310057    0.4077702  54.41  0.002772455    1.329    0.248
        32 -12.9933    203.1253    167.0704   9.5273603370e+01   7.7242924777e+00    0.3737716    0.2758473 -27.66  0.001595594    1.480    0.324
        33 -14.4049     54.0354    172.7982   1.2756117461e+02   3.3194789974e+01    0.5333576    0.2889817  52.18  0.003025244    1.788    0.441
        34 -14.6071     34.1935    174.5893   1.3167132151e+02   3.5061493479e+01    0.4912469    0.2686533 -83.59  0.002526835    1.590    0.371
        35 -14.4797     35.4096    166.0059   1.3057297710e+02   3.6705082962e+01    0.5713068     0.325703  64.35  0.003422402    1.744    0.427
        36 -14.1102     43.1313    172.5564   1.2971785755e+02   3.4513237759e+01    0.5649381    0.1944277 -58.20  0.002653474    2.690    0.628
        37 -13.1037     49.4758    165.2707   1.2762430114e+02   3.5314285199e+01    0.3626871    0.3349175 -19.26  0.001896295    1.607    0.378
        38 -13.4941     24.1614    173.0154   1.3344572818e+02   3.6390920550e+01    0.2423157    0.1435356 -77.78  0.001584646    1.346    0.257
        39 -12.8627    200.5411    173.2303   9.7038222036e+01   7.2018860369e+00    0.7024223    0.3613847  22.29  0.002296142    3.962    0.748
        40 -14.1598    100.4369    164.3893   1.1657257218e+02   2.8395283304e+01    0.5575505    0.4082759  34.96  0.002733942    1.574    0.365
        41 -12.9868    226.2340    175.4003   9.2583607030e+01   1.6489946849e+00    0.6347425    0.4764526  84.26  0.003063362    2.340    0.573
        42 -13.3679    118.0231    184.5056   1.1597935005e+02   2.1259297822e+01    0.4691456    0.2647758  46.82  0.002334191    1.631    0.387
        43 -11.7127    129.4949    159.9834   1.0937698448e+02   2.4197728092e+01    0.2140484    0.1379899 -53.88   0.00103389    1.593    0.372
        44 -12.0175     91.6762    176.6393   1.2029677422e+02   2.7206467687e+01    0.2442954    0.2049977  41.29  0.001270846    1.354    0.262
        45 -12.7025    148.7533    158.4435   1.0483138939e+02   2.0737346900e+01    0.4548354    0.2464284  34.96  0.001874996    2.138    0.532
        46 -12.1978    245.1673    156.0721   8.5127254234e+01   9.1842668707e-01    0.4752758    0.2996296 -44.77   0.00233524    1.773    0.436
        47 -12.7793    248.5021    153.9901   8.4102428919e+01   5.8419156835e-01    0.4894397    0.3134743 -22.96  0.002447429    1.600    0.375
        48 -13.1317    141.0253    153.4648   1.0554954711e+02   2.3312064402e+01    0.5498017    0.1986554 -44.97  0.001924494    2.981    0.665
        49 -13.0306    104.3257    153.2764   1.1383186353e+02   3.0134754052e+01    0.3523577    0.2832064 -12.66  0.001863406    1.901    0.474
        50 -11.9805    230.1791    149.1824   8.6295552206e+01   5.0676636930e+00    0.2698821    0.2208127  -4.07  0.001451204    1.284    0.221
        51 -10.8508    122.6418    147.3264   1.0851038992e+02   2.8162908632e+01    0.1520851    0.1078288  80.07  0.000206436    1.780    0.438
        52 -13.8134    142.4456    141.3632   1.0271964665e+02   2.5544162186e+01        1.086     0.502395  47.40  0.004269758    2.117    0.528
        53 -12.7522    178.1572    136.1612   9.3624385275e+01   1.8872350423e+01    0.7824756    0.4513307  64.88  0.003004907    2.376    0.579
        54 -13.1142    204.3013    126.0350   8.5866735328e+01   1.4805057635e+01    0.7736527    0.5000147  -6.22  0.003038265    2.492    0.599
        55 -12.1750    157.3963    118.1448   9.3911618954e+01   2.7127093950e+01    0.5805994    0.3358637  61.97  0.002283685    2.152    0.535
        56 -14.0622    177.9757    108.7002   8.6962679458e+01   2.4229149285e+01     1.422291    0.8171633  26.16   0.00505367    2.787    0.641
        57 -14.6582    177.2360    125.6108   9.1331049654e+01   2.1135836914e+01     1.609235    0.6959897  38.42  0.005466237    2.744    0.636
        58 -13.1591    172.2814    120.7811   9.1229966785e+01   2.3219202294e+01    0.6736657     0.471555  14.66  0.002819273    2.101    0.524
        59 -13.5050    162.6083    124.3591   9.4244555103e+01   2.4706703030e+01     1.239956    0.4671167 -35.33  0.003856319    3.411    0.707
        60 -13.5343    165.9525    116.9899   9.1690568419e+01   2.5420328454e+01    0.5377918    0.4964925  32.77  0.002230937    1.105    0.095
        61 -12.0418    163.8109    137.1064   9.6959879350e+01   2.1875514493e+01    0.3204055    0.2201399  45.27  0.001466648    1.414    0.293
        62 -11.6416    212.7579    128.5656   8.4833319820e+01   1.2415074549e+01    0.3396846    0.2437808 -34.01  0.001629731    1.409    0.290
        63 -13.1664    233.8663    100.0199   7.4181050180e+01   1.2481731505e+01    0.7270811    0.5738243 -12.14  0.003696621    1.440    0.305
        64 -12.9228    248.1556    126.3101   7.8011509902e+01   5.0252443486e+00    0.5225036    0.4158394 -25.13  0.002237132    1.210    0.174
        65 -15.3510    230.9447    114.4082   7.8145121019e+01   1.0741574126e+01     2.503774     1.464195  64.67   0.01055991    2.143    0.533
        66 -11.7511     47.4675    119.2994   1.2168013248e+02   4.5467782153e+01    0.3157796    0.2108039  64.32  0.001825707    1.782    0.439
        67 -11.7372     50.3741    116.7288   1.2050430634e+02   4.5714122896e+01    0.2301808    0.2012285  46.65  0.001539978    1.316    0.240
        68 -13.1352     19.5796     97.0823   1.2532576636e+02   5.2717022151e+01    0.4406827    0.3094048  40.33  0.003014347    1.750    0.429
        69 -14.5036     30.5953    115.4447   1.2532548652e+02   4.7938462854e+01    0.8712479    0.4669969 -56.89  0.005052835    1.527    0.345
        70 -13.8924     25.9367    106.3520   1.2511821205e+02   5.0272725736e+01    0.4841299    0.2446641 -65.88  0.002579132    1.581    0.367
        71 -14.2793     29.2149    101.8283   1.2351518140e+02   5.0960833682e+01    0.5323282    0.3692174  68.38  0.003334997    1.792    0.442
        72 -13.4230    194.9814    109.9910   8.3770150352e+01   1.9934332585e+01    0.6420705    0.3337968  67.45  0.002188065    2.955    0.662
        73 -13.5428    196.2030    115.2749   8.4848757096e+01   1.8670044022e+01    0.7294971    0.4782915  41.71  0.003246268    1.553    0.356
        74 -12.9991    200.1900    110.6074   8.2892578286e+01   1.8579420840e+01    0.5254909    0.3878745  39.53  0.002321307    1.395    0.283
        75 -12.3200    208.0963    113.0890   8.1981198461e+01   1.6257927993e+01     0.542944    0.2731932 -31.92  0.002103121    2.137    0.532
        76 -10.7840     95.3245    128.6601   1.1134561093e+02   3.7003701258e+01    0.1437412    0.1036028  83.48 0.0007051168    1.726    0.421
        77 -11.9190    162.4112    109.0288   9.0472317566e+01   2.7807880681e+01    0.4931017    0.3393455  19.66  0.002056783    2.055    0.513
        78 -11.8334     48.6432    109.5600   1.1968646029e+02   4.7456748941e+01    0.2101555    0.1679673 -31.26  0.001058582    1.452    0.311
        79 -12.5272    131.1416    108.4003   9.7742408682e+01   3.4784573719e+01    0.6135796    0.3259898  43.19  0.002547616    1.919    0.479
        80 -13.2833    140.5912    101.1986   9.3555308715e+01   3.4260570702e+01      0.99934    0.6452078  -0.72  0.003594779    3.140    0.682
        81 -13.7939    144.8925     91.4044   8.9864686806e+01   3.5244326149e+01    0.6823498    0.6294278  89.96  0.003204836    1.194    0.163
        82 -11.6803    212.5670    106.2550   7.9444323978e+01   1.6411301988e+01     0.446307    0.2417076 -41.97  0.001838361    1.844    0.458
        83 -13.6177    212.8169     99.0286   7.7583300840e+01   1.7611946568e+01    0.8974631    0.5174276  51.93  0.003839756    1.723    0.420
        84 -12.4941    148.4777    103.4196   9.2243514997e+01   3.2081727473e+01     0.697374    0.3656036 -28.70  0.002545578    2.572    0.611
        85 -13.0426    103.0606    102.1354   1.0341336194e+02   4.1449913453e+01    0.6950368    0.4958952   4.74  0.003245095    2.125    0.529
        86 -13.4767     97.1320     99.3031   1.0430736305e+02   4.3061373531e+01    0.8897024    0.5721735 -39.07  0.004368273    1.567    0.362
        87 -14.2312    191.3929    128.8659   8.9136043398e+01   1.7255579884e+01     1.213819    0.9574819 -69.07  0.005824788    1.570    0.363
        88 -12.7029     40.4835    101.6602   1.2043678279e+02   4.9981477504e+01    0.3103762    0.1628818 -56.68  0.001392739    1.535    0.349
        89 -14.3309     86.0189     94.8107   1.0625585631e+02   4.5790768122e+01    0.8032365     0.564383  45.25  0.004086912    1.571    0.364
        90 -14.5201     82.0280     87.2876   1.0549015809e+02   4.7957882210e+01      1.32567    0.7030124  47.05   0.00615749    2.219    0.549
        91 -11.8050     71.0363     99.0437   1.1144267213e+02   4.7044024450e+01    0.2796104    0.1785999  45.73  0.001485186    1.788    0.441
        92 -13.7325     67.6617     93.6334   1.1116017585e+02   4.8635768991e+01    0.6699188    0.4765179 -51.61  0.003858418    1.230    0.187
        93 -13.4775    208.6762     91.5332   7.6422166164e+01   1.9908302585e+01    0.9010757    0.6999859 -20.13  0.004380873    1.433    0.302
        94 -11.6680     48.1229     94.6664   1.1695041569e+02   5.0701286034e+01    0.2625488    0.1518748 -51.62  0.001430397    1.442    0.306
        95 -11.7810    222.3500     89.6854   7.3550688130e+01   1.6907104380e+01    0.4358369    0.1625565 -38.05  0.001533576    2.557    0.609
        96 -13.7300    130.0696     82.8694   9.1134633608e+01   4.0114918286e+01    0.5664347    0.4460591  59.81   0.00285791    1.406    0.289
        97 -13.0991    124.2396     86.4447   9.3649334862e+01   4.0636901874e+01    0.8781981    0.6020236  86.33  0.003580298    2.639    0.621
        98 -12.9048    121.5699     76.3900   9.1452913996e+01   4.3105050448e+01    0.9645612    0.7437887  40.60  0.004992267    1.312    0.238
        99 -12.5132     58.6059     89.5280   1.1282276334e+02   5.0617584732e+01    0.2816409    0.1846202 -70.13  0.001489767    1.710    0.415
       100 -13.6898    151.6739     80.8058   8.5267627988e+01   3.5688501055e+01     1.103683    0.8815391  37.39  0.005497228    1.273    0.214
       101 -13.8467    140.6765     80.3179   8.7751597683e+01   3.8286642855e+01    0.8118284     0.569558  70.62  0.003630622    1.873    0.466
       102 -11.9017    220.1982    249.1148   1.0663403195e+02  -7.2940295541e+00    0.2786403    0.1368525  44.73  0.001536464    1.683    0.406
       103 -14.7503    207.6264    223.5920   1.0485234116e+02  -1.9419230351e+00    0.8020058    0.5708477  36.64  0.004120991    1.161    0.139
       104 -14.1629    224.5460    223.0343   1.0173888151e+02  -4.8530524013e+00    0.5731136    0.3971978  18.95  0.003418912    1.429    0.300
       105 -12.4808    171.7291     82.8733   8.1379668550e+01   3.0523469958e+01    0.4480874    0.4106889  47.32  0.002139556    1.069    0.065
       106 -13.7443     38.4864     80.9728   1.1686019081e+02   5.4503451427e+01     0.700519    0.4354551  30.43  0.004232153    1.922    0.480
       107 -13.8806     47.9282     78.9256   1.1353479372e+02   5.3991635534e+01    0.6770582    0.4595523 -82.16  0.003706506    2.096    0.523
       108 -13.1645    134.9886    219.5616   1.1764976028e+02   1.1768989576e+01    0.3535942    0.2248635  26.00  0.001775384    2.356    0.576
       109 -11.8264     35.6741    219.6718   1.3515477090e+02   2.6161511095e+01   0.09173799   0.07759442 -62.14 0.0007050214    1.700    0.412
       110 -12.6136    245.4096     66.1233   6.4220240501e+01   1.5151803733e+01      0.95167    0.5854177 -51.11  0.004540605    1.633    0.388
       111 -14.3423    172.0756     48.1190   7.1255160250e+01   3.6075463527e+01     1.418278    0.9268237  71.42  0.006426994    1.699    0.411
       112 -12.6349    209.2944     75.0209   7.2006405360e+01   2.2516411094e+01      0.73843    0.5437779 -35.90  0.003594429    1.366    0.268
       113 -13.4317    234.1791     60.0539   6.4293516507e+01   1.8714218955e+01     1.056278    0.6237519 -73.72  0.004351687    2.430    0.588
