#   1 NUMBER                 Running object number                                     
#   2 MAG_AUTO               Kron-like elliptical aperture magnitude                    [mag]
#   3 X_IMAGE                Object position along x                                    [pixel]
#   4 Y_IMAGE                Object position along y                                    [pixel]
#   5 X_WORLD                Barycenter position along world x axis                     [deg]
#   6 Y_WORLD                Barycenter position along world y axis                     [deg]
#   7 A_WORLD                Profile RMS along major axis (world units)                 [deg]
#   8 B_WORLD                Profile RMS along minor axis (world units)                 [deg]
#   9 THETA_WORLD            Position angle (CCW/world-x)                               [deg]
#  10 FWHM_WORLD             FWHM assuming a gaussian core                              [deg]
#  11 ELONGATION             A_IMAGE/B_IMAGE                                           
#  12 ELLIPTICITY            1 - B_IMAGE/A_IMAGE                                       
         1 -13.2079    135.7937     38.7930   3.0721069262e+01   4.4906285687e+01    0.2607371     0.222295 -83.16 0.0006222812    1.060    0.057
         2 -12.6879     84.2075     23.9341   3.6383643566e+01   5.7853096701e+01    0.2453748    0.1806404  78.37 0.0007649874    1.388    0.280
         3 -12.0693     66.8657     14.8923   3.7720340043e+01   6.2462965902e+01    0.3166467    0.1800493 -19.26  0.001333091    2.399    0.583
         4 -11.5377    100.1421     12.6411   2.9434331420e+01   5.5527527160e+01    0.1782269    0.1490803 -71.21 0.0003344636    1.267    0.211
         5 -11.7333     55.2771     10.6425   3.9549807128e+01   6.5247293735e+01    0.2347795    0.1975064  27.81  0.001640551    1.229    0.186
         6 -12.4693     81.9412      8.4617   3.1674324960e+01   5.9859065884e+01    0.3159248    0.1827572  61.20   0.00109814    1.366    0.268
         7 -13.6300     91.2647      4.7881   2.8593385112e+01   5.8154287570e+01    0.3404107    0.2540478  87.95   0.00100651    1.284    0.221
         8 -10.9859    103.8052      7.1734   2.7165712309e+01   5.5221420259e+01    0.1551348    0.1159561  55.60 0.0003106961    1.284    0.221
         9 -10.8708     48.5196      7.5645   4.0519266626e+01   6.6879905124e+01    0.1197481   0.09463798  47.81 9.626817e-05    1.020    0.020
        10 -11.2724      5.1927      3.3465   5.9654004509e+01   7.4661078032e+01    0.1721081    0.1297208  -3.01 0.0005095445    1.252    0.201
        11 -11.9254    101.1772      2.2986   2.6129587459e+01   5.6203665895e+01     0.278626    0.1231635  67.56  0.001327564    1.764    0.433
        12 -11.4255     49.8470      1.7177   3.7565581344e+01   6.7130133287e+01    0.1724341    0.1241682  45.84 0.0004942635    1.120    0.107
        13 -12.5271     91.6969    235.2923   8.2251956280e+01   1.1339039026e+01    0.3968592    0.2362942 -55.74  0.001688385    1.771    0.435
        14 -12.2621    246.7825    248.5715   5.2603582252e+01  -6.8397516394e+00    0.3186312    0.1618189  -2.24   0.00166401    2.194    0.544
        15 -12.2356    236.9971    249.3344   5.4205378926e+01  -6.2338741533e+00    0.2444579    0.1703398 -21.10  0.001055959    1.026    0.026
        16 -10.5461    179.5468    250.5140   6.4471133194e+01  -1.4868212989e+00    0.1217627   0.09565496 -13.60  0.000127596    1.013    0.013
        17 -12.3388    139.4401    248.4906   7.2596414722e+01   3.0484134214e+00    0.3073816    0.2285012 -34.65 0.0009749322    1.291    0.225
        18 -12.3140    135.7136    245.8278   7.3065865368e+01   3.9735168584e+00    0.3439429    0.1687347  17.36  0.001595677    2.017    0.504
        19 -11.7619    124.9778    249.5634   7.6026764389e+01   4.4566261995e+00    0.2377294    0.1588914 -30.90 0.0005312153    1.489    0.328
        20 -12.9724    103.0631    242.0697   8.0273234525e+01   8.5162481233e+00    0.4419403    0.2276255  22.17  0.001402715    1.794    0.442
        21 -12.7311    108.1530    240.7211   7.8855421126e+01   8.1998104891e+00    0.2977331    0.2232911 -21.37  0.001646662    1.358    0.263
        22 -14.1193    111.6418    234.9684   7.7236650731e+01   9.0014095393e+00    0.8767554    0.4025966  10.67  0.003317324    2.884    0.653
        23 -13.3518    117.9185    237.5174   7.6065548472e+01   7.7092429458e+00    0.3171475    0.2712412 -22.70  0.001049801    1.120    0.107
        24 -13.3302    115.1015    242.4612   7.7407424807e+01   7.0186594334e+00    0.5484038    0.2377619 -53.87    0.0021393    2.392    0.582
        25 -13.2544     98.0747    249.6944   8.2432597694e+01   7.4971097794e+00    0.3822072    0.3286057   0.53  0.002336539    1.073    0.068
        26 -11.5211     93.5486    248.5084   8.3396959027e+01   8.2634814773e+00     0.265043    0.1718296 -34.48  0.001120179    1.675    0.403
        27 -12.5108     85.0930    250.3934   8.5692967749e+01   8.8294950886e+00    0.2853967    0.1597192  25.54  0.000684244    1.566    0.362
        28 -11.7098     85.3151    246.0392   8.5145889434e+01   9.7346096916e+00    0.2734238    0.1902882 -65.42  0.001240376    1.664    0.399
        29  -9.2660     71.2587    240.2952   8.8056679816e+01   1.2611298638e+01     1.104925    0.3038421  22.23   0.00352376    3.666    0.727
        30 -10.8809     66.3551    250.4853   9.0352944447e+01   1.0901609865e+01    0.1955906    0.1576854  31.38 0.0001885672    1.106    0.095
        31 -12.9390     68.4111    226.7348   8.7281250897e+01   1.6081564030e+01    0.6346635    0.3046555 -68.97  0.002638184    2.385    0.581
        32 -13.3562     71.5585    234.2751   8.7312922678e+01   1.3949189795e+01    0.3726322    0.2934001  32.88 0.0009656702    1.172    0.147
        33 -12.8882     73.7995    229.2303   8.6144289471e+01   1.4858662817e+01    0.4112581    0.2791273 -36.91  0.002051841    1.618    0.382
        34 -13.1076     70.4855    248.4807   8.9118530617e+01   1.0882345173e+01    0.2925488    0.2687532 -73.52 0.0007088927    1.239    0.193
        35 -13.0332     68.0759    244.9906   8.9364797524e+01   1.1919403376e+01    0.4637627    0.3425556   8.72  0.002018422    1.354    0.261
        36 -12.2269     56.3514    250.6561   9.2864307182e+01   1.1947210892e+01    0.2828321    0.1132905  23.49  0.001153149    2.239    0.553
        37 -13.6150     39.5239    245.5001   9.6637820841e+01   1.4854459291e+01    0.8695912    0.4324917 -56.36   0.00409534    2.147    0.534
        38 -13.1142     34.4057    242.9224   9.7723905893e+01   1.5957079655e+01    0.5546193    0.3203442 -58.04  0.002797513    1.854    0.461
        39 -14.5619     38.6221    226.1933   9.5215464801e+01   1.9503597351e+01     1.603361    0.9475669   1.92  0.007224669    2.104    0.525
        40 -14.2111     29.2830    233.8387   9.8325738644e+01   1.8589177466e+01    0.8952841    0.4377075  24.75  0.004091058    1.875    0.467
        41 -15.3306     17.6570    213.8128   9.9866819732e+01   2.4615877240e+01     1.585147      1.03528  51.57  0.008075281    1.476    0.322
        42 -14.7249      3.1026    210.1717   1.0359197707e+02   2.6755601922e+01     1.245468    0.4393153 -62.79  0.004936158    2.624    0.619
        43 -14.7432     26.0644    247.8777   1.0017072666e+02   1.5634888385e+01    0.8057395    0.3576327  28.93  0.003731295    1.909    0.476
        44 -17.2783     11.1502    234.6233   1.0302631700e+02   2.0065592390e+01     2.294097     1.684211  68.15   0.01322439    1.313    0.238
        45 -14.6906     12.8609    225.5776   1.0200439159e+02   2.2099358296e+01    0.6663392    0.4793579  -2.22  0.003587429    1.650    0.394
        46 -11.1356    239.9543    239.5157   5.2348114867e+01  -5.0219612795e+00    0.1335123   0.09351551   9.62 0.0003896267    1.502    0.334
        47 -11.9980    148.7577    238.8158   6.9162085935e+01   3.8521808926e+00    0.3205262    0.1832846  -1.40  0.001392916    2.043    0.511
        48 -12.3795    114.9260    249.6708   7.8389255511e+01   5.5749974134e+00    0.3418919    0.2250285  19.07  0.001143396    1.361    0.265
        49 -13.2968     52.8224    237.1100   9.2489777531e+01   1.5394090220e+01    0.3739911    0.2766997 -36.33   0.00104622    1.528    0.345
        50 -11.7775     53.4874    232.1328   9.1826402842e+01   1.6491358424e+01    0.2197164    0.1883414  31.58   0.00112826    1.071    0.066
        51 -10.3723    190.4266    237.4026   6.0454356852e+01  -3.2138564791e-01    0.1199767   0.09469758 -17.39 0.0001335049    1.018    0.018
        52 -10.9182     97.5673    237.1145   8.1003244178e+01   1.0234264875e+01    0.1856711    0.1363638 -58.52 0.0004269871    1.503    0.335
        53 -11.0740     78.8959    237.2780   8.5759808243e+01   1.2410595045e+01    0.1937374    0.1523641  19.96 0.0003546891    1.164    0.141
        54 -11.1561    211.0604    236.0400   5.6529274897e+01  -2.0531481536e+00    0.1484017    0.1406578 -54.76 0.0005449209    1.654    0.395
        55 -13.0205     62.3345    234.1825   8.9711581931e+01   1.5025383603e+01     0.813412    0.4214915  47.70  0.001623408    2.034    0.508
        56 -11.4003     59.3165    229.7028   9.0031853752e+01   1.6420823307e+01    0.3055692    0.1147284  31.23 0.0005515066    2.269    0.559
        57 -13.7833    109.6834    214.5478   7.4807652162e+01   1.3764351184e+01    0.6341034    0.3505666 -32.75  0.002719051    2.074    0.518
        58 -12.4647    100.2005    226.8959   7.8991237353e+01   1.2177264692e+01    0.3221619    0.2149349 -67.67 0.0004378916    1.801    0.445
        59 -13.8525    118.3641    226.8697   7.4458369853e+01   9.9130894233e+00    0.5620933    0.3686619  60.12  0.002215684    2.387    0.581
        60 -14.0263    113.7205    219.0587   7.4461306793e+01   1.2218535561e+01    0.5009885    0.4475628 -27.19  0.002914313    1.088    0.081
        61 -12.5110    112.8249    227.7382   7.5941751680e+01   1.0415775980e+01    0.2844153     0.244305  -8.16 0.0007377292    1.090    0.082
        62 -14.7777    105.4516    227.0126   7.7678133976e+01   1.1495889917e+01     1.008763    0.5820071 -34.39  0.004632026    1.900    0.474
        63 -10.9509    181.0896    232.3179   6.1476283752e+01   1.5188795769e+00    0.1948236    0.1321715  -4.47 0.0008056911    1.422    0.297
        64 -13.2492    129.0104    231.1964   7.2537065070e+01   7.6869903820e+00    0.5400387     0.226014  33.90  0.001995562    2.297    0.565
        65 -11.8249    127.5281    227.0492   7.2279644332e+01   8.7350455790e+00     0.199055    0.1709938 -26.08 0.0006018891    1.102    0.093
        66 -12.3332    219.8225    230.1995   5.4175501668e+01  -1.9052387679e+00    0.2409996    0.1700931  16.89 0.0009131949    1.534    0.348
        67 -11.4801    194.0583    229.5341   5.8584067115e+01   6.6883772906e-01    0.2189675    0.1571327 -50.32 0.0009101355    1.575    0.365
        68 -11.1554     83.7453    229.4544   8.3565731103e+01   1.3617178199e+01    0.2038539    0.1927928 -40.53  0.000546374    1.122    0.109
        69 -11.4247    178.0597    228.3727   6.1467010427e+01   2.5532153725e+00    0.2008217    0.1405841 -28.96 0.0003897625    1.216    0.178
        70 -11.6516    149.5533    229.6533   6.7626328784e+01   5.5401949592e+00    0.2234443    0.1152458  25.68   0.00102577    1.883    0.469
        71 -13.1516     47.7064    218.3287   9.1976863931e+01   2.0483986878e+01     0.658801    0.3727831  70.62  0.002585852    2.342    0.573
        72 -12.5401    231.9553    226.8467   5.1726467612e+01  -2.4439347579e+00    0.2674382    0.1889377 -34.15  0.001932367    1.135    0.119
        73 -12.2759     91.3295    226.0216   8.1154196562e+01   1.3478550785e+01    0.3296619    0.2521517 -63.09 0.0009532956    1.448    0.309
        74 -10.9622    137.0070    225.9854   6.9901525901e+01   7.7878377451e+00     0.200776    0.1671621  62.18 0.0009991414    1.691    0.409
        75 -12.2431     96.0666    225.5129   7.9862066356e+01   1.3005985564e+01    0.2500434    0.2057698  87.38 0.0009256396    1.557    0.358
        76 -10.8702    222.4642    225.5436   5.3041506093e+01  -1.3969525916e+00    0.1149234   0.08590579 -26.07 0.0001160501    1.017    0.017
        77 -11.4608     60.8356    224.9076   8.9104564915e+01   1.7397403358e+01    0.5483359    0.1930572  35.85  0.001898816    2.462    0.594
        78 -10.8538    213.0633    222.4658   5.4131550922e+01  -1.2268286769e-02    0.2600534     0.106641 -23.98   0.00105409    3.574    0.720
        79 -12.6128    159.6746    222.2354   6.4287667298e+01   5.7995555421e+00    0.3318964    0.2262558  20.78 0.0006068641    1.453    0.312
        80 -13.4997    125.0756    221.3112   7.2010187176e+01   1.0266448008e+01     0.448505    0.3392043   8.02 0.0006732628    1.285    0.222
        81 -12.2271    129.8662    218.0550   7.0364977272e+01   1.0354991161e+01    0.2832349    0.2039248 -56.95 0.0008651423    1.528    0.346
        82 -13.2873     87.7306    213.6368   8.0428776941e+01   1.6842477719e+01    0.6197685    0.5095938 -15.85  0.002335578    1.267    0.211
        83 -13.9635     77.4127    219.0480   8.3930598373e+01   1.6839850421e+01    0.5873948    0.4185457  65.14   0.00123903    1.750    0.429
        84 -13.1311     79.3578    212.5849   8.2555571785e+01   1.8164686627e+01    0.3972636    0.3414492  32.12   0.00114553    1.122    0.109
        85 -12.6143     75.5458    212.4740   8.3586625281e+01   1.8670655428e+01    0.3092908    0.2376251  33.22 0.0009670767    1.241    0.194
        86 -12.0456    246.9339    221.1248   4.8632988018e+01  -2.8279445622e+00    0.1530657    0.1197224 -36.43 0.0004713069    1.266    0.210
        87 -11.9677    237.9382    221.0422   4.9944593836e+01  -2.0568591481e+00    0.1773369    0.1272885 -28.12   0.00130476    1.007    0.007
        88 -12.0815    189.5741    220.2672   5.7980804830e+01   2.7717549749e+00    0.2537038    0.1670144 -16.42 1.044109e-05    1.472    0.321
        89 -12.0599     34.0679    220.0729   9.5893302981e+01   2.1478853143e+01    0.2584694    0.2039244  66.67 0.0005457113    1.293    0.227
        90 -11.1928    223.0922    220.3150   5.2145732595e+01  -6.1000121324e-01    0.1736801     0.119571 -23.23 0.0005386471    1.180    0.153
        91 -11.3267    225.1946    216.8407   5.1277874076e+01  -2.4222687644e-01    0.1636279    0.1320294 -30.83 0.0005644403    1.155    0.134
        92 -11.0996    194.8018    220.6025   5.7062338612e+01   2.1534568678e+00    0.1548811    0.1093552  32.89 0.0005530654    1.693    0.409
        93 -12.7935    173.5144    218.7443   6.0865859460e+01   4.8490582008e+00    0.4308805    0.2364039 -29.02  0.002165403    1.803    0.445
        94 -12.6959    145.6642    215.5044   6.6296820220e+01   8.8742214281e+00    0.6830505    0.2809869 -35.03  0.002617414    2.798    0.643
        95 -13.7653    140.9138    210.6877   6.6607449662e+01   1.0496415917e+01    0.7053049    0.3970914 -68.33  0.002468042    2.879    0.653
        96 -12.3255     64.0730    216.7962   8.7289314731e+01   1.9000905895e+01    0.3863273     0.348287 -33.29  0.002185699    1.157    0.136
        97 -12.9742     58.5583    213.0204   8.8372238076e+01   2.0588471059e+01    0.4685162    0.3913721 -55.03  0.001555986    1.238    0.192
        98 -10.8492     53.3001    212.6817   8.9806340318e+01   2.1278723282e+01    0.2366705    0.1786469  38.32 0.0002570294    1.261    0.207
        99 -13.3418    123.1138    206.7606   7.0224913318e+01   1.3733852515e+01    0.4771536    0.2011699 -43.70  0.001868194    2.339    0.572
       100 -13.2375    125.1920    213.1771   7.0732402531e+01   1.2025878879e+01    0.4095826    0.2554043  22.82 0.0004004024    1.579    0.367
       101 -13.9215    119.3351    213.3015   7.2191039780e+01   1.2772162231e+01    0.7242347    0.4031957  50.10  0.003035401    2.446    0.591
       102 -12.9385    118.3485    206.9814   7.1446749089e+01   1.4331779519e+01    0.2917503    0.2774874   6.10 0.0004046098    1.077    0.071
       103 -12.4673    115.6841    203.3165   7.1534191582e+01   1.5538111547e+01    0.2410296    0.2048216 -64.88 0.0005720067    1.328    0.247
       104 -10.9506     36.6603    215.3001   9.4734635377e+01   2.2415600260e+01    0.1766388    0.1260104 -61.80 0.0006786042    1.433    0.302
       105 -11.8517    155.9954    213.8874   6.3750527759e+01   7.9047392861e+00    0.3209494     0.162309 -21.27  0.001274562    2.858    0.650
       106 -12.4538    247.7816    212.8204   4.7281356709e+01  -1.6346587940e+00    0.1868085    0.1506969  -2.20 0.0005865541    1.343    0.255
       107 -11.9587     97.4543    212.2865   7.7645462162e+01   1.5899686989e+01    0.5319358    0.2589226 -63.52  0.001938007    2.357    0.576
       108 -12.7306    105.5040    208.5024   7.4969520990e+01   1.5719483765e+01    0.4487864    0.2614189   5.23  0.001858283    2.207    0.547
       109 -12.5778    103.4067    206.5713   7.5222809275e+01   1.6457102034e+01    0.7460318    0.3651629  10.03  0.002640995    2.998    0.666
       110 -10.6749     29.9347    212.1551   9.6317599338e+01   2.3890659871e+01    0.3009723    0.1451668  50.40  0.001241763    2.151    0.535
       111 -11.6391     26.1693    208.3757   9.7035850185e+01   2.5226194030e+01    0.2559714    0.1981307  71.02 0.0004594954    1.317    0.241
       112 -11.6887     61.3925    204.0611   8.6474147672e+01   2.2525063874e+01    0.7787042    0.3235909  17.47  0.002736923    2.768    0.639
       113 -13.3006     69.2798    207.4508   8.4670983390e+01   2.0699822233e+01    0.8192582    0.4564619  -3.51  0.003110847    2.662    0.624
       114 -13.4327     77.6669    201.8706   8.1546820017e+01   2.1039280856e+01    0.5401014    0.3071298 -49.66  0.001826559    1.762    0.432
       115 -12.0922     84.3155    198.6970   7.9215629243e+01   2.0957167729e+01     0.436184     0.287205  84.82  0.001521893    2.262    0.558
       116 -12.7556     80.2592    193.7933   7.9628993977e+01   2.2740487626e+01    0.4723345    0.3366939  42.49 0.0006188889    1.431    0.301
       117 -11.3713     69.1577    193.6439   8.2820035871e+01   2.4242696822e+01    0.2430451    0.1999618 -59.85 0.0006405431    1.236    0.191
       118 -13.7820     69.0589    187.1947   8.1910871725e+01   2.5935282048e+01     1.321033    0.9873993 -16.59  0.004502655    1.544    0.352
       119 -10.9932     46.9485    211.0982   9.1419687655e+01   2.2390388290e+01    0.2281171    0.1551615 -38.21  0.001088326    1.645    0.392
       120 -12.5933    229.2553    207.1092   4.9142206163e+01   9.5731325500e-01    0.3340471    0.1902782 -52.85  0.001259631    1.925    0.480
       121 -11.7364    225.2589    204.0585   4.9283890754e+01   1.8535673672e+00    0.1800568    0.1509457  -9.65 0.0004064368    1.215    0.177
       122 -11.6568    181.0529    207.7919   5.7603185181e+01   6.0391215969e+00    0.2381223     0.167255  -3.74  0.001363771    1.513    0.339
       123 -12.6736     54.8891    205.9851   8.8575867225e+01   2.2801399340e+01    0.3341034    0.2568122 -50.76 0.0007584486    1.335    0.251
       124 -11.5631    160.4741    206.7268   6.1616239397e+01   8.7856505580e+00    0.2184983    0.1818847 -62.29  0.001271222    1.474    0.322
       125 -11.3641     83.7498    206.3730   8.0490952901e+01   1.9125305911e+01    0.4627375    0.2035168  53.69  0.001462749    3.761    0.734
       126 -13.4069     35.9292    203.5954   9.3778428723e+01   2.5501782448e+01     0.569535    0.2960172 -43.08  0.001862514    2.181    0.542
       127 -10.6468     35.4799    198.5746   9.3383858246e+01   2.6867026979e+01    0.1981685    0.1298522 -57.02 0.0006067546    1.520    0.342
       128 -10.3668    205.2717    206.3135   5.2923225776e+01   3.5536906665e+00    0.1235759   0.07631432 -23.78 0.0002143574    1.554    0.357
       129 -12.1294     42.6652    205.6416   9.2049367037e+01   2.4259342946e+01    0.3291952     0.235686  19.36  0.001014958    1.399    0.285
       130 -11.1792    166.4819    204.5613   5.9993216019e+01   8.4561598847e+00    0.2883809    0.1197487 -49.27  0.001229828    2.237    0.553
       131 -12.5782    145.4909    202.2454   6.4167677384e+01   1.1685067714e+01    0.4542354    0.2447797 -55.91  0.002043795    1.992    0.498
       132 -13.7280    140.3447    196.4419   6.4368739161e+01   1.3645774117e+01     0.439349    0.3964759  73.32  0.001364284    1.430    0.301
       133 -13.0660    100.3469    184.2068   7.2427374101e+01   2.2311206952e+01    0.5448175    0.3719441 -25.31  0.002073356    1.710    0.415
       134 -12.9208     89.8481    177.2819   7.4201191902e+01   2.5598463356e+01    0.4908168    0.2947527 -83.97  0.001760069    2.686    0.628
       135 -12.5797    101.5753    195.7512   7.4009053045e+01   1.9303992726e+01    0.7791871     0.248228 -51.18  0.002618085    2.915    0.657
       136 -13.4985     94.0600    183.5810   7.4072870724e+01   2.3388425315e+01    0.5895953    0.3342762 -41.45  0.002325411    1.846    0.458
       137 -12.9223     90.0889    201.4807   7.8030062961e+01   1.9488765307e+01     0.641777    0.3443779 -42.77  0.001902917    1.950    0.487
       138 -13.6922     94.6989    194.5114   7.5683556647e+01   2.0573964613e+01    0.8998151    0.5996494  50.37  0.003537059    1.728    0.421
       139 -11.0871     49.3743    203.9331   8.9921129791e+01   2.3962021072e+01     0.275498    0.2146446 -59.31  0.001157089    1.303    0.232
       140 -10.7325     29.9726    201.9673   9.5343195042e+01   2.6527579431e+01    0.1623826     0.155076  81.06            0    1.032    0.031
       141 -13.3276     20.9964    198.1347   9.7600088577e+01   2.8386455032e+01    0.6760094    0.3648668  83.03  0.002846777    2.170    0.539
       142 -11.0847    239.3950    201.2049   4.6719690250e+01   9.4090855425e-01    0.1700544   0.08718946  24.85  0.001013846    2.479    0.597
       143 -11.0263     52.8331    201.1076   8.8580821455e+01   2.4300179033e+01    0.3530626    0.1763521   9.91  0.001324378    2.514    0.602
       144 -11.3448    212.4249    200.2114   5.0730753545e+01   3.8456438671e+00    0.1639215   0.09886275 -51.07 0.0008879552    1.648    0.393
       145 -14.3385    122.7843    197.4054   6.8772734372e+01   1.5906358048e+01    0.5467206    0.4599101  16.88  0.002992044    1.171    0.146
       146 -11.7258    225.0286    198.0457   4.8369955233e+01   2.8812690916e+00    0.2717614    0.1331473 -54.61   0.00137652    2.408    0.585
       147 -11.7974     60.0355    198.7015   8.6176803608e+01   2.4071348222e+01    0.3666811    0.1543539 -46.46  0.001204769    2.535    0.605
       148 -11.3678     29.2411    198.0929   9.5173599935e+01   2.7620686929e+01    0.3468802    0.2121369 -15.88  0.001497065    2.157    0.536
       149 -10.6930     14.7518    199.4637   9.9533017828e+01   2.8585126127e+01    0.1752028    0.1361807  -1.19 0.0005016237    1.457    0.314
       150 -11.0612     40.9701    198.3013   9.1733537376e+01   2.6361480958e+01    0.1942078    0.1770043  20.79 0.0002629849    1.099    0.090
       151 -12.5983    113.9098    197.1191   7.0979179427e+01   1.7231154060e+01    0.2113187    0.1993515  58.05 0.0004749764    1.211    0.175
       152 -12.7129     31.7844    178.5195   9.2260703650e+01   3.2640939526e+01    0.5962478    0.3209653 -44.27  0.002481468    1.971    0.493
       153 -12.2552     19.1383    188.0328   9.7212230270e+01   3.1251528582e+01    0.3206942    0.2255669  34.17 0.0006360771    1.392    0.282
       154 -12.1678     35.3292    190.1783   9.2509060100e+01   2.9119481482e+01    0.4439528    0.2469966 -49.08  0.001331105    1.838    0.456
       155 -12.5948      9.6255    194.5503   1.0062368164e+02   3.0308364763e+01    0.6030954    0.3246859  33.76  0.001888857    1.761    0.432
       156 -12.6229     26.5021    192.8451   9.5461145556e+01   2.9282132299e+01    0.6057852    0.3142131 -86.93  0.002467105    2.216    0.549
       157 -12.8080     29.5088    187.6998   9.4011656035e+01   3.0373983594e+01    0.6894799    0.4199746  57.32  0.003075086    1.800    0.444
       158 -14.2417     10.0751    187.7994   9.9933350367e+01   3.2074889303e+01    0.8765757    0.6279903 -33.75  0.004461713    1.570    0.363
       159 -11.8821     11.2389    180.4354   9.8928481218e+01   3.3971846717e+01    0.4279992    0.2447811  -0.69  0.001120399    2.142    0.533
       160 -11.8001      1.3636    196.5856   1.0316759312e+02   3.0404123085e+01    0.2592029    0.1236357 -78.29  0.000717336    2.001    0.500
       161 -13.1318    190.1094    193.8919   5.3575818349e+01   7.5693205592e+00    0.3689603    0.3427577  -1.54  0.001082262    1.197    0.165
       162 -11.5620    152.8621    195.8191   6.1424085897e+01   1.2045107183e+01    0.1759899    0.1668995  61.77 0.0005164194    1.321    0.243
       163 -11.2610     49.9343    195.3105   8.8722300706e+01   2.6153840067e+01    0.2521958    0.2005313  84.72 0.0009225301    1.382    0.276
       164 -11.5759    157.7476    194.9621   6.0211552228e+01   1.1557723616e+01    0.1805181    0.1071561 -46.49 0.0004934047    1.545    0.353
       165 -11.5567     36.9271    195.2240   9.2591121553e+01   2.7605028679e+01    0.2126124    0.1822001  49.62 0.0003365153    1.152    0.132
       166 -12.0196    217.4405    193.5362   4.8836281182e+01   4.4562283318e+00    0.2102473     0.172227 -46.80 0.0002268037    1.269    0.212
       167 -12.3873    162.8065    193.3512   5.8856189726e+01   1.1204610170e+01    0.2475121    0.2228966   0.84 0.0003450195    1.117    0.105
       168 -11.2777    212.5492    192.9836   4.9535207917e+01   5.0947166596e+00    0.1838476   0.09728573 -44.78 0.0003769064    1.546    0.353
       169 -12.1700    244.0926    191.7685   4.4600006164e+01   1.9981185080e+00    0.2161306     0.118419 -38.12 0.0004123797    1.352    0.260
       170 -11.4870    178.3257    190.8810   5.5289046121e+01   9.6390430214e+00    0.1882163    0.1437318 -38.65 0.0005420462    1.133    0.117
       171 -13.9246    134.3307    188.0276   6.4328467732e+01   1.6374103437e+01     0.558015    0.3226205 -43.54  0.001888844    1.640    0.390
       172 -14.0228    121.9488    186.8428   6.7172300012e+01   1.8472755482e+01    0.5734419    0.3403165 -34.21  0.002134681    1.835    0.455
       173 -13.9234    119.3534    181.0728   6.6810360900e+01   2.0217503075e+01    0.7269297    0.4007324  57.37  0.001694227    2.989    0.665
       174 -11.1518    234.4857    190.4984   4.5759563994e+01   3.1620115771e+00    0.1153499   0.08624607 -35.44 0.0008104919    1.012    0.012
       175 -12.6337     51.1991    189.7039   8.7631474060e+01   2.7493367198e+01    0.4214831    0.2783562   3.41  0.001173447    1.775    0.437
       176 -12.8322     51.4520    184.3298   8.6841966032e+01   2.8900016062e+01    0.6969143    0.2903952  33.14  0.002170301    2.221    0.550
       177 -10.9096    174.3815    188.8474   5.5710715564e+01   1.0560067367e+01    0.1942173     0.106306 -39.10 0.0008716001    1.638    0.389
       178 -12.3831    194.8907    187.7018   5.1662322018e+01   8.1380432063e+00     0.270725    0.1475981  40.31  0.001411488    2.230    0.552
       179 -12.7314    110.4023    188.1064   7.0380056446e+01   1.9879789358e+01    0.2924117    0.2112085  35.42 0.0009680486    1.395    0.283
       180 -11.4808     42.6043    186.8012   8.9885239939e+01   2.9249397762e+01    0.4299203    0.2424005  58.53  0.001206771    2.137    0.532
       181 -11.8130      2.5947    186.5016   1.0207248195e+02   3.2990015937e+01    0.2423517    0.2145538 -50.15 0.0005427191    1.174    0.148
       182 -11.9415    247.7982    185.6966   4.3158259495e+01   2.6025749739e+00    0.2047134    0.1391541 -17.20  0.001421443    1.587    0.370
       183 -10.6099    241.3438    186.2589   4.4122211166e+01   3.1553906800e+00     0.108475   0.07046802 -21.19 0.0003399505    1.592    0.372
       184 -11.3410    152.0016    187.9592   6.0242592415e+01   1.3832786592e+01    0.1749321    0.1486876 -36.66 0.0004863819    1.075    0.070
       185 -12.4205     22.2982    180.7108   9.5501087775e+01   3.2953197772e+01    0.4307466    0.3310938  83.86  0.001759628    1.345    0.256
       186 -12.0497      5.0442    181.2646   1.0091350182e+02   3.4220925840e+01    0.2704253    0.2102708 -29.09 0.0006191126    1.433    0.302
       187 -11.1564    167.4813    181.5138   5.5803507728e+01   1.2984945586e+01     0.200469    0.1228932 -55.74  0.000189729    1.710    0.415
       188 -11.4996    167.0008    178.0358   5.5276122305e+01   1.3765592348e+01    0.2046308    0.1794288 -33.53 0.0003388782    1.006    0.006
       189 -11.6405    142.4524    181.0261   6.1159772082e+01   1.6733379650e+01    0.2177949    0.1319553 -49.02 0.0004340384    1.554    0.356
       190 -13.6045    106.3847    176.6180   6.9441267178e+01   2.3272470870e+01     0.496594    0.3005464 -58.72 0.0006407679    1.710    0.415
       191 -11.7806    198.9090    179.9677   4.9636648012e+01   9.0716625593e+00    0.1865495    0.1528868 -37.02 0.0003205482    1.024    0.023
       192 -13.4489     56.8966    176.3493   8.4017831277e+01   3.0380284724e+01    0.4907517    0.3795654 -29.81  0.001356041    1.403    0.287
       193 -11.8309     54.3817    166.9539   8.3391428364e+01   3.3234343479e+01     0.283707    0.2199131  35.72 0.0005201319    1.286    0.223
       194 -13.0984     61.1782    168.8496   8.1506987864e+01   3.1846048898e+01    0.6013853    0.4813219  72.47  0.002918516    1.442    0.306
       195 -12.7559     57.0933    163.2146   8.1913465623e+01   3.3898886816e+01    0.4844576    0.3258413  79.88  0.002046315    1.974    0.493
       196 -13.5846     65.2360    181.2060   8.2165758851e+01   2.8013603892e+01    0.8980786    0.4090196 -47.20  0.003367333    2.241    0.554
       197 -12.0411    192.1205    177.8661   5.0458980892e+01   1.0341785852e+01    0.1843603    0.1629448 -55.82 0.0006064783    1.254    0.202
       198 -13.2949    100.7466    172.1661   7.0192143450e+01   2.5240126671e+01    0.4052565    0.2336382 -52.37  0.001722813    1.688    0.408
       199 -13.6947     89.3726    183.3266   7.5360593747e+01   2.4131604627e+01    0.9386737    0.5525887 -81.58  0.003544669    2.641    0.621
       200 -12.6541    136.5684    175.7618   6.1574971386e+01   1.8802847955e+01     0.342943    0.2450505 -87.52  0.001527988    2.261    0.558
       201 -10.6528    250.5968    176.4634   4.1361955235e+01   3.7872269603e+00    0.1114153   0.07848382 -38.00 1.422268e-05    1.040    0.039
       202 -12.8477    149.2328    175.9620   5.8690356960e+01   1.6822936893e+01    0.2654181    0.2099003  14.34  0.001432127    1.379    0.275
       203 -12.9208     12.6863    174.9307   9.7953497034e+01   3.5356607836e+01    0.4100379    0.2447101 -47.81   0.00146232    1.695    0.410
       204 -11.5246      6.3332    176.2793   1.0008764104e+02   3.5478294176e+01    0.2927698    0.1829047  23.00 0.0004961914    1.638    0.389
       205 -12.1288      2.4957    171.9737   1.0092549375e+02   3.6924468187e+01    0.5740232    0.2836918  89.40  0.002364619    2.169    0.539
       206 -13.5107    131.7214    169.4009   6.1549717104e+01   2.1008410935e+01    0.4841826    0.3640459  66.02  0.002333926    1.800    0.445
       207 -13.3706    126.4993    172.9837   6.3514672054e+01   2.1008310845e+01    0.4583524    0.2597113 -59.28  0.001617625    1.919    0.479
       208 -13.7565    125.4233    167.4372   6.2735786820e+01   2.2470631858e+01     0.490835    0.4538724  44.08  0.002700859    1.160    0.138
       209 -11.5086     16.8849    175.5086   9.6673007547e+01   3.4851201630e+01    0.2063386    0.1437531  17.20 0.0007225402    1.503    0.335
       210 -11.4531    213.9580    174.0017   4.6152149960e+01   8.2803907406e+00    0.1892648    0.1571359  26.90 0.0009048808    1.461    0.316
       211 -13.0695     75.3251    170.1421   7.7298695722e+01   2.9557510618e+01    0.5666015    0.3162934  60.54  0.002047344    2.691    0.628
       212 -10.7806     40.9729    174.3475   8.8797712137e+01   3.2808618126e+01    0.2507916    0.1170168  -8.98 0.0007049092    4.422    0.774
       213 -12.4958     24.9048    168.9475   9.3346827868e+01   3.5937600304e+01    0.4243106    0.2710353  12.94  0.001478724    1.686    0.407
       214 -12.5554     33.3779    172.6571   9.1031652969e+01   3.4083627770e+01    0.6309739    0.3881352   8.07   0.00257652    1.850    0.460
       215 -11.4548     27.1820    172.8287   9.3062979246e+01   3.4653688262e+01    0.2587899    0.2228876 -52.48 0.0003778908    1.147    0.128
       216 -11.1645     22.5698    174.1165   9.4701562689e+01   3.4732106755e+01    0.2269111    0.1385857 -71.86  0.001021039    1.585    0.369
       217 -11.4372    235.0287    171.7879   4.2691413482e+01   6.1996515635e+00    0.1925466    0.1455048 -10.15  0.001203268    1.562    0.360
       218 -13.9699     91.2833    170.1004   7.2520041410e+01   2.7211823814e+01    0.4647619    0.4277261 -17.89  0.002006419    1.094    0.086
       219 -11.8736    197.2678    170.6043   4.8290464294e+01   1.1026963987e+01    0.2323294    0.1310002 -32.40  0.001187677    1.782    0.439
       220 -13.1387    152.3816    166.9899   5.6315935055e+01   1.8278249444e+01    0.5998193    0.1770209 -53.07  0.001901042    3.575    0.720
       221 -11.4191     18.9939    170.0108   9.5407809448e+01   3.6178894385e+01    0.2141051    0.1968566  68.87  0.001191057    1.093    0.085
       222 -11.3379     15.5593    167.5418   9.6266294515e+01   3.7150141150e+01    0.2281006    0.1438843  17.28 0.0005823937    1.663    0.399
       223 -12.0304     41.1678    168.1128   8.7881546816e+01   3.4492883101e+01    0.3460381    0.2463998  84.74  0.001086899    1.629    0.386
       224 -11.8067      9.9997    166.7710   9.8015674067e+01   3.7804649398e+01    0.3738273    0.1889421  40.74  0.001094049    2.001    0.500
       225 -12.8717      4.8743    162.2244   9.9263257954e+01   3.9427483285e+01    0.4612655    0.3723783 -22.82  0.001501918    1.343    0.255
       226 -12.5026    110.7597    164.4256   6.5984924362e+01   2.5557721000e+01     0.280226    0.2607837 -42.88 0.0003119489    1.048    0.046
       227 -14.5841     89.5864    162.0360   7.1536698410e+01   2.9527896944e+01    0.7922842    0.5095521 -43.25  0.003485003    1.577    0.366
       228 -12.0872     77.3072    159.9836   7.4891524291e+01   3.1931431497e+01    0.2217022    0.1996746 -56.80 0.0004727853    1.112    0.101
       229 -12.4393     72.9400    164.9321   7.7138281567e+01   3.1270210261e+01    0.3004538    0.2393639  47.75 0.0004181449    1.319    0.242
       230 -12.0949     73.5590    161.2187   7.6288230364e+01   3.2159466689e+01    0.2925085    0.2076822 -37.85 0.0006901036    1.485    0.326
       231 -12.5779     47.6597    163.0447   8.4993369612e+01   3.5125588468e+01    0.3748347     0.302212 -71.56  0.001864765    1.262    0.208
       232 -12.1993      2.2428    153.4914   9.9296560124e+01   4.2000988485e+01    0.4011958    0.2650912  88.63  0.001939457    1.556    0.357
       233 -13.6635     37.0870    161.8484   8.8356876520e+01   3.6662928456e+01    0.8720349    0.4470687  11.94  0.003382579    2.272    0.560
       234 -12.1388     33.1285    157.8968   8.9144652505e+01   3.8171521518e+01    0.3113536    0.2097777  85.87  0.001074297    1.746    0.427
       235 -13.1025     22.5207    161.9304   9.3295941743e+01   3.8093222551e+01    0.6176301    0.4738792 -52.99   0.00314267    1.257    0.205
       236 -15.0763     17.9508    150.3016   9.3424807781e+01   4.1704523612e+01     1.398476     1.116105 -84.73  0.006388524    1.277    0.217
       237 -14.1295      4.5981    145.6063   9.7634979364e+01   4.4007598030e+01     1.162517    0.7969422 -66.41  0.005834734    1.336    0.251
       238 -14.8435     20.9834    127.8297   8.9058528467e+01   4.7558869268e+01     1.229911    0.7372158  41.87  0.004710778    1.807    0.447
       239 -13.1750      2.0156    130.3414   9.6807989007e+01   4.8320874903e+01    0.7982007    0.3876776 -59.40  0.003476636    1.781    0.439
       240 -14.5953     14.1366    135.4484   9.2842395868e+01   4.6085523320e+01     1.701952    0.7629026  66.63  0.005045307    3.999    0.750
       241 -13.0522      8.4551    135.2660   9.4970442216e+01   4.6563207877e+01    0.6654249    0.3512311  54.95  0.001453146    2.340    0.573
       242 -12.9258     26.7710    154.6381   9.0892842388e+01   3.9707986991e+01    0.6210175    0.3445438  50.47  0.001876557    2.045    0.511
       243 -13.4662     27.1621    149.6395   9.0058845861e+01   4.1046669429e+01    0.6903813    0.3174621  48.63  0.002513775    2.580    0.612
       244 -12.4894     16.4952    160.4915   9.5168293927e+01   3.9016031110e+01    0.4193075    0.2502495  68.08  0.001693588    1.994    0.499
       245 -12.2464     12.3415    161.0642   9.6639321858e+01   3.9194325961e+01     0.306332    0.2573689 -83.10 0.0004658483    1.160    0.138
       246 -11.5602    205.9845    164.0427   4.5702187079e+01   1.1080046694e+01    0.1911732    0.1559345 -36.56 0.0004651701    1.054    0.051
       247 -13.1681     57.3778    157.4221   8.0856885847e+01   3.5424584029e+01    0.4297414    0.3609044  24.33  0.000815177    1.196    0.164
       248 -14.1797     65.1882    161.8951   7.9069424397e+01   3.3167878490e+01    0.9811792    0.3335342 -59.87   0.00319717    2.815    0.645
       249 -12.8169     62.9070    156.8792   7.8939241533e+01   3.4823004022e+01    0.3814231    0.2904537 -34.68 0.0004186387    1.386    0.278
       250 -14.8413     66.3645    153.2882   7.7162568985e+01   3.5293493932e+01    0.7615899    0.5952628  60.96  0.002561935    1.468    0.319
       251 -11.2807    242.9460    162.3309   4.0115049222e+01   6.8679892878e+00    0.1474573    0.1187193 -40.00 0.0004113425    1.089    0.082
       252 -11.0711    178.9253    160.7155   4.9771294806e+01   1.5513373708e+01    0.1709308    0.1608585 -33.22 0.0003327232    1.089    0.082
       253 -12.9023    170.1691    160.2307   5.1351821046e+01   1.6933853104e+01    0.2955015    0.2530132 -50.99  0.001766768    1.109    0.099
       254 -13.5537     81.5823    157.9296   7.3186149389e+01   3.1819767419e+01    0.5254163    0.2950432 -61.14  0.001115423    1.844    0.458
       255 -12.0044    158.9751    160.0773   5.3587121018e+01   1.8711033643e+01     0.205261    0.1870377 -36.01 0.0003048902    1.019    0.019
       256 -11.7368    120.4750    160.4946   6.2651213960e+01   2.4906247694e+01    0.1490764     0.141596 -29.61 1.374028e-06    1.015    0.015
       257 -11.9756    132.0370    157.3633   5.9133317421e+01   2.3706068546e+01    0.2536441    0.1936089 -37.43 0.0007594714    1.295    0.228
       258 -11.2475    105.2577    158.5633   6.6356222387e+01   2.7884563901e+01    0.2777565    0.1421057  38.62 0.0007847171    1.964    0.491
       259 -11.0350    117.6687    157.6709   6.2823144347e+01   2.6040444203e+01    0.1579259    0.1147356 -17.95 0.0006498423    1.716    0.417
       260 -10.9352    204.9052    156.1460   4.4485233408e+01   1.2660481978e+01    0.1773305     0.148084 -59.67 0.0003080109    1.242    0.195
       261 -11.8030    121.7574    156.0107   6.1430775144e+01   2.5744969611e+01    0.1953345    0.1225191 -51.79 0.0002219224    1.543    0.352
       262 -11.8934    112.2431    156.4023   6.4013140203e+01   2.7250603980e+01    0.2145889    0.1386205  44.99 0.0009474078    1.644    0.392
       263 -12.8907     75.6073    155.4298   7.4582751474e+01   3.3375462310e+01    0.3352196    0.2113044  46.95  0.001423995    1.717    0.418
       264 -12.2594    212.0227    153.2370   4.2879635347e+01   1.2216465761e+01    0.2980601    0.1429498 -57.51  0.001391101    2.421    0.587
       265 -14.0892     38.8889    151.7571   8.6236673753e+01   3.9234065737e+01     1.315151    0.4642299  50.95  0.003556965    4.711    0.788
       266 -13.8274     39.8476    145.7975   8.4943307919e+01   4.0751397767e+01    0.6975272    0.3423916  36.30  0.002767908    2.021    0.505
       267 -13.1381     36.5070    143.5131   8.5768025507e+01   4.1750153322e+01    0.5861832    0.3197249   2.00  0.002249297    2.396    0.583
       268 -12.3568     88.1309    152.8773   7.0213456558e+01   3.2089670577e+01    0.3171128    0.2288147  65.01 0.0007703366    1.774    0.436
       269 -13.9324     85.0643    148.2974   7.0241003396e+01   3.3745288824e+01    0.6714163    0.3728526 -50.81  0.001962171    1.756    0.430
       270 -13.0076     80.0254    147.0065   7.1556588249e+01   3.4877315880e+01    0.3751974    0.2819138 -14.23 0.0007056342    1.612    0.380
       271 -12.1408    141.2185    154.1019   5.6311203952e+01   2.2898003312e+01     0.272322    0.2000378 -67.32 0.0008782562    1.577    0.366
       272 -10.4861    249.5005    151.5377   3.7582092325e+01   7.8625940680e+00    0.1115086    0.0814596 -42.60 3.487278e-05    1.037    0.036
       273 -10.6005    232.4893    151.5683   3.9718696301e+01   9.8676713377e+00    0.1157658   0.08914455 -43.99 6.279469e-05    1.010    0.010
       274 -11.4504     79.4936    151.5235   7.2613091137e+01   3.3797931822e+01    0.1528161    0.1508224 -14.12 6.367544e-05    1.010    0.009
       275 -12.1467    170.4682    150.2877   4.9396003601e+01   1.8896349397e+01    0.3354785    0.1142926  46.95  0.001219993    3.565    0.719
       276 -12.2253    147.5040    149.5630   5.3984224886e+01   2.2828391025e+01    0.2924013    0.2459112  87.58  0.001062774    1.461    0.316
       277 -12.3728    131.1016    150.3086   5.7939419458e+01   2.5465450949e+01    0.4083644    0.1972279  22.86 0.0009962261    3.497    0.714
       278 -13.3636     97.7838    148.5147   6.6469517127e+01   3.1599247140e+01    0.4109963    0.4055392 -26.72  0.001311595    1.010    0.010
       279 -12.6984    108.5802    148.8810   6.3486033808e+01   2.9678350807e+01    0.3731672    0.2852361 -58.82 0.0008513466    1.334    0.251
       280 -11.7844    121.2394    146.7863   5.9680174051e+01   2.7981178150e+01    0.2065363    0.1721728 -19.46 0.0005748692    1.341    0.254
       281 -14.0229     49.1592    151.9906   8.2714348623e+01   3.7950904303e+01    0.6688322    0.3732368  35.16  0.001356747    1.767    0.434
       282 -12.8150     72.4216    145.8970   7.3779091805e+01   3.6341775365e+01     0.280873    0.2080641  40.40 0.0008008279    1.367    0.268
       283 -12.4651    168.6865    144.9117   4.8692237504e+01   2.0264239285e+01    0.3502486    0.2187046  32.18            0    1.960    0.490
       284 -13.3385    101.4461    142.3511   6.4127083676e+01   3.2482028593e+01    0.7295792    0.3848557  53.10    0.0019005    2.434    0.589
       285 -12.5920     94.9420    140.0159   6.5530033999e+01   3.4170789785e+01    0.3483063    0.2181803 -42.77  0.001111131    1.638    0.389
       286 -13.7767     42.9770    133.9952   8.1746038391e+01   4.3558491140e+01    0.7321993    0.3062776  48.44  0.002408189    3.163    0.684
       287 -12.7621     26.5198    134.9742   8.8077858138e+01   4.5113111801e+01    0.3558521    0.2774529  62.40  0.001326385    1.465    0.318
       288 -14.1761     45.6827    141.2389   8.2075708089e+01   4.1287686495e+01     0.906288    0.3656126  51.33  0.002715814    3.824    0.738
       289 -13.1076     29.4997    139.2866   8.7651094072e+01   4.3645769942e+01    0.4687454    0.2866482  15.41 0.0001723819    1.727    0.421
       290 -13.9491     28.0790    128.2272   8.6358285674e+01   4.6769650302e+01    0.6325834    0.5422894  42.73  0.001478774    1.243    0.195
       291 -14.0429     35.4360    138.5224   8.5331197108e+01   4.3222138100e+01    0.8128938    0.3466566  18.33  0.002935651    2.555    0.609
       292 -12.7757     37.0003    135.0035   8.4145785140e+01   4.3994519029e+01    0.3897017    0.2660507  39.65  0.001021766    1.520    0.342
       293 -13.8031     35.8078    131.0682   8.3894605575e+01   4.5182046288e+01    0.5680946    0.4568566  86.28 0.0004291429    1.439    0.305
       294 -10.7114    230.8104    139.8521   3.7975986155e+01   1.2029786191e+01    0.1514485    0.1115659 -58.39 0.0003421227    1.274    0.215
       295 -11.9542    223.0391    139.7561   3.8976300630e+01   1.3073494718e+01    0.2097353    0.1356958 -43.35 0.0002667424    1.237    0.192
       296 -13.2302     57.2196    139.5307   7.7673919715e+01   4.0226154411e+01    0.3999166    0.2388487 -24.66  0.001553004    2.247    0.555
       297 -11.4587    179.7192    135.0018   4.4733549733e+01   2.0398700865e+01    0.1841189    0.1485853 -50.01 0.0002003459    1.081    0.075
       298 -11.3977    126.5138    137.4859   5.6381667909e+01   2.9162743923e+01    0.1463276    0.1400911 -39.29 -2.103924e-05    1.034    0.033
       299 -12.7630    118.5579    135.3353   5.7934636693e+01   3.1088956357e+01    0.3682842    0.3099355 -89.17  0.001385325    1.396    0.284
       300 -12.5790    103.0935    134.1577   6.1885935618e+01   3.4152733396e+01    0.3418308    0.2200699 -46.47 0.0008166904    1.540    0.351
       301 -12.9539     85.3823    133.5545   6.7056676021e+01   3.7387571456e+01    0.5293785    0.2793618 -64.76  0.001268071    2.308    0.567
       302 -14.2228     81.9204    127.3049   6.6772942222e+01   3.9507249243e+01    0.5773137    0.5096259  -2.43  0.001577497    1.225    0.184
       303 -12.7094     78.0039    133.4996   6.9404403180e+01   3.8628572959e+01    0.4417662    0.2588648  -4.98   0.00145644    3.385    0.705
       304 -11.8338    128.2672    133.8296   5.5161443610e+01   2.9657236405e+01    0.3881415    0.2271325 -84.76  0.001140738    4.916    0.797
       305 -11.3572    236.9128    130.9365   3.5730503674e+01   1.2695042083e+01     0.167157    0.1267107 -49.24 0.0003169231    1.005    0.005
       306 -11.6772    200.9938    130.7837   4.0494539312e+01   1.7805404455e+01    0.2125317    0.1571443  58.28 0.0009975531    1.635    0.388
       307 -12.8883     69.6249    130.2670   7.1497488198e+01   4.0784772870e+01    0.4147978    0.2239666 -28.59  0.001283237    2.784    0.641
       308 -12.5852     64.9270    127.4273   7.2504248105e+01   4.2231620810e+01    0.2925809    0.2214018 -81.95  0.001140643    1.627    0.385
       309 -14.3342     59.8263    126.3494   7.4074985659e+01   4.3273098299e+01    0.5657758    0.4376075  48.70  0.001928427    1.390    0.280
       310 -10.5320    230.2767    130.6713   3.6490212161e+01   1.3615804097e+01    0.1142315    0.0747462 -63.44 0.0004141862    1.594    0.373
       311 -12.1308    206.5035    129.3243   3.9420111791e+01   1.7227454412e+01    0.2187894    0.1793724 -53.72 0.0003866294    1.036    0.035
       312 -14.1074     46.0395    128.7130   7.9602108688e+01   4.4569224232e+01    0.6831741     0.281799  35.76  0.002114431    2.353    0.575
       313 -13.9861     44.3546    120.9642   7.8677167252e+01   4.6796888594e+01    0.6044315    0.4163248 -29.33  0.002204881    1.592    0.372
       314 -10.5885    130.5078    128.4436   5.3443219956e+01   3.0421211512e+01    0.1431232    0.1381596 -59.16 8.559682e-05    1.009    0.009
       315 -11.2857    121.8434    128.1741   5.5512802661e+01   3.2091963405e+01     0.222234    0.1978703 -83.97 0.0006584074    1.214    0.176
       316 -13.4152     61.2552    133.6193   7.5089772844e+01   4.1196494519e+01    0.4634765    0.3071271  -1.75  0.001936954    1.986    0.496
       317 -11.0868    162.7871    126.9990   4.6219761506e+01   2.4835413373e+01    0.2145945    0.1457771 -26.31 0.0006694173    1.914    0.478
       318 -13.0101     74.1622    126.0371   6.9036776783e+01   4.1114112134e+01    0.3632417    0.2790379 -54.43 0.0009667816    1.309    0.236
       319 -12.0417    177.0514    126.0420   4.3432911629e+01   2.2544908490e+01    0.2062017    0.1739898 -54.63 0.0005821437    1.043    0.041
       320 -11.1665    224.8994    128.8483   3.6852112499e+01   1.4651007689e+01    0.1647821    0.1309302 -40.79 0.0003034123    1.173    0.148
       321 -11.4447    188.9391    121.6677   4.0616497918e+01   2.1359741598e+01     0.201554    0.1551955 -43.17 0.0001923978    1.196    0.164
       322 -11.1925    165.3298    122.0087   4.4710618286e+01   2.5355752133e+01    0.1911158    0.1576015 -54.94 0.0004065041    1.096    0.088
       323 -12.1230     94.1177    117.2665   6.0641438702e+01   3.9716725610e+01    0.2697727    0.2565876 -29.48  0.001464381    1.080    0.074
       324 -12.9441    103.7563    121.6901   5.8872952293e+01   3.6922248237e+01    0.4540606    0.2842632  42.30  0.001611113    1.597    0.374
       325 -12.4185     99.2944    117.9755   5.9279586971e+01   3.8595734430e+01    0.3668576    0.2662033  80.18  0.001106283    1.947    0.486
       326 -12.7044     68.4326    122.3312   7.0158054907e+01   4.2957223825e+01    0.3090089    0.1887894  35.27  0.001143392    1.606    0.377
       327 -13.9140     11.2557    107.1784   8.9584736783e+01   5.3784262312e+01     1.035075    0.5789661  54.33  0.004403154    2.398    0.583
       328 -11.5141     14.9996    103.0301   8.7184330645e+01   5.4530949588e+01    0.2903322    0.1982537   6.93 0.0008459571    1.495    0.331
       329 -13.3976      4.5164    119.1758   9.4332895297e+01   5.1142462605e+01    0.5842319    0.3720378 -75.53  0.002611008    1.575    0.365
       330 -13.7030     12.3450    118.0243   9.0947064312e+01   5.0888974504e+01    0.8339767    0.2397085  29.61   0.00285073    3.191    0.687
       331 -13.4075     19.8003    115.7498   8.7485469502e+01   5.0856424913e+01    0.5893568    0.4052519  58.09  0.002795383    1.795    0.443
       332 -11.8864     24.2121    115.0085   8.5528166053e+01   5.0631623301e+01       0.3832    0.2052237  45.18  0.001271882    2.171    0.539
       333 -12.4771     78.9245    120.4131   6.6170768697e+01   4.1686014335e+01    0.2600198    0.2157579 -70.01 0.0006643845    1.330    0.248
       334 -11.2083    224.2892    120.0640   3.5406423501e+01   1.6185973573e+01    0.1631334     0.119477 -51.41  0.000340269    1.065    0.061
       335 -11.2813    197.2799    120.6674   3.9156182114e+01   2.0180576427e+01    0.1257341   0.08608995 -68.60 0.0004235328    1.608    0.378
       336 -11.5844     35.9875    119.7266   8.1685051319e+01   4.8143398321e+01    0.2458101     0.210212 -57.73 0.0005305996    1.161    0.138
       337 -11.1106    229.1849    119.3996   3.4700409899e+01   1.5601231449e+01    0.1417131    0.1049063  78.42 0.0009554176    1.728    0.421
       338 -12.4605     63.9506    118.6052   7.0888030957e+01   4.4585233118e+01    0.2583782     0.198648 -41.69 0.0005203249    1.314    0.239
       339 -12.3576     51.4244    116.4088   7.5001448890e+01   4.6997613194e+01     0.564926    0.3346567  51.53  0.002041575    2.067    0.516
       340 -12.4396     74.2675    115.6542   6.6606477559e+01   4.3616761935e+01    0.4604415     0.235219  60.81  0.001417698    3.905    0.744
       341 -11.6742    104.8582    114.1953   5.6790974310e+01   3.8388270544e+01    0.2556446    0.2039148 -66.23 0.0009510266    1.360    0.265
       342 -12.5118     82.6953    111.4293   6.2790446636e+01   4.3132779597e+01    0.5628139    0.1616701 -47.59  0.001711508    3.491    0.714
       343 -11.1814    124.1552    114.3332   5.1782372963e+01   3.4633085187e+01    0.1983813    0.1813699  65.37  0.001107677    1.107    0.097
       344 -13.2036     64.5132    113.5087   6.9501117755e+01   4.5738004414e+01    0.4563884    0.2795756  19.85  0.001783323    1.859    0.462
       345 -13.9873     61.9128    110.3226   6.9682729936e+01   4.6916634990e+01    0.6969537    0.4606652 -33.76  0.003137395    1.694    0.410
       346 -11.0709    242.4493    112.5180   3.2059162403e+01   1.4866616068e+01    0.1115771   0.08232031 -52.41 5.921313e-05    1.006    0.006
       347 -13.8040    120.8599    107.0428   5.0867746298e+01   3.6786890173e+01    0.4388045    0.4087293 -16.40 0.0009975851    1.221    0.181
       348 -12.4065    109.9183    111.6121   5.4782871593e+01   3.7975240205e+01    0.2624846    0.2289882 -45.96 0.0003498324    1.158    0.136
       349 -12.9127     90.8901    109.6311   5.9765746305e+01   4.2038928715e+01    0.4378187    0.2951573 -24.33  0.001899821    2.015    0.504
       350 -11.6721     52.5212    110.8344   7.3317144870e+01   4.8219183419e+01    0.2881715    0.2017621  34.18 0.0006905611    1.406    0.289
       351 -11.8919    220.4760    109.2422   3.3972847426e+01   1.8503595492e+01    0.2266349    0.1376687  51.93  0.001397543    2.053    0.513
       352 -11.8899    209.8937    107.6254   3.4993069267e+01   2.0395185483e+01     0.238404    0.1437043 -53.20 0.0008995364    1.375    0.273
       353 -13.0184      3.4675    106.6678   9.2886530266e+01   5.4462422993e+01    0.3491474    0.3046048  33.57 0.0009475427    1.262    0.207
       354 -10.5254    140.3418    107.6872   4.6557728287e+01   3.2820137147e+01     0.144581    0.1064436 -87.04 0.0007046653    1.702    0.412
       355 -11.0079    157.3568    105.6987   4.2729572779e+01   2.9916833787e+01    0.1395556    0.1000766 -83.71 0.0007037753    1.710    0.415
       356 -10.6609    229.9996    103.0456   3.1803909655e+01   1.8074150244e+01    0.1350949    0.1024783 -55.53 0.0003241411    1.003    0.003
       357 -12.3390    162.1724     99.2302   4.0458669432e+01   3.0179609732e+01    0.2497174    0.1803681  82.65  0.001354263    1.609    0.379
       358 -12.1067    168.4379     96.7282   3.8860144702e+01   2.9434968121e+01    0.2456985    0.1593979 -25.69  0.001189711    2.316    0.568
       359 -12.1634     79.0181    101.4911   6.1490906932e+01   4.6031829010e+01    0.2906188    0.2284372  61.80 0.0007059237    1.457    0.314
       360 -12.9735    208.1607     99.6787   3.3750737297e+01   2.1968496667e+01    0.2443248    0.2002326 -57.08 0.0004708707    1.049    0.046
       361 -12.9270     93.2363     99.3002   5.6437574251e+01   4.3831371176e+01    0.4461871    0.2924751  53.79  0.002065769    1.613    0.380
       362 -11.6566     31.7524     98.9206   7.8988611905e+01   5.3851936847e+01    0.4791656    0.1975163 -34.68  0.001615694    3.231    0.691
       363 -12.6984    166.0844    100.4330   4.0042151747e+01   2.9224648298e+01    0.3940054    0.1557293 -51.99   0.00160414    2.508    0.601
       364 -12.1531     23.9647     97.5819   8.2092037482e+01   5.5034425239e+01    0.4539463    0.1584531  35.72  0.001637418    2.865    0.651
       365 -11.7077      9.2191     97.9558   8.8807350487e+01   5.6260075776e+01    0.2765104     0.163926  81.82   0.00116902    2.559    0.609
       366 -10.9246    178.7029     97.6784   3.7429376374e+01   2.7370834359e+01    0.1163554    0.1008041 -12.89 0.0003076424    1.620    0.383
       367 -12.8720     81.9571     96.5786   5.9239641944e+01   4.6554419519e+01    0.4046782    0.2861361 -25.25  0.001885521    1.786    0.440
       368 -11.6823     58.5150     96.7770   6.7554522308e+01   5.0610260985e+01    0.3543507    0.2268266 -19.30  0.001495601    2.176    0.540
       369 -12.5693     98.6105     93.9711   5.3478337723e+01   4.3873169866e+01    0.5827571    0.2386019 -56.50 0.0009277337    3.274    0.695
       370 -10.5182    117.4850     94.4099   4.8599951216e+01   3.9976675564e+01    0.1413289    0.1308325  79.86 8.607832e-05    1.052    0.049
       371 -11.7039     78.6145     92.7686   5.9316265264e+01   4.7982910491e+01    0.1972665    0.1403864 -60.61 0.0006059546    1.606    0.377
       372 -12.1929     62.6110     92.7812   6.4952049995e+01   5.0823370797e+01    0.3110588    0.2216892  75.43 0.0007277581    2.165    0.538
       373 -11.0981     59.4050     91.2650   6.5747298992e+01   5.1689042816e+01    0.2065416    0.1442838 -51.15 0.0003411496    1.495    0.331
       374 -12.5091    207.3713     91.1781   3.2273454790e+01   2.3451787698e+01    0.2642748    0.1738721 -38.46  0.001276631    1.575    0.365
       375 -10.8639    244.9603     91.2750   2.8329406346e+01   1.7701626913e+01    0.1399724    0.1085129 -60.34 0.0002681786    1.078    0.073
       376 -12.7998    230.2619     89.6206   2.9475194299e+01   2.0077201554e+01    0.2232894    0.1644686 -55.16 0.0004643921    1.050    0.047
       377 -10.9245    220.2627     89.7680   3.0548122800e+01   2.1591269257e+01     0.137867    0.1168945 -47.58 0.0003692717    1.266    0.210
       378 -12.3154     71.1364     90.0057   6.1113268665e+01   4.9932182554e+01     0.300652    0.1475808  43.57  0.001226938    1.981    0.495
       379 -11.6390     28.5545     90.3737   7.8369713107e+01   5.6251213129e+01    0.2874426   0.08843464  37.47 0.0009566041    3.304    0.697
       380 -11.6234     11.4916     87.0407   8.5530841378e+01   5.8725810906e+01    0.3022923    0.1779864  23.22 0.0008111667    1.674    0.403
       381 -11.9040      5.1801     87.3008   8.8621102813e+01   5.9146872932e+01    0.4005845    0.2452563 -23.17  0.001679429    1.626    0.385
       382 -11.6684    162.6168     87.1906   3.7764470713e+01   3.2187299242e+01    0.1751413    0.1174911 -37.21 0.0003752904    1.640    0.390
       383 -12.1135    150.0000     84.0604   3.9236079133e+01   3.5218380769e+01       0.2594    0.1367866 -39.58   0.00121458    2.004    0.501
       384 -12.7075     60.8818     85.4311   6.3571129272e+01   5.2690170565e+01    0.4886149    0.2518902 -31.07  0.001860533    2.767    0.639
       385 -12.2541     54.4389     85.8952   6.6193049128e+01   5.3659458802e+01    0.4634941    0.3740688   7.85  0.002467457    1.301    0.231
       386 -11.3304    125.2173     85.3339   4.4514759287e+01   4.0078428669e+01    0.2628637    0.2274129  -7.74  0.001474598    1.537    0.349
       387 -10.5646     35.4574     86.3855   7.4281935293e+01   5.6321079966e+01    0.1409098    0.1273851   1.39 0.0001532739    1.025    0.024
       388 -12.7692    110.8772     83.6454   4.7473288750e+01   4.3362178241e+01     0.388816    0.2366986  53.69  0.001441907    1.596    0.373
       389 -12.2322     77.5058     82.3381   5.6784409551e+01   5.0312439399e+01    0.3437933    0.3110305  23.33  0.001270775    1.112    0.100
       390 -11.3674    189.5170     83.4926   3.3035049753e+01   2.7745386172e+01    0.1228039    0.1011835 -66.52 -4.425194e-05    1.004    0.004
       391 -11.7956    171.1644     83.2049   3.5556529040e+01   3.1198385284e+01    0.1771813     0.169204 -60.00 0.0006639127    1.229    0.186
       392 -11.5831    206.6383     80.9199   3.0452267351e+01   2.5155910552e+01    0.1668734     0.121192 -55.95  0.000458825    1.118    0.106
       393 -12.3152    182.2142     80.5670   3.3422238005e+01   2.9540003153e+01    0.2553356    0.1526836 -45.58 0.0008345011    1.527    0.345
       394 -11.4130    153.8586     80.1212   3.7658248107e+01   3.5101927635e+01    0.1623676    0.1572867 -17.40 0.0004157294    1.320    0.243
       395 -12.3447     87.5505     79.1014   5.2669388773e+01   4.8972705901e+01    0.3090778    0.2527219  61.26 0.0006040201    1.257    0.204
       396 -11.2764     85.7625     75.2178   5.2098935687e+01   5.0049019849e+01    0.1859322    0.1844048  31.25 0.0005347689    1.069    0.064
       397 -11.4611     29.1922     79.5495   7.5296860206e+01   5.8627723930e+01    0.2639199    0.2167472  53.44  0.001457379    1.488    0.328
       398 -12.6990    215.0845     75.9011   2.8617328626e+01   2.4493004606e+01    0.3220219    0.1521382 -44.61  0.001815813    1.779    0.438
       399 -12.6444    112.8980     75.8008   4.4899246144e+01   4.4337694100e+01    0.4382542    0.4009042  33.37  0.002620214    1.232    0.188
       400 -11.0289     51.6793     79.0173   6.5332482877e+01   5.5547860762e+01    0.1870313    0.1809997 -30.14 0.0005005685    1.115    0.103
       401 -12.2120    188.2806     77.8693   3.2076795303e+01   2.8845681339e+01    0.2061655    0.1821656 -14.58 0.0007955068    1.681    0.405
       402 -10.9350      8.3298     78.2967   8.5121066028e+01   6.1014747114e+01     0.145787   0.08762228 -27.39 0.0004864763    1.637    0.389
       403 -12.4537    169.5551     74.8336   3.4007231196e+01   3.2844840094e+01    0.2705241     0.192205 -59.89 0.0006059614    1.272    0.214
       404 -11.8033    160.9225     75.7829   3.5523356496e+01   3.4392821449e+01    0.2600567    0.1433663 -65.29  0.001233123    2.139    0.533
       405 -11.8146     75.0946     75.4282   5.5581299935e+01   5.2102219060e+01    0.2561097    0.2071537 -57.49 0.0006201032    1.395    0.283
       406 -10.7719     19.3658     76.4090   7.9157596153e+01   6.0426819948e+01    0.3079033    0.1283088  18.91  0.001240385    2.418    0.586
       407 -12.9300     51.2192     71.8657   6.3378873022e+01   5.7059857301e+01     0.448756    0.3141313 -38.96  0.001394851    1.510    0.338
       408 -11.4347     47.9793     67.5274   6.3373308385e+01   5.8428296481e+01    0.3059653    0.1259451  35.71 0.0008806222    2.243    0.554
       409 -12.2979      2.9714     73.6310   8.6792116705e+01   6.2473819113e+01    0.3287916    0.1881188 -24.93   0.00162481    1.716    0.417
       410 -11.3657      1.8133     68.2763   8.6148159433e+01   6.3745309591e+01    0.2566305    0.1917729 -84.24  0.001430988    1.778    0.438
       411 -11.1654    105.3249     72.9815   4.6003344618e+01   4.6417249312e+01    0.1864226    0.1783543 -59.17 0.0006773752    1.114    0.103
       412 -11.1928    182.2450     70.8213   3.1428043630e+01   3.1034050221e+01    0.2067325    0.1072734 -74.06 0.0009368354    2.710    0.631
       413 -10.6035    247.0197     69.0539   2.4559786870e+01   2.0522640863e+01    0.1285903   0.08737105 -56.49 0.0006009486    1.064    0.060
       414 -10.5449    101.3137     69.7415   4.6132354210e+01   4.7812707950e+01    0.1343496    0.1029151  82.95 0.0001480053    1.533    0.347
       415 -10.8802     94.0095     68.7141   4.7804879324e+01   4.9513333828e+01    0.1723995    0.1147196  50.67 0.0008661193    1.388    0.280
       416 -11.7845    203.0882     66.6418   2.8170003542e+01   2.7866492902e+01    0.1930416     0.140751 -50.05   0.00031306    1.244    0.196
       417 -10.7589     89.1022     67.1153   4.8730082248e+01   5.0799757299e+01    0.1848568    0.1579808  87.60 0.0004057508    1.325    0.245
       418 -11.7089     60.1502     67.1175   5.8376083240e+01   5.6423928982e+01    0.2020765    0.1758949   8.47 0.0003446364    1.182    0.154
       419 -11.9124    199.1352     65.6183   2.8401005301e+01   2.8709246233e+01     0.194533    0.1280349 -58.54 0.0004625893    1.255    0.203
       420 -11.7578    178.7604     64.0703   3.0483118286e+01   3.2691740708e+01    0.1899834    0.1534186  89.06 0.0004181591    1.135    0.119
       421 -11.3155    110.0500     64.0338   4.2379403909e+01   4.6895392903e+01    0.1964616    0.1805607  73.76 0.0003317916    1.018    0.017
       422 -11.5322     44.7355     62.6145   6.3182221450e+01   5.9876488179e+01    0.2587489    0.1563964  24.19 0.0007092468    1.680    0.405
       423 -10.6781     63.3154     61.6815   5.5458881162e+01   5.6815758100e+01     0.133384    0.1068522  75.53 0.0004096802    1.653    0.395
       424 -11.3718     13.8218     60.2473   7.7496785269e+01   6.4417538146e+01    0.2765957    0.1602895 -42.06  0.001425526    1.648    0.393
       425 -11.6870    109.0010     60.0517   4.1516919162e+01   4.7743038344e+01    0.2088085    0.1846597  79.16 0.0006871047    1.070    0.065
       426 -11.0845     98.8221     59.1767   4.3744311509e+01   5.0054719356e+01     0.177639    0.1541628  29.36 0.0003735742    1.312    0.238
       427 -10.9493     18.2847     58.1410   7.4471431677e+01   6.4361895713e+01    0.2578079   0.09640238 -47.32  0.001076197    2.562    0.610
       428 -11.2828     33.8267     57.8908   6.6572890595e+01   6.2412357906e+01    0.2079592    0.1672906  -1.60 0.0006966301    1.216    0.178
       429 -11.4355    192.7458     57.4141   2.7508214551e+01   3.1014763186e+01    0.1461425    0.1009909  62.86 0.0009464325    1.587    0.370
       430 -11.3730    160.1832     57.4115   3.1532187597e+01   3.7312297481e+01    0.1683477    0.1061807  80.38 0.0005427066    1.600    0.375
       431 -11.9863     52.4209     55.7107   5.7663006159e+01   5.9814675906e+01    0.4172016    0.2818519  71.57  0.001897258    2.655    0.623
       432 -10.8925    120.6859     56.7135   3.8067043128e+01   4.5729537653e+01    0.1246519   0.09909274  34.01 0.0002133381    1.583    0.368
       433 -11.8229    105.8386     56.1134   4.1141816660e+01   4.9020299766e+01    0.1944165     0.166173  87.87 0.0002547007    1.182    0.154
       434 -10.6061    217.5359     55.4839   2.4733793741e+01   2.6935401430e+01    0.1099729   0.08321951 -65.73 0.0001011538    1.021    0.021
       435 -13.5484     30.8596     50.3429   6.5415832314e+01   6.4203253351e+01    0.3776154    0.2848515  18.10  0.001296634    1.191    0.161
       436 -11.1065    126.4983     53.9967   3.6211748667e+01   4.4871405521e+01    0.1817368   0.09692023 -62.60 0.0008090226    2.422    0.587
       437 -12.3473    142.0918     52.4518   3.3103289997e+01   4.1760097771e+01    0.2121606    0.1813468 -62.23 0.0002964968    1.158    0.136
       438 -10.7351    115.5385     53.5689   3.8277563110e+01   4.7299709930e+01    0.1306609    0.1147623  74.89 8.112803e-05    1.007    0.007
       439 -12.1475     37.2958     51.7161   6.2825745615e+01   6.3003523978e+01    0.2112068    0.2031671  43.54 0.0008741944    1.254    0.202
       440 -11.1568    100.6324     50.8037   4.0837790391e+01   5.0918946699e+01    0.1792721    0.1169451 -53.24 0.0004759487    1.732    0.423
       441 -11.5028      1.4404     51.1912   8.1792532563e+01   6.7347643038e+01    0.1670657    0.1177397 -52.35 0.0004411402    1.464    0.317
       442 -10.7600    222.9585     49.9987   2.3317678015e+01   2.6756728480e+01    0.1279599   0.09492444 -69.00 0.0003409355    1.037    0.035
       443 -11.6553     18.9384     48.5177   7.0941914586e+01   6.6108723137e+01    0.2152696    0.1893628 -67.70 0.0008647197    1.557    0.358
       444 -10.7526    113.6861     47.3331   3.6937412600e+01   4.8577217016e+01    0.1332015   0.09282459 -80.18 0.0007045711    1.683    0.406
       445 -11.3335    142.9614     45.1085   3.1183643372e+01   4.2570377266e+01    0.1864806    0.1493253  34.03  0.001137547    1.776    0.437
       446 -14.2992     36.7542     40.7297   5.9048990254e+01   6.4898138553e+01    0.4032707    0.3674942 -25.92  0.001788591    1.244    0.196
       447 -11.3055    226.9595     43.6312   2.1919336916e+01   2.6911674514e+01    0.1427041     0.103611 -76.17 0.0004035483    1.130    0.115
       448 -10.5609    203.2831     43.6880   2.3857914326e+01   3.0927175998e+01     0.115024   0.06460297 -67.07 0.0002577225    1.572    0.364
       449 -10.6129    159.3266     43.3199   2.8484462407e+01   3.9397321386e+01     0.110401   0.09133516  41.68 0.0007046938    1.682    0.405
       450 -11.5659    118.8798     41.0632   3.4189119100e+01   4.8277105920e+01    0.2431818    0.2100534  16.98 0.0008407952    1.601    0.375
       451 -11.1734    131.0686     40.8995   3.2009635581e+01   4.5655965113e+01     0.188682    0.1457013 -88.98 0.0004877925    1.197    0.164
       452 -11.7820    162.0169    247.1740   6.7535640437e+01   8.6044370787e-01    0.2022359    0.1566244 -26.55 0.0004764147    1.145    0.127
       453 -11.2091    103.2449     39.9833   3.7040835081e+01   5.1823740465e+01    0.1784322    0.1594576  74.55  0.001160548    1.044    0.042
       454 -12.7811     24.4044     38.0148   6.4129482259e+01   6.7195245363e+01    0.4281698    0.2482807   7.73   0.00208237    2.191    0.544
       455 -11.8914     53.3651     38.0759   5.0993255163e+01   6.2387023570e+01    0.2282775    0.1654364  46.46 0.0003836582    1.229    0.186
       456 -10.7705     77.9930     37.0418   4.2430854000e+01   5.7615859871e+01    0.1533748     0.131087  53.50 0.0003848133    1.004    0.004
       457 -12.4550    101.7643     35.0773   3.5901707520e+01   5.2760681401e+01    0.4300182    0.1902099  58.86  0.002028135    1.922    0.480
       458 -12.8053    106.7470     32.4483   3.4093669171e+01   5.1988368257e+01    0.2409313    0.2141319  58.46 0.0003913315    1.150    0.131
       459 -11.4544    230.2006     34.7961   2.0212192878e+01   2.7465366800e+01    0.1534664    0.1006557 -66.61   0.00045752    1.114    0.102
       460 -12.7461     44.1488     33.7579   5.3054307031e+01   6.4671249646e+01    0.3615016    0.2537807  50.27 0.0006382049    1.422    0.297
       461 -12.7508     31.7387     32.0653   5.8017862686e+01   6.7003627675e+01    0.3439771    0.2665148 -27.34   0.00218282    1.413    0.292
       462 -10.4713    241.6867     40.2776   2.0341942641e+01   2.5006669356e+01    0.1040131   0.05422369 -66.47 0.0002154562    1.565    0.361
       463 -12.7193     78.2521     30.9018   4.0274894200e+01   5.8326255933e+01    0.2503019    0.2021542 -82.69  0.001277471    1.490    0.329
       464 -11.0089      8.7254     31.9429   7.0697132061e+01   7.0164823970e+01     0.163324    0.1362841  -3.76 0.0002825157    1.070    0.065
       465 -12.4006     19.3416     29.7867   6.3560077397e+01   6.9181848988e+01     0.225626    0.1903272   8.96 0.0005511555    1.057    0.054
       466 -12.1499    207.7946     29.7876   2.0946802343e+01   3.1823702074e+01    0.2361689    0.1498737 -78.22  0.001168869    1.302    0.232
       467 -11.7014    159.6508     31.0609   2.5701509001e+01   4.0840156844e+01    0.1969689    0.1426783  75.04 0.0003353894    1.237    0.192
       468 -12.5531     46.2133     26.0801   4.9134400994e+01   6.5309483638e+01    0.3091972     0.221167  42.95  0.001145878    1.170    0.145
       469 -10.9355    221.0358     25.3013   1.9230463815e+01   3.0073949191e+01    0.1404669    0.1002782 -75.02 0.0003753451    1.077    0.072
       470 -12.5119     67.5110     23.0904   4.0578748418e+01   6.1470803079e+01    0.3281255    0.1177069 -35.31  0.001444676    3.227    0.690
       471 -10.2775     44.5857    248.3619   9.5603160754e+01   1.3691479674e+01     0.128958    0.1150174   1.85 0.0007818775    1.183    0.155
       472 -12.1249    166.2108     22.2372   2.3070365411e+01   4.0514869044e+01    0.1980789    0.1466992 -78.31 0.0002607732    1.087    0.080
       473 -11.3000     37.1400     23.1913   5.1774283613e+01   6.7301072848e+01     0.152741     0.140191  52.56 0.0005379789    1.308    0.236
       474 -10.8088    132.9831     21.5418   2.6775895500e+01   4.7501546752e+01    0.1761831   0.09887204  71.49 0.0003901745    1.509    0.337
       475 -11.6081    238.1078     22.8120   1.7784318952e+01   2.7596120497e+01    0.1503994   0.09220631 -67.44  0.000369163    1.171    0.146
       476 -12.2518     92.1589     16.4967   3.2173088895e+01   5.6899888713e+01    0.2023184    0.1805637  73.61 0.0003027827    1.098    0.089
       477 -11.1623     80.3049    246.2810   8.6424338799e+01   1.0255416582e+01    0.1742675    0.1396198  44.87 0.0003263591    1.279    0.218
       478 -10.9213     31.3294     16.0172   5.1279854027e+01   6.9173199831e+01     0.160681    0.1351154  22.96 0.0003670242    1.079    0.073
       479 -10.9127    180.6198    244.1031   6.3330498964e+01  -4.9883343149e-01    0.1630578    0.1380375   4.47  0.001118423    1.209    0.173
       480 -10.8049    167.9606    243.0531   6.5710107696e+01   9.7719207579e-01    0.1533783    0.1240009 -15.04 0.0007285638    1.021    0.020
       481 -10.7619     52.6332    243.4435   9.3137378971e+01   1.3957148590e+01    0.1292767    0.1217152  24.57 0.0007920673    1.049    0.047
       482 -11.2953    143.0017    242.4611   7.0958538612e+01   3.8018696184e+00    0.1887746    0.1161632  20.47 0.0002986698    1.510    0.338
       483 -11.2788    135.0921    241.6171   7.2619760810e+01   4.8651243636e+00    0.2006525    0.1841771 -44.28 0.0004728329    1.280    0.218
       484 -11.2811     60.4837    241.8679   9.0980430830e+01   1.3462862959e+01    0.1758704    0.1361655 -68.65 0.0004085092    1.430    0.301
       485 -11.0229    199.0674    241.5476   5.9472785709e+01  -1.8471926223e+00    0.1598918    0.1033016  14.96 0.0005426274    1.530    0.346
       486 -11.6231     89.5368    240.9521   8.3492679031e+01   1.0348464924e+01    0.2309945    0.1700573 -47.97 0.0009090338    1.432    0.302
