#   1 NUMBER                 Running object number                                     
#   2 MAG_AUTO               Kron-like elliptical aperture magnitude                    [mag]
#   3 X_IMAGE                Object position along x                                    [pixel]
#   4 Y_IMAGE                Object position along y                                    [pixel]
#   5 X_WORLD                Barycenter position along world x axis                     [deg]
#   6 Y_WORLD                Barycenter position along world y axis                     [deg]
#   7 A_WORLD                Profile RMS along major axis (world units)                 [deg]
#   8 B_WORLD                Profile RMS along minor axis (world units)                 [deg]
#   9 THETA_WORLD            Position angle (CCW/world-x)                               [deg]
#  10 FWHM_WORLD             FWHM assuming a gaussian core                              [deg]
#  11 ELONGATION             A_IMAGE/B_IMAGE                                           
#  12 ELLIPTICITY            1 - B_IMAGE/A_IMAGE                                       
         1 -13.4497    158.6473     52.5959   8.2233701953e+01   3.9039720547e+01     1.256927     1.068896  11.63  0.004850717    1.370    0.270
         2 -13.8331    170.5602     36.3627   7.5256358912e+01   3.8353572295e+01     1.132986    0.9784515   6.35  0.004264366    1.391    0.281
         3 -11.2326    189.8899     14.6716   6.6455310801e+01   3.6116091568e+01    0.2820271    0.2330354 -67.68  0.001184913    1.201    0.168
         4 -13.2591    186.6867      5.2087   6.4409168256e+01   3.7865351646e+01    0.9510676    0.6367437  69.33  0.004144589    1.277    0.217
         5  -9.7007     93.0480      4.6972   8.0927201931e+01   5.9302050490e+01    0.1815006    0.1016638  78.65 0.0007039832    4.261    0.765
         6 -10.0893    146.5031    238.4655   1.2662137214e+02   4.7152160147e+00    0.1298761    0.1079716  52.10  5.90791e-05    1.005    0.005
         7 -19.7511     58.7804    164.1580   1.3468213360e+02   3.4435636676e+01     19.86745     4.381303 -65.74   0.06064288    4.477    0.777
         8 -12.0763     10.8966    206.6040   1.4866762111e+02   3.0463244851e+01    0.3678396    0.2369488  59.35  0.002583654    1.378    0.274
         9  -9.0886    178.9997    205.9961   1.1506498355e+02   4.4937739711e+00    0.1629716     0.150833  37.81  -0.03019764    1.018    0.018
        10 -10.3680    158.8745    206.1071   1.1920587840e+02   8.3263407208e+00    0.3131884    0.1902598  48.43  0.001511932    1.511    0.338
        11 -10.6925    163.7746    204.7495   1.1796102844e+02   7.6473586184e+00     0.370535    0.2449008 -55.17 0.0005344175    1.712    0.416
        12 -12.5040    193.5765    192.8831   1.0967275417e+02   4.0523157250e+00    0.8580779    0.5239062 -52.25   0.00298972    1.925    0.480
        13 -11.8538    136.3552    197.2572   1.2245495255e+02   1.4362674580e+01    0.5088204    0.3127116  77.01  0.002130806    2.475    0.596
        14 -10.6744    208.6758    197.1181   1.0749517523e+02   3.9157571262e-01    0.2316336    0.1831031  48.87 0.0006824764    1.314    0.239
        15  -9.7654    175.0246    193.9759   1.1368605654e+02   7.5090244902e+00    0.2239474    0.1737471  81.65 0.0006440753    1.707    0.414
        16 -10.0260    180.0642    192.2886   1.1232189290e+02   6.8320241454e+00    0.2496831    0.2110121 -60.53 0.0003496034    1.339    0.253
        17 -10.7659    167.3015    191.3979   1.1482344297e+02   9.5422788759e+00    0.3387652    0.2412617  26.12  0.001639869    1.631    0.387
        18  -9.6403    176.6018    187.7949   1.1218190730e+02   8.3879473953e+00    0.1943802    0.1385593 -58.04 0.0005268136    1.620    0.383
        19 -11.9773    206.6845    180.0478   1.0448495346e+02   3.8031245078e+00    0.8455939    0.4333055  32.42  0.002865009    2.266    0.559
        20 -11.8758    196.6523    172.3968   1.0491148858e+02   7.2728793511e+00    0.8783787    0.4541845 -53.18  0.002852292    2.370    0.578
        21 -12.5461    136.6887    171.0317   1.1768828185e+02   1.9925389050e+01    0.6525512    0.3829176  51.18  0.002285449    1.691    0.409
        22  -9.9421    223.9055    164.3283   9.7836744729e+01   3.2176914008e+00    0.2382363    0.1903792 -48.12 0.0005767274    1.328    0.247
        23  -9.6649     25.3699    165.3651   1.4230423738e+02   3.7917577033e+01    0.1728414    0.1489667  12.71  0.001193731    1.712    0.416
        24 -10.4345    168.8452    234.5532   1.2177289712e+02   1.4267492806e+00    0.1999729     0.186373 -48.42 0.0003989462    1.262    0.208
        25 -10.4208    237.2543    159.4084   9.4326627707e+01   1.4604079076e+00    0.1886834    0.1364661  57.56 0.0007388723    1.662    0.398
        26 -10.9644      7.2241    219.6051   1.5013181288e+02   2.8221881472e+01    0.1005415   0.06683211 -76.54 0.0003568257    1.374    0.272
        27 -10.8136    163.0690    154.7031   1.0829859473e+02   1.8032910644e+01     0.295287    0.2357009 -39.41  0.001440337    1.309    0.236
        28 -12.8552    133.5762    145.9069   1.1325366068e+02   2.6208211528e+01     1.185747    0.4865787 -57.11    0.0039464    2.876    0.652
        29 -10.0642    174.6492    149.0739   1.0446486900e+02   1.6701418524e+01    0.2742217    0.2150254  60.72  0.000921706    1.358    0.264
        30 -11.4166    144.5173    145.7690   1.1059989255e+02   2.3967665557e+01    0.3792695     0.287381  86.25  0.001720928    1.673    0.402
        31 -12.3493    114.2773    138.7241   1.1646585536e+02   3.1653839711e+01    0.6662508    0.5072438  -8.39  0.003046986    1.995    0.499
        32 -12.0073    104.6407    138.5549   1.1888663843e+02   3.3460152532e+01    0.3612241     0.314477  77.68 0.0008357011    1.187    0.158
        33  -9.3714    171.8016    137.8707   1.0249042428e+02   1.9705327700e+01    0.2181616    0.1863633 -88.49 0.0006209295    1.338    0.253
        34 -11.7959    106.0102    130.8224   1.1685060686e+02   3.5017281764e+01    0.4156211     0.358556 -79.27  0.001232053    1.187    0.158
        35 -10.8040    108.2921    125.4498   1.1502730050e+02   3.5842299513e+01    0.2902464    0.2655696 -12.15 0.0006210548    1.261    0.207
        36 -11.4142    119.3667    129.6970   1.1313312553e+02   3.2760751649e+01    0.3709982     0.308935 -52.80 0.0008915398    1.160    0.138
        37 -12.0775    125.6870    127.5967   1.1102394137e+02   3.1982102951e+01    0.6686721    0.4176888  75.70  0.002472275    2.743    0.635
        38 -10.6129    160.7859    128.0894   1.0261903855e+02   2.4289233194e+01    0.3510385    0.2182555 -56.24  0.001438783    1.776    0.437
        39 -11.6157    135.5768    124.1455   1.0769614874e+02   3.0707391612e+01     0.916208    0.1717582 -48.00  0.002127758    5.432    0.816
        40 -10.5864    167.7603    113.4394   9.7334466607e+01   2.5770095847e+01    0.3913924     0.305956  88.83  0.001329697    1.599    0.375
        41 -10.6830    113.5670    118.5783   1.1199081378e+02   3.6416745204e+01     0.257009    0.2490837 -61.15 0.0005162939    1.018    0.018
        42 -10.0590    205.4768    110.1845   8.8747126047e+01   1.7478870707e+01    0.3359578    0.2203452  44.01  0.001112326    1.634    0.388
        43 -10.7322    163.0394    210.7947   1.1914163907e+02   6.6525297668e+00    0.3121044    0.2128552 -54.62  0.001302904    1.662    0.398
        44 -11.5530    159.1095    235.4956   1.2378558805e+02   3.0000580849e+00    0.3476705     0.266616  30.20  0.001008013    1.344    0.256
        45 -10.7790     13.5697    244.3039   1.5055781140e+02   2.2882575851e+01    0.1610727   0.07870118 -76.34  0.001047577    1.766    0.434
        46 -10.6244     22.3918    241.1150   1.4899928155e+02   2.2509513623e+01    0.1481299   0.09342757 -83.93  0.001052785    1.332    0.249
        47 -12.1480    174.4407     29.6763   7.2717000825e+01   3.8226503845e+01    0.4127175    0.3585893   6.44  0.001172237    1.400    0.285
        48 -10.3864     14.3374     58.9420   1.2777409709e+02   6.1950130554e+01    0.2850562    0.1618609 -30.62  0.001184913    1.650    0.394
        49  -9.3398    131.9826     29.0063   8.0426349528e+01   4.8537134342e+01    0.2006525    0.1616847 -81.59 0.0004313377    1.587    0.370
        50 -10.1504     20.5891    237.2802   1.4904942881e+02   2.3427420855e+01    0.1802767   0.09491219  84.39   0.00102064    1.534    0.348
        51  -9.8425    150.1945    240.1696   1.2615275322e+02   3.7821843068e+00    0.1756293    0.1337725  64.79 0.0003447831    1.329    0.248
