#   1 NUMBER                 Running object number                                     
#   2 MAG_AUTO               Kron-like elliptical aperture magnitude                    [mag]
#   3 X_IMAGE                Object position along x                                    [pixel]
#   4 Y_IMAGE                Object position along y                                    [pixel]
#   5 X_WORLD                Barycenter position along world x axis                     [deg]
#   6 Y_WORLD                Barycenter position along world y axis                     [deg]
#   7 A_WORLD                Profile RMS along major axis (world units)                 [deg]
#   8 B_WORLD                Profile RMS along minor axis (world units)                 [deg]
#   9 THETA_WORLD            Position angle (CCW/world-x)                               [deg]
#  10 FWHM_WORLD             FWHM assuming a gaussian core                              [deg]
#  11 ELONGATION             A_IMAGE/B_IMAGE                                           
#  12 ELLIPTICITY            1 - B_IMAGE/A_IMAGE                                       
         1 -11.8608    101.1238     58.5210   2.9101704900e+02   6.4959767976e+00   0.09466772   0.04751313 -28.78  0.007223252    3.207    0.688
         2 -10.8409    107.9650     33.0413   2.9078019017e+02   6.7478854119e+00   0.05609705   0.04103702  85.96   0.00589611    1.696    0.410
         3  -9.8873     54.8346     18.1802   2.9130355189e+02   7.2371785228e+00   0.03683145   0.02200773  -7.44  0.003196992    2.559    0.609
         4 -12.8565    109.4043     66.9875   2.9097359363e+02   6.3489194706e+00    0.1190314   0.07522343   6.63   0.01142972    1.993    0.498
         5 -11.9030    131.2872     40.5049   2.9055651630e+02   6.5220265672e+00    0.1089428   0.02574219 -44.94  0.005842601    5.819    0.828
         6 -11.9601    121.8885     38.3626   2.9065199631e+02   6.6031156107e+00     0.101986   0.03426751 -42.53  0.006777436    3.857    0.741
         7 -12.0032     58.4429     69.6254   2.9157976053e+02   6.6239677800e+00    0.1427474   0.04643924 -66.81  0.009524366    3.807    0.737
         8 -12.6908     37.0849     49.5232   2.9170296997e+02   6.9829657808e+00   0.09452933   0.07006828 -45.69   0.01042675    1.351    0.260
         9 -12.7808     71.2850     31.2646   2.9119391721e+02   6.9882667249e+00   0.08274064   0.03933153  30.67  0.007389637    2.050    0.512
        10 -12.1075     90.1210     26.9270   2.9094892813e+02   6.9252276391e+00    0.1102945   0.04565276 -57.18  0.009268816    2.278    0.561
        11 -12.0280     70.7266     19.8374   2.9112967846e+02   7.1229664668e+00   0.08089139   0.03594543  15.92  0.006142185    3.099    0.677
        12 -12.2182    111.9574     22.3815   2.9066796230e+02   6.8464324004e+00   0.03678008   0.02700899  43.66  0.004026619    1.397    0.284
        13 -10.9989    123.3759     10.0276   2.9045924436e+02   6.9197881574e+00   0.01580778    0.0142623 -78.94 0.0006308132    1.157    0.136
        14 -11.9805     52.1597     34.0332   2.9143259323e+02   7.0709427714e+00   0.06123834   0.05611522 -23.21  0.006470127    1.122    0.109
        15 -12.2757    130.3537     20.1316   2.9044110637e+02   6.7617730357e+00   0.05747287    0.0251955  21.30  0.003840112    2.629    0.620
        16 -12.2204    114.1533      8.7235   2.9055792093e+02   6.9901736849e+00   0.04923751   0.03465356   1.15  0.004638901    1.724    0.420
        17 -13.0095    100.0025      6.6198   2.9070873505e+02   7.0993004521e+00   0.04186277   0.02721688 -77.67 0.0005074296    1.821    0.451
        18 -11.7312     93.0950      8.6183   2.9080111338e+02   7.1177889019e+00   0.02349887   0.01998658  51.98 0.0007712994    1.235    0.190
        19 -12.2311     88.8402     53.0776   2.9112556156e+02   6.6322429326e+00    0.1242436   0.05757482 -35.88   0.00963544    2.967    0.663
        20 -12.5074    135.9287      5.4174   2.9028538397e+02   6.8972890570e+00   0.07971491   0.03226482  35.29  0.006635282    2.349    0.574
        21 -10.8276     28.4870      4.6356   2.9152515826e+02   7.5504164796e+00   0.08393481   0.02955223  27.25  0.006383148    2.865    0.651
        22 -11.2358     78.2192      6.8615   2.9096254548e+02   7.2271799752e+00   0.04130695   0.02639118 -44.94  0.003910758    1.592    0.372
        23 -11.7140     28.7083     26.6358   2.9165862154e+02   7.2962241757e+00   0.08404116   0.04319384 -38.45  0.007315974    2.298    0.565
        24 -10.9144     15.5620     33.9172   2.9185598457e+02   7.2910224894e+00   0.05396833   0.02364758 -53.28  0.004643608    2.159    0.537
        25 -12.1135      9.4255     26.7571   2.9188289316e+02   7.4099792239e+00   0.07671463   0.02454306  23.15  0.005164118    3.753    0.734
        26 -12.2740     18.8179     13.9507   2.9169486559e+02   7.5011261239e+00   0.03201927   0.03033493  84.87  0.003990085    1.104    0.094
        27 -12.2919     40.6804     15.9290   2.9145366022e+02   7.3477357868e+00   0.06601237   0.03457966 -59.65  0.006160963    1.863    0.463
        28 -12.4293     50.6610     10.9363   2.9130709897e+02   7.3454094439e+00   0.02612006   0.01934402  -3.60 0.0006435768    1.605    0.377
        29 -10.6931      8.8761     19.4333   2.9184401596e+02   7.4974565739e+00   0.02502122   0.01438897  29.07  0.002436641    1.726    0.421
        30 -13.0993      4.1317     10.1036   2.9184137924e+02   7.6330049708e+00   0.09179465    0.0395276 -58.29  0.007843554    2.212    0.548
        31 -11.3023     13.3068      8.8511   2.9172724097e+02   7.5926430213e+00   0.02037939   0.01548906  34.76 0.0007903042    1.311    0.237
        32 -11.3210     67.0334      5.7597   2.9108532481e+02   7.3068672628e+00   0.04060861   0.02518718 -11.07  0.002058262    2.340    0.573
        33 -12.2711     58.1373      3.8596   2.9117665408e+02   7.3819766112e+00   0.05206188   0.01590149  35.80  0.003833388    2.998    0.666
        34 -10.1261    177.5546     19.7847   2.8989303988e+02   6.4817546384e+00   0.01641338    0.0129444 -78.07 0.0009964164    1.384    0.277
        35  -9.9035    185.0447     14.3954   2.8977303695e+02   6.4985236938e+00   0.02107548   0.01789124  -5.56  0.001935611    1.282    0.220
        36 -10.2343    178.9840     14.7013   2.8984498734e+02   6.5315265046e+00   0.02465195   0.01400803  45.76  0.001112149    1.885    0.469
        37 -11.7662    184.7329     26.5941   2.8985230312e+02   6.3603003336e+00   0.03420508   0.01833518 -34.61  0.001053793    2.360    0.576
        38 -10.3901    156.2520     15.3229   2.9011168525e+02   6.6612587825e+00   0.02697359   0.01687975 -71.19  0.002633845    1.764    0.433
        39 -10.0585    170.0154     13.9788   2.8994418938e+02   6.5938416615e+00   0.01309416   0.01102065 -78.40 0.0003398579    1.268    0.212
        40 -10.6699    167.7370     24.6607   2.9003677386e+02   6.4848651588e+00   0.05242988    0.0284644 -34.19    0.0045932    2.330    0.571
        41 -11.2047    147.5201     25.9784   2.9027873642e+02   6.5913811030e+00   0.03449476   0.03201736 -19.65  0.004252219    1.106    0.096
        42 -11.2626    148.7648     16.5840   2.9020610577e+02   6.6918227064e+00   0.05386266   0.02470617 -47.76  0.004658952    2.188    0.543
        43 -10.6328    162.3530     16.1559   2.9004629302e+02   6.6149701130e+00   0.02913916   0.02355463  82.85  0.003116423    1.431    0.301
        44 -11.5814    164.2132      7.2853   2.8996976474e+02   6.7056491343e+00   0.04498963   0.02406904 -65.67  0.003148919    1.962    0.490
        45 -12.0556    123.9302     15.5469   2.9048703385e+02   6.8530491939e+00   0.07543962   0.02849599  20.25  0.005370539    3.423    0.708
        46  -9.6392    221.7466     11.0301   2.8932816478e+02   6.3158356894e+00   0.01945886   0.01267964  86.87  0.001505717    2.132    0.531
        47 -10.8600    216.1429     17.8524   2.8943521441e+02   6.2713286873e+00   0.04749348   0.01680475 -53.69  0.003722933    2.607    0.616
        48  -9.5101    212.1265     15.1783   2.8946500283e+02   6.3262580170e+00   0.03060493   0.01347621 -49.25  0.002607157    2.232    0.552
        49 -10.3156    242.9410     12.5887   2.8909319786e+02   6.1699963265e+00   0.02452978   0.01540743 -65.15   0.00183322    1.635    0.389
        50 -10.5037    243.5481     19.4604   2.8912885118e+02   6.0874631772e+00   0.04020863   0.01464887  31.45  0.003178434    2.601    0.616
        51 -10.6357    234.1161     12.5655   2.8919489821e+02   6.2235489961e+00   0.03263587   0.01665774  53.82  0.001922101    2.586    0.613
        52  -9.4577    230.6941     21.4418   2.8928949175e+02   6.1423166119e+00   0.02331718   0.01492285  87.10  0.001816656    2.216    0.549
        53  -9.4654    231.2388     17.0624   2.8925602336e+02   6.1893022218e+00   0.01712052   0.01189605  66.07  0.001286211    1.803    0.445
        54 -10.5656    201.9221     19.1898   2.8960776322e+02   6.3417386418e+00   0.02460817   0.01775452 -18.57    0.0019204    1.678    0.404
        55 -10.0688     31.3460     11.5366   2.9153469539e+02   7.4540253042e+00   0.01570052   0.01339908 -27.19  0.001425965    1.235    0.190
        56  -8.7294    192.2816     12.0969   2.8967514084e+02   6.4813020326e+00  0.009207876  0.008522519 -55.44 0.0005072587    1.071    0.066
        57  -9.7220    190.0499      8.2647   2.8967715289e+02   6.5387543295e+00   0.01335064   0.01031792 -25.93 0.0004186064    1.444    0.308
        58 -10.9256    196.0099      4.2498   2.8958336303e+02   6.5489164493e+00   0.03300247   0.03010514  75.91  0.004023128    1.173    0.147
        59 -11.3215    209.6425      3.7026   2.8942246650e+02   6.4729756374e+00   0.02922763   0.01599603  39.11  0.001492921    1.819    0.450
        60  -9.3307    180.3614      8.1574   2.8978846797e+02   6.5983722079e+00   0.01905601  0.009662225 -62.97  0.001441534    1.997    0.499
        61 -10.2698    173.4850      8.9409   2.8987282452e+02   6.6308001782e+00   0.01418768   0.01136133 -64.87 0.0004834522    1.262    0.208
        62 -10.7907    175.2065      4.8916   2.8982779938e+02   6.6669269682e+00   0.01789967   0.01528133  25.43 0.0005668366    1.178    0.151
        63  -9.4015    157.6990      7.1501   2.9004426385e+02   6.7464168558e+00   0.01391641  0.009231452  54.01  0.001147637    1.727    0.421
        64 -10.0406    230.8233      2.5788   2.8917090431e+02   6.3580406312e+00   0.01936968   0.01199697 -21.55  0.001774362    2.226    0.551
        65 -10.9453    247.7427      6.0996   2.8899750203e+02   6.2154576197e+00   0.02834248   0.02210069  72.53  0.003123156    1.514    0.340
        66 -11.5633    223.2169      3.1250   2.8926211298e+02   6.3976915034e+00   0.03523968   0.02807226  61.33  0.003972278    1.403    0.287
        67  -8.4083    149.7656      1.3240   2.9009989822e+02   6.8610665148e+00  0.008802206  0.006169752  14.39 0.0003946158    1.569    0.363
        68  -8.6606    145.8571      1.3018   2.9014497963e+02   6.8848392466e+00  0.008645139  0.006062667  16.65            0    1.538    0.350
        69 -11.5060    204.3477      6.5221   2.8950113168e+02   6.4725511417e+00   0.02747872   0.01967184 -30.18  0.001212302    1.581    0.368
        70 -12.1776     26.3953     86.0555   2.9205225026e+02   6.6264939320e+00   0.05533474   0.04959584  85.14  0.006682005    1.203    0.169
        71  -8.5477    124.7598    250.0024   2.9192462996e+02   4.1499896876e+00  0.008880796  0.005543951 -61.70  0.000877967    1.594    0.373
        72 -11.9295     15.9355     61.7747   2.9202363220e+02   6.9683658296e+00     0.050264   0.02687777  11.25  0.004292834    2.500    0.600
        73 -10.7735     13.6846     56.7269   2.9201856352e+02   7.0398767028e+00   0.01879518    0.0115081  37.98  0.001882892    1.624    0.384
        74 -11.7503     13.0547     88.7648   2.9222344183e+02   6.6749556699e+00   0.02912365   0.01944406 -45.64  0.002518201    1.510    0.338
        75 -10.8790      9.7593     85.2299   2.9223982051e+02   6.7353077192e+00   0.01411604   0.01145917 -49.79 0.0006054739    1.215    0.177
        76 -10.4678    105.8274    117.6464   2.9132798475e+02   5.7874680941e+00   0.02278832   0.01860526 -50.28  0.002633802    1.208    0.172
        77  -9.7911     51.3720    117.5435   2.9195726070e+02   6.1147397575e+00   0.01850563   0.01267962  11.06  0.001327902    1.666    0.400
        78  -9.9107     12.6940    117.2905   2.9240333057e+02   6.3486942434e+00   0.01633323   0.01133021  34.25 0.0009922474    1.429    0.300
        79  -9.1839    118.6918    115.8813   2.9116834459e+02   5.7306254581e+00   0.01170747  0.009380811   7.78  0.001019197    1.355    0.262
        80  -8.8973     27.8366    115.8913   2.9221944564e+02   6.2744109911e+00  0.009746386  0.008439146 -35.72 0.0002818413    1.180    0.153
        81  -9.7108     97.6578    114.7749   2.9140473411e+02   5.8694971527e+00   0.01418377   0.01231259  23.57  0.001201593    1.162    0.140
        82 -10.0595    132.7991    111.3809   2.9097745966e+02   5.6977526364e+00   0.02268007   0.01743975 -56.98  0.001897781    1.279    0.218
        83  -9.5104    133.6145    103.5250   2.9091948869e+02   5.7832545162e+00   0.02036091   0.01090031 -63.95  0.001885267    1.908    0.476
        84  -9.3469     92.5391    111.4613   2.9144348313e+02   5.9383164344e+00   0.01433871   0.01173303 -24.23  0.001633438    1.330    0.248
        85 -10.0493     40.7660    116.9907   2.9207658450e+02   6.1845084984e+00   0.02369814   0.01273123  66.20  0.001819108    3.262    0.693
        86  -9.4027     34.8169    109.7001   2.9210050976e+02   6.3039994223e+00   0.01503322   0.01129207 -52.02  0.001662194    1.306    0.234
        87  -8.4252     38.7033    107.3980   2.9204133759e+02   6.3072801925e+00   0.01357577  0.008557903 -27.80 0.0007935849    1.988    0.497
        88  -9.2527     75.9958    102.6926   2.9158074333e+02   6.1383514542e+00   0.01170461   0.01161996 -31.84  0.001133609    1.005    0.005
        89  -9.3199     81.1523    102.1811   2.9151792497e+02   6.1133557678e+00   0.01348628  0.009473745  27.17  0.001042053    1.430    0.301
        90 -10.6890     87.9642     99.3918   2.9142189445e+02   6.1046497441e+00   0.03373177   0.02066701 -15.03  0.002649173    2.387    0.581
        91 -10.7011     67.4667    107.9077   2.9171160913e+02   6.1293840041e+00   0.03536271   0.01869092 -44.94  0.003249758    1.961    0.490
        92 -10.2199     73.9810    108.1261   2.9163758424e+02   6.0878728303e+00   0.01777145   0.01644001  54.22  0.001133694    1.119    0.106
        93  -9.6774    120.4600    108.8811   2.9110466382e+02   5.8005798903e+00   0.01301006   0.01132112  34.26  0.000791957    1.151    0.131
        94  -7.6244      7.7347     50.6560   2.9205004633e+02   7.1452219196e+00   0.02740599   0.01868381  58.03  0.002797827    1.734    0.423
        95  -8.5046     98.0142    104.1729   2.9133515862e+02   5.9893892674e+00   0.01173603  0.006884054  53.09  0.001082123    2.034    0.508
        96  -9.8627    105.5866    109.3949   2.9127982360e+02   5.8838863145e+00   0.01558373   0.01288033 -59.12  0.001664648    1.198    0.165
        97  -9.5677    114.5107    100.4601   2.9112143455e+02   5.9331842552e+00   0.01330181     0.011249  57.26 0.0006419544    1.268    0.211
        98 -10.5626    117.5067     98.0400   2.9107183472e+02   5.9430568804e+00   0.02383168   0.01641908  34.09  0.001845617    1.437    0.304
        99 -10.8646      3.8558     99.8282   2.9239812885e+02   6.6024772155e+00   0.03073195   0.02548424 -41.40  0.002257563    1.218    0.179
       100  -9.9012    159.3306     96.6722   2.9057989274e+02   5.7075929991e+00   0.01717384   0.01531258  14.35  0.001539526    1.149    0.130
       101  -9.6900    187.6019     93.1681   2.9023160954e+02   5.5778486256e+00   0.01529636   0.01249334 -78.95  0.001119386    1.324    0.245
       102  -8.8313    206.6346     91.8354   2.9000359677e+02   5.4785920548e+00  0.009613813  0.006356801 -76.21 0.0007823744    1.743    0.426
       103  -9.5740    120.6341     91.2384   2.9099363265e+02   6.0025484464e+00   0.01670915  0.009641903  42.14  0.001306843    1.775    0.437
       104  -9.7038     17.2416    249.5277   2.9316275953e+02   4.7981868036e+00   0.01311689   0.00608453  32.46 0.0009991729    2.079    0.519
       105  -8.7801     25.9263    248.5659   2.9305659796e+02   4.7574613534e+00   0.01009702  0.006505421  25.29 0.0007888731    1.579    0.367
       106  -9.1100     34.3289    246.8194   2.9294888345e+02   4.7274371095e+00  0.009554391  0.008498855  44.08  0.001138432    1.144    0.126
       107 -12.8738    104.2368     82.0751   2.9112666016e+02   6.2063596061e+00    0.1604193   0.06004125  34.51   0.01290653    2.511    0.602
       108  -8.5883      3.3493    245.3246   2.9329742580e+02   4.9294406105e+00  0.007170237   0.00491597 -25.97 0.0006288337    1.751    0.429
       109  -9.6185    141.7593    243.8802   2.9169085453e+02   4.1186191522e+00   0.01463474  0.009710629   2.41 0.0006493105    1.901    0.474
       110  -8.8535    210.8606    240.5134   2.9087328232e+02   3.7427829405e+00   0.01123765  0.007928144 -68.61  0.001183458    1.482    0.325
       111 -11.6159    145.6982     37.8104   2.9037312611e+02   6.4663715424e+00   0.07219752   0.04023616   2.62  0.005979175    2.778    0.640
       112  -9.5010     13.0029    238.9725   2.9314705087e+02   4.9450753822e+00  0.008033909  0.007943133   2.29 0.0006760202    1.013    0.013
       113 -12.6157     43.8269     67.4017   2.9173528207e+02   6.7369849530e+00   0.09477943   0.05103459  28.68  0.008950396    1.845    0.458
       114  -9.6221     12.3236    232.6711   2.9311628808e+02   5.0217290591e+00   0.01382203  0.009677892  63.53   0.00141097    1.740    0.425
       115  -9.0360    227.4833    231.7771   2.9062786090e+02   3.7434474873e+00   0.01542694   0.00750266  30.51  0.001377494    2.010    0.502
       116  -9.0641    136.6080    224.8184   2.9163300780e+02   4.3689715903e+00  0.009514882  0.006425597 -77.31 0.0009514565    1.708    0.415
       117  -9.1862    234.4826    201.0270   2.9035746563e+02   4.0551168060e+00   0.01042172  0.006455753 -60.72  0.001034247    1.597    0.374
       118 -10.4499     26.7731    191.4271   2.9269633027e+02   5.4107185156e+00   0.02006045   0.01579738 -57.66  0.002276982    1.250    0.200
       119 -11.3695     17.8353    186.2023   2.9276755995e+02   5.5242520158e+00    0.0278867   0.01849463   8.85   0.00169008    1.789    0.441
       120 -10.6991      5.4463    185.4355   2.9290607439e+02   5.6069799828e+00   0.02598692   0.01214219  49.91  0.002107866    2.661    0.624
       121 -11.2891     49.0395     25.5016   2.9141598980e+02   7.1876984338e+00   0.02528224   0.01160923  26.27  0.001356071    2.224    0.550
       122  -8.8866      1.5934    177.8012   2.9290375806e+02   5.7179070297e+00  0.009250259   0.00642171 -79.27 0.0009387481    1.669    0.401
       123  -9.7582     38.9919    176.5410   2.9246362132e+02   5.5092506758e+00   0.01482981   0.01143977 -83.95  0.001372762    1.474    0.321
       124  -9.6195     62.8899    167.7469   2.9213325480e+02   5.4677068578e+00   0.01267146  0.009976888 -75.44  0.001160583    1.362    0.266
       125  -8.9885      9.1542    167.6762   2.9275414905e+02   5.7894711814e+00   0.01161369  0.009447744 -81.21  0.001314526    1.343    0.255
       126  -9.6489     82.1941     90.5285   2.9143392803e+02   6.2412257649e+00    0.0161302   0.01207047  18.65  0.001142284    1.399    0.285
       127 -10.7060     88.2546     89.8502   2.9135961191e+02   6.2127167882e+00    0.0268325   0.01737573 -47.23  0.002285628    1.542    0.351
       128  -9.1182     92.3159     88.6861   2.9130543088e+02   6.2017714649e+00   0.01211177  0.008644156 -82.13 0.0007793652    1.647    0.393
       129  -8.9326    194.5071     89.6250   2.9012993485e+02   5.5770278853e+00   0.01379662  0.007907543 -34.67  0.001250841    2.108    0.526
       130  -9.4143     74.4473     89.0426   2.9151440139e+02   6.3047268906e+00   0.01340357   0.01023696  23.49  0.001486579    1.333    0.250
       131  -9.8733    152.7662     87.1785   2.9059703175e+02   5.8562550828e+00   0.01502613   0.01206969  -7.49  0.001249399    1.407    0.289
       132  -9.9332    160.4713     81.8232   2.9047484223e+02   5.8715260977e+00   0.02644015   0.01605807 -71.62  0.002558215    1.842    0.457
       133  -9.7286    217.1829     80.3872   2.8981093524e+02   5.5466572977e+00   0.03037891  0.008320668 -46.44  0.001931718    4.052    0.753
       134 -10.4527    134.4166     80.5400   2.9076810261e+02   6.0428699901e+00   0.02804102   0.01341665 -57.37  0.002508134    1.999    0.500
       135 -10.1818    149.7745     76.2990   2.9056429917e+02   5.9993666723e+00   0.02003022   0.01392383 -44.50  0.001777279    1.459    0.314
       136 -10.7059    143.6523     77.3205   2.9064139945e+02   6.0244125481e+00   0.02290932   0.01174326 -33.17  0.001880565    2.657    0.624
       137 -10.4413    138.7712     74.6942   2.9068158736e+02   6.0839484498e+00   0.02497328   0.01289751 -75.57  0.002088465    2.556    0.609
       138  -9.9141    132.2599     68.2163   2.9071680511e+02   6.1975666543e+00   0.02079245   0.01247969  40.08  0.001522821    1.675    0.403
       139  -9.8254    143.8626     70.8671   2.9059903572e+02   6.0973674151e+00    0.0137115   0.01093623 -89.05 0.0009380117    1.434    0.303
       140 -10.4174    139.8866     67.7927   2.9062598451e+02   6.1566173376e+00   0.02661539   0.01917947 -26.11  0.002805785    1.611    0.379
       141  -9.0563     13.3103    164.8253   2.9268856816e+02   5.7975225515e+00   0.01224758  0.008659384  39.48  0.001306951    1.422    0.297
       142  -8.4363     13.0704     76.7004   2.9214888730e+02   6.8137179401e+00  0.008684185  0.008474735   9.19 0.0002148945    1.028    0.028
       143 -10.3772     20.5983     73.2940   2.9204068275e+02   6.8079815842e+00   0.02646917   0.01794279  22.85  0.001370258    1.522    0.343
       144  -9.5394    214.9837     71.4899   2.8978119980e+02   5.6621706495e+00   0.01653411  0.009135547 -55.26  0.001184059    1.743    0.426
       145  -9.4108    155.1325     70.8169   2.9046843235e+02   6.0301973016e+00   0.01370724  0.009178549 -59.41 0.0009259232    1.470    0.320
       146  -9.1841    155.6125     66.7873   2.9043793889e+02   6.0736464490e+00   0.01306027   0.01078262 -79.32   0.00126029    1.307    0.235
       147 -10.3589    150.8334     66.9516   2.9049420674e+02   6.1004924671e+00   0.02057559   0.01450991  14.34  0.001406133    1.557    0.358
       148 -10.2611    250.1774     67.3973   2.8934975085e+02   5.4969838952e+00   0.03042625  0.007769968 -57.35  0.002073789    3.425    0.708
       149 -10.4844      2.4602    159.7233   2.9278271084e+02   5.9210070385e+00   0.03188828   0.01578148 -72.41  0.002439722    2.491    0.599
       150  -9.1560    171.1693     48.5587   2.9014521785e+02   6.1896060577e+00   0.02910485   0.01619412  10.60  0.001906906    2.371    0.578
       151 -11.6347    164.7982     62.6269   2.9030599986e+02   6.0662321570e+00   0.03904716   0.02512588 -47.65  0.002884993    1.548    0.354
       152 -10.3334    164.6404     57.0712   2.9027341684e+02   6.1310488781e+00   0.02280588    0.0137794 -41.92  0.001821432    1.753    0.429
       153  -9.5943    178.4048     60.2827   2.9013423276e+02   6.0112992825e+00   0.01469258   0.01180497 -56.52 0.0006219234    1.226    0.184
       154 -11.2219    174.1853     57.2183   2.9016401058e+02   6.0719221384e+00    0.0418494   0.02557736 -44.25  0.002149941    1.684    0.406
       155  -8.7952    188.3884     64.6348   2.9004584703e+02   5.9011677511e+00   0.01600102   0.00687638  40.85  0.001328148    2.355    0.575
       156  -8.7385    135.5430     63.9715   2.9065256760e+02   6.2266586666e+00   0.01027409  0.006497267 -62.69 0.0007015581    1.587    0.370
       157  -9.8096     76.4136     51.6277   2.9126046440e+02   6.7233940255e+00   0.02987619   0.01580811  53.74  0.002571461    2.427    0.588
       158 -10.7097     72.2437     55.3280   2.9133162326e+02   6.7058149458e+00   0.03403158    0.0162197  48.54  0.001326653    2.488    0.598
       159  -9.2949     77.7270     60.5895   2.9130066029e+02   6.6124479916e+00   0.01687033  0.008860329  37.32  0.001457781    1.871    0.466
       160 -12.0048     73.2561     75.6628   2.9144555787e+02   6.4658227539e+00   0.06606675   0.03265418  19.04   0.00566834    2.359    0.576
       161  -9.6884    149.4158     59.9904   2.9046750145e+02   6.1890558944e+00   0.01688733   0.01204322 -81.33  0.001146302    1.639    0.390
       162  -8.9133    219.4876     60.5140   2.8966118791e+02   5.7611555130e+00   0.01329762  0.008914153  20.73  0.001368691    1.571    0.364
       163  -9.8041    221.8717     57.0930   2.8961246185e+02   5.7860882228e+00   0.01705722   0.01601397  60.86   0.00135414    1.107    0.097
       164 -10.4558    201.3583     57.0173   2.8984884035e+02   5.9105968075e+00   0.02860313   0.01528587 -39.28  0.002562359    2.141    0.533
       165  -9.2434    158.1107     58.7111   2.9035905504e+02   6.1514773665e+00   0.01986678   0.01003656 -28.70  0.001513401    3.167    0.684
       166 -10.1341      2.9748     57.6827   2.9214856020e+02   7.0927825261e+00   0.01797576   0.01490493  61.24  0.001935426    1.324    0.245
       167  -9.7946    157.4810     50.6999   2.9031671855e+02   6.2473572427e+00   0.02375969   0.01708276 -42.71  0.002479597    1.423    0.297
       168  -8.2416    152.5424     56.4919   2.9040968904e+02   6.2104781466e+00   0.01108051  0.006568128 -64.05 0.0006261626    1.718    0.418
       169 -10.7981    149.6827     51.3833   2.9041111896e+02   6.2864026775e+00   0.02416844   0.01941053 -34.01  0.001796182    1.311    0.237
       170 -11.7272    141.5268     51.6003   2.9050678127e+02   6.3329406377e+00   0.03688218   0.01963918  19.24   0.00112372    2.127    0.530
       171 -10.3460     28.9759     49.2850   2.9179544709e+02   7.0341673516e+00    0.0132016   0.01125807 -34.16 0.0003732947    1.209    0.173
       172  -8.8363    192.7284     53.9193   2.8992931960e+02   5.9981870831e+00  0.008891064  0.008566875  82.77  0.000371485    1.074    0.069
       173 -10.3222    186.5084     52.9829   2.8999537493e+02   6.0464097858e+00    0.0163291  0.009148093 -41.29  0.001104894    1.939    0.484
       174  -9.7750    188.9861     49.4159   2.8994464307e+02   6.0724788098e+00   0.01894687    0.0141562  75.22  0.001307495    1.643    0.391
       175  -8.4456    218.9946     53.0256   2.8962045839e+02   5.8501662154e+00  0.009567323  0.007698446 -27.63 0.0004893778    1.348    0.258
       176  -9.9745    221.6116     48.6602   2.8956318066e+02   5.8845359654e+00   0.02267361   0.01421265 -72.01  0.002232611    1.779    0.438
       177  -9.5582    237.2064     49.9526   2.8939121422e+02   5.7756257403e+00   0.02112639   0.01105649 -72.00  0.001107045    2.286    0.563
       178  -9.0959     77.2122     63.9854   2.9132760887e+02   6.5764697915e+00   0.01244015  0.009079871 -63.19 0.0006055483    1.376    0.273
       179  -9.8659     67.9521     44.7253   2.9131577166e+02   6.8534571594e+00   0.02588724   0.02078516 -86.60  0.002920592    1.406    0.289
       180  -9.8330     25.3575     38.1923   2.9176886341e+02   7.1833620723e+00   0.01029874   0.00880798  16.50 0.0003742652    1.202    0.168
       181  -9.7888     21.6661    138.6500   2.9243096162e+02   6.0491661347e+00   0.02157332   0.01077984 -37.03  0.001803532    2.493    0.599
       182 -10.4612     38.1546     27.3499   2.9155355521e+02   7.2315530241e+00   0.02179424    0.0133366  29.05  0.001657068    1.625    0.385
       183 -10.4414     16.6338    158.8676   2.9261351511e+02   5.8463241643e+00   0.02737231   0.01624264 -26.86  0.002472109    2.259    0.557
       184 -11.9319     20.3432    148.1297   2.9250458393e+02   5.9478766255e+00   0.04749655   0.03629046  -0.27  0.005200587    1.506    0.336
       185 -11.5145     21.8804     44.7219   2.9184948675e+02   7.1290370729e+00   0.04467396   0.02620981  45.59  0.003857301    1.816    0.449
       186 -10.3261     34.9092    150.3140   2.9234953196e+02   5.8357454530e+00    0.0216643   0.01482557  33.93  0.001513996    1.447    0.309
       187 -10.7445     39.0180    145.9672   2.9227525694e+02   5.8612657990e+00    0.0244225   0.01842515 -63.84  0.001669199    1.333    0.250
       188  -9.1509     44.9039    158.0091   2.9228128830e+02   5.6873971260e+00   0.01797229   0.01040709  70.86  0.001483625    2.821    0.646
       189  -8.8651     10.5477    156.5898   2.9266990868e+02   5.9088732018e+00   0.02143547  0.005532286 -58.49  0.001453054    3.438    0.709
       190  -9.6400     33.8606    155.8180   2.9239552120e+02   5.7786128380e+00  0.009760236  0.008634366 -16.97 0.0003189826    1.195    0.163
       191  -8.5423     55.3211    155.3229   2.9214429392e+02   5.6560671115e+00  0.007052164  0.004929617 -27.31 0.0007045785    1.676    0.403
       192  -8.8047     52.5289    151.9510   2.9215582601e+02   5.7115973893e+00   0.01035982  0.008817033  24.60 0.0007763859    1.185    0.156
       193 -10.3218     67.3764    148.8612   2.9196510397e+02   5.6583804524e+00   0.01765427   0.01201263 -83.67  0.001623819    1.802    0.445
       194  -9.9253      3.4636    147.0794   2.9269340103e+02   6.0606724825e+00   0.02371281   0.01255818  46.51   0.00214927    2.074    0.518
       195  -9.7448      6.5430    142.6286   2.9263041049e+02   6.0935757107e+00   0.02095933   0.01557774  56.51  0.002159075    1.507    0.336
       196  -8.8765     80.3654     46.8939   2.9118543527e+02   6.7541546850e+00  0.009128748  0.008304453 -50.38 0.0004898315    1.087    0.080
       197 -10.2909    191.6098     39.4159   2.8985234348e+02   6.1715762044e+00   0.02836309   0.01456996 -41.11 0.0008360383    2.175    0.540
       198  -9.8919    206.7683     43.9330   2.8970525354e+02   6.0283326947e+00   0.02220481   0.01719231  80.13  0.002425439    1.545    0.353
       199 -10.8206    202.4756     37.9365   2.8971764951e+02   6.1230941566e+00   0.02925611   0.02017626  -0.23  0.002552061    1.808    0.447
       200 -10.0375    194.6475     31.0753   2.8976553020e+02   6.2490869614e+00   0.01759086   0.01128599 -51.47 0.0008552845    1.524    0.344
       201 -10.4183     26.3473     53.3129   2.9185077488e+02   7.0035388586e+00   0.01937588   0.01350868   7.31  0.001061039    1.675    0.403
       202  -8.6988     76.0446     46.3208   2.9123192207e+02   6.7866356538e+00  0.009196557  0.008657265  14.10  0.000616013    1.073    0.068
       203 -10.6004    199.7461     31.3925   2.8970859558e+02   6.2147145047e+00   0.01809113   0.01292063  49.88 0.0002654101    1.506    0.336
       204  -8.6976    248.7496     44.4504   2.8922391421e+02   5.7691569441e+00  0.009468973  0.006464773   7.98 0.0009479776    1.732    0.423
       205  -9.7802    232.9869     42.0715   2.8939102505e+02   5.8916010917e+00   0.02933473   0.01280027 -38.38  0.002227173    3.024    0.669
       206  -8.3771      1.5104     44.4362   2.9208380029e+02   7.2538973545e+00   0.00676472  0.006162027 -25.33 0.0002748982    1.128    0.113
       207  -8.5719    214.9773     42.5085   2.8960162765e+02   5.9952072298e+00   0.00942336   0.00572423  -7.74 0.0008095975    2.475    0.596
       208 -11.1455    162.2492     38.5771   2.9018648368e+02   6.3580001816e+00    0.0257867   0.01352116 -60.23   0.00239535    1.872    0.466
       209  -9.6019    180.4352     38.9597   2.8997863913e+02   6.2441265940e+00   0.02245062   0.01482085  70.57  0.002092579    2.056    0.514
       210  -9.2470     76.9485     41.2855   2.9119031452e+02   6.8391202957e+00   0.01362966  0.008024327  40.01   0.00107507    1.707    0.414
       211  -8.5791     62.6434     41.1247   2.9135499421e+02   6.9266503389e+00   0.01240681  0.007658422  13.74  0.001128566    1.886    0.470
       212  -8.1822      4.7045     41.0370   2.9202579657e+02   7.2739407649e+00  0.008476209  0.008130405   0.82 0.0006402997    1.053    0.051
       213  -8.1427    229.3154     39.2530   2.8941591643e+02   5.9461215981e+00  0.006595624  0.005005161 -20.23 0.0002981689    1.527    0.345
       214  -8.8948    173.8443     39.2541   2.9005663880e+02   6.2804301186e+00   0.01067932  0.008683719  59.86  0.001205414    1.353    0.261
       215  -9.5389    168.8520     36.5737   2.9009773308e+02   6.3412831235e+00   0.01833568   0.01302413  52.88  0.001249298    1.556    0.358
       216 -10.1387    210.3999     33.2368   2.8959698206e+02   6.1293041309e+00   0.02229665   0.01070301 -58.93   0.00142157    2.015    0.504
       217  -9.3085     37.7689     33.7969   2.9159787566e+02   7.1597330843e+00   0.02041455   0.01424945 -25.11  0.001770643    1.707    0.414
       218 -10.8330    237.6161     32.7831   2.8927998147e+02   5.9703283237e+00   0.03136276   0.02009125  18.23  0.003153009    1.703    0.413
       219  -9.6263    246.5267     33.5119   2.8918169220e+02   5.9081737101e+00     0.021181   0.01237284   7.93   0.00148304    2.281    0.562
       220  -8.7203    248.3292    144.6658   2.8984956669e+02   4.6200160401e+00  0.007068508  0.004989868  63.71 0.0005499445    1.724    0.420
       221 -10.6311     26.7530    127.8783   2.9230580394e+02   6.1428499541e+00   0.03190819    0.0265734 -24.87  0.003698322    1.291    0.226
       222  -9.2890     28.5052    121.9783   2.9224919862e+02   6.2003274904e+00   0.01666917  0.008463737 -71.62  0.001423973    2.351    0.575
       223 -10.7449    177.5576     28.5723   2.8994750030e+02   6.3807967245e+00   0.02902474   0.01663463 -55.83  0.001987692    1.686    0.407
       224 -10.2942      3.7963    135.4499   2.9261804766e+02   6.1926395565e+00   0.02886315   0.02110309 -59.59  0.002781222    1.349    0.259
       225 -10.5003    226.4595     28.7135   2.8938349684e+02   6.0843824268e+00   0.02952866   0.01909795  87.80  0.002782303    2.153    0.536
       226  -9.7220      9.1259    134.8152   2.9255247008e+02   6.1681620891e+00   0.01413107   0.01159445  26.29 0.0005812386    1.226    0.184
       227 -11.6867     13.8098    129.8156   2.9246750806e+02   6.1977988017e+00   0.04210105   0.02966081 -75.75  0.004043249    1.581    0.368
       228 -10.5417    154.2091     24.9060   2.9019472423e+02   6.5634640880e+00   0.01905324   0.01345567 -69.66  0.001331796    1.496    0.331
       229  -9.7998    159.4928     24.3294   2.9013004569e+02   6.5382947186e+00   0.01647313   0.01415209  17.46   0.00156893    1.193    0.162
       230  -9.2275    167.1111     29.5131   2.9007409389e+02   6.4328873545e+00   0.01083772  0.007896229  18.38  0.001160106    1.448    0.310
       231 -10.3332     19.3449    128.8293   2.9239738396e+02   6.1761251833e+00   0.01644004   0.01378375 -10.79 0.0002602869    1.309    0.236
       232  -9.6688     19.4855    119.1563   2.9233621020e+02   6.2866772676e+00   0.02137315   0.01549319 -33.08  0.002285202    1.514    0.340
       233 -10.5473     54.6134    137.6261   2.9204350594e+02   5.8641085800e+00   0.01847947   0.01217183 -56.25  0.001316347    1.479    0.324
       234 -11.6078     55.3621    129.4540   2.9198449785e+02   5.9537364628e+00   0.05279282   0.01631907 -51.84  0.003877035    2.975    0.664
       235 -10.0025     64.2270    138.1222   2.9193536680e+02   5.8008931040e+00   0.01365325  0.007742885  51.61  0.001244734    2.080    0.519
       236  -9.1097     98.4916    135.5155   2.9152306873e+02   5.6257351652e+00  0.006508867  0.006496781 -72.52 0.0007123427    1.016    0.015
       237 -10.1478     41.0189    133.8723   2.9217764889e+02   5.9886040319e+00   0.01745941  0.006788876  47.69  0.001259443    3.267    0.694
       238  -9.2314    219.8813     25.2034   2.8943766154e+02   6.1643746637e+00   0.01377135   0.01012434  59.20 0.0007992419    1.562    0.360
       239 -10.9879     65.2172    130.5518   2.9187726174e+02   5.8821410044e+00   0.02386443   0.01360606  24.80  0.002288064    1.805    0.446
       240 -10.9309     72.1970    129.9082   2.9179256111e+02   5.8477814805e+00   0.02750783   0.02182131 -53.32  0.002838511    1.238    0.192
       241  -9.1752    193.3227     24.6290   2.8974085728e+02   6.3311125490e+00    0.0159076  0.006852662 -40.80  0.001073392    2.811    0.644
       242  -9.8721     74.6765    125.3938   2.9173604878e+02   5.8849167355e+00   0.03036086  0.009325511  41.94  0.002104369    3.445    0.710
       243  -9.3009    241.3194     23.6505   2.8918057402e+02   6.0528224916e+00   0.01630937   0.01093222  75.24 0.0007851605    2.037    0.509
       244  -9.4739     96.1269    130.1158   2.9151710208e+02   5.7020724847e+00   0.01402822   0.01027154 -38.29  0.001269292    1.437    0.304
       245  -9.9826     35.1704    129.7619   2.9222000403e+02   6.0708830296e+00   0.01685303   0.01090314  65.15  0.001608691    2.040    0.510
       246 -10.3217     37.8808    127.1700   2.9217268033e+02   6.0845381085e+00   0.01318161  0.009458452 -50.66 0.0008659392    1.369    0.270
       247 -10.4336     48.4786    125.7247   2.9204115632e+02   6.0378384990e+00   0.01406366   0.01350163 -85.05  0.001754774    1.072    0.067
       248 -11.0256     67.7562    122.6181   2.9179898425e+02   5.9582963291e+00   0.03819871   0.01835513 -37.28  0.003112005    2.644    0.622
       249  -9.3745    198.2568     16.6050   2.8963407060e+02   6.3935180515e+00   0.01372427   0.01064098  12.22 0.0007647513    1.391    0.281
       250 -10.0528     67.5283    115.2055   2.9175591054e+02   6.0450020409e+00   0.02867379  0.009378179  39.34  0.001751128    2.984    0.665
       251  -8.6556     97.4733    124.4747   2.9146673009e+02   5.7589455803e+00  0.006511535  0.006480174 -41.07 1.800067e-05    1.010    0.010
       252 -10.0240     91.9069    120.4724   2.9150640593e+02   5.8383772015e+00   0.01969663   0.01327657 -43.59  0.001991838    1.519    0.342
       253 -11.4949     46.7782    102.7531   2.9191923836e+02   6.3124860762e+00    0.0782297   0.03189914 -39.28  0.005707546    3.274    0.695
       254 -10.1148      4.9493     70.9374   2.9220742880e+02   6.9284937046e+00   0.02731232   0.01369786  49.53   0.00166981    2.375    0.579
       255 -10.8392     20.8760    109.2722   2.9225924204e+02   6.3921858782e+00   0.04507285    0.0237055   6.57  0.003611407    2.922    0.658
       256 -11.1780      4.8327     80.0880   2.9226519063e+02   6.8238806365e+00   0.03474903   0.02431409 -44.43  0.002516885    1.447    0.309
       257 -11.0579     27.2983    102.0492   2.9214039159e+02   6.4369956313e+00   0.03905174   0.02252429  11.91  0.003569426    2.156    0.536
       258 -11.2304     41.8120     88.6262   2.9188959802e+02   6.5047867627e+00   0.08439929   0.02428835 -50.50  0.005949382    3.251    0.692
       259 -11.5146     53.0636     87.1345   2.9175013469e+02   6.4546726089e+00   0.09134568   0.03613698  14.91  0.005910273    4.317    0.768
       260 -12.5287      5.7090    114.9176   2.9246957886e+02   6.4176880031e+00    0.0686186   0.02313391 -46.00   0.00493454    3.205    0.688
       261 -11.7441     17.2608    102.5157   2.9225947223e+02   6.4915554839e+00   0.04659934   0.02941977  80.60  0.004084611    2.340    0.573
       262 -11.2863      3.2952     88.9895   2.9233785390e+02   6.7305939581e+00     0.031283   0.02827546  10.85  0.003806193    1.136    0.120
       263 -11.1089     22.0762     96.4258   2.9216619346e+02   6.5329175037e+00   0.03102179   0.02405414 -76.23  0.003457993    1.397    0.284
