#   1 NUMBER                 Running object number                                     
#   2 MAG_AUTO               Kron-like elliptical aperture magnitude                    [mag]
#   3 X_IMAGE                Object position along x                                    [pixel]
#   4 Y_IMAGE                Object position along y                                    [pixel]
#   5 X_WORLD                Barycenter position along world x axis                     [deg]
#   6 Y_WORLD                Barycenter position along world y axis                     [deg]
#   7 A_WORLD                Profile RMS along major axis (world units)                 [deg]
#   8 B_WORLD                Profile RMS along minor axis (world units)                 [deg]
#   9 THETA_WORLD            Position angle (CCW/world-x)                               [deg]
#  10 FWHM_WORLD             FWHM assuming a gaussian core                              [deg]
#  11 ELONGATION             A_IMAGE/B_IMAGE                                           
#  12 ELLIPTICITY            1 - B_IMAGE/A_IMAGE                                       
         1 -12.4342    189.7400     14.9284   5.7361210269e+01   3.6138722899e+01    0.3952772    0.3204887  76.95  0.001608488    1.113    0.101
         2 -14.0913    210.6943      3.9802   5.3064872793e+01   3.2773059787e+01     1.240974    0.6079047  62.93  0.004877494    1.895    0.472
         3 -15.0491    187.7845     33.6285   6.1769681383e+01   3.4417598171e+01     2.129175     1.384691  26.67   0.01023682    2.912    0.657
         4 -11.5023    220.0754     16.8409   5.4735731881e+01   2.9409264153e+01    0.1939006    0.1278841 -76.30 0.0009702232    1.289    0.224
         5 -11.2032    111.6113    217.6309   1.1958262569e+02   1.2786413840e+01    0.2611876    0.2535713 -37.93 0.0005705935    1.163    0.140
         6 -18.7421     33.8773    242.9600   1.3906149619e+02   1.8386435130e+01     7.236973     6.608864  38.92   0.05150911    1.449    0.310
         7 -11.2699    156.7403    200.2752   1.0623538504e+02   8.6751552371e+00    0.5093883    0.3316912  80.94  0.001918076    3.019    0.669
         8 -11.1587    153.0091    193.8611   1.0587125545e+02   1.0788990217e+01    0.4081406     0.277278  65.08  0.001152331    1.978    0.494
         9 -19.1910     20.1241    101.1317   1.2432313350e+02   5.3408591281e+01     17.97682    0.8689079 -61.64   0.02935073   16.111    0.938
        10 -10.9185    141.0376    197.9674   1.0942458934e+02   1.2079780299e+01     0.322581    0.2186664 -62.94 0.0006787503    1.642    0.391
        11 -11.1109    136.0099    199.0277   1.1079734044e+02   1.2757586891e+01    0.2349699      0.22992  64.95  0.001280795    1.002    0.002
        12 -11.6178    101.6301    196.8116   1.1864927719e+02   1.9338718741e+01    0.5714581    0.3550586 -17.03    0.0020083    3.637    0.725
        13  -9.7622    121.4185    197.4490   1.1398098717e+02   1.5757357057e+01    0.1468786      0.14083  81.79 6.460142e-05    1.012    0.012
        14 -11.6321    112.9556    195.7446   1.1572388342e+02   1.7655478844e+01    0.5454926    0.3515487  -9.67  0.001976993    3.310    0.698
        15 -10.9417     81.9195    195.0568   1.2316457632e+02   2.2941555681e+01    0.3328081    0.3144571  29.44   0.00149859    1.223    0.182
        16 -13.5059     72.6559    188.1261   1.2439363458e+02   2.6048066640e+01     1.072241    0.7660469 -46.77  0.005430561    1.525    0.344
        17  -9.8285     97.9273    190.8420   1.1856802611e+02   2.1411503390e+01    0.2140775    0.2045041 -23.74 0.0006834171    1.209    0.173
        18 -10.6704     58.9088    188.0187   1.2776104129e+02   2.8002021718e+01    0.4171686    0.2811311 -33.61  0.001809743    2.077    0.519
        19 -11.0868    208.2439    196.8266   9.4569463775e+01   1.9465379259e-01    0.2038358    0.1930841 -46.92 0.0006171673    1.183    0.155
        20 -10.6358    151.2983    183.3774   1.0421592565e+02   1.3493744689e+01    0.2517746    0.1873687 -74.37 0.0005457024    1.678    0.404
        21 -10.6164     99.4778    180.8379   1.1645487711e+02   2.3622538784e+01    0.2677608    0.2380074  50.91 0.0005209186    1.137    0.121
        22 -12.0855    113.6264    208.6396   1.1770994582e+02   1.4501663254e+01    0.3406763     0.264895 -81.73  0.001742094    1.415    0.293
        23 -10.4311    219.1658    177.5880   8.8621647754e+01   2.0785388526e+00    0.1848482    0.1323048  24.14 0.0006054825    1.629    0.386
        24  -9.9949    168.1959    176.4435   9.8916514513e+01   1.1794525214e+01    0.2337028    0.2095587 -67.93 0.0004412013    1.196    0.164
        25 -10.3279    165.9636    172.9905   9.8698689033e+01   1.3005750604e+01    0.3406032    0.2405528 -81.46 0.0008041611    2.142    0.533
        26 -10.8338    203.9737    165.4100   8.9024804761e+01   7.2725166057e+00    0.6575727    0.3019809 -49.21  0.002581768    2.137    0.532
        27 -10.0432      1.5033    210.3779   1.4285170826e+02   2.9025943418e+01    0.1194028   0.09131068  83.17 -0.0001751758    1.035    0.034
        28 -11.7267    194.3515    167.4725   9.1394008571e+01   8.6712806983e+00    0.4013899    0.3275419 -56.38 0.0008286595    1.262    0.208
        29 -10.9409    190.0226    160.7968   9.0857514881e+01   1.0933044882e+01    0.3648194    0.2701568 -61.10  0.001045608    1.489    0.328
        30 -11.3577    189.0250    155.1099   8.9826648325e+01   1.2350254048e+01    0.4672127    0.4056939 -72.66  0.001966719    1.270    0.213
        31 -12.3788    193.7379    195.7191   9.7295439391e+01   2.9233870200e+00     1.359483    0.6609095 -64.05  0.003730624    5.820    0.828
        32  -9.5583      7.8275    192.8464   1.4013719719e+02   3.2508879292e+01    0.3409828    0.1054004  29.65  0.001287529    3.565    0.719
        33 -10.4500    160.9634    166.0055   9.8357020431e+01   1.5584296579e+01    0.2421755    0.1891386 -85.50 0.0005440062    1.664    0.399
        34 -12.2585     98.2887    154.0194   1.1161964656e+02   3.0541260847e+01    0.7036839    0.4736253 -30.72  0.002019632    1.879    0.468
        35 -11.5927    133.7019    144.7209   1.0021720316e+02   2.6099003859e+01     1.224915    0.3028767 -54.21  0.002769538    5.647    0.823
        36 -10.6005    174.5751    149.1596   9.1576430391e+01   1.6596974597e+01     0.273538    0.2241512  47.77 0.0005939939    1.280    0.219
        37 -11.1997    133.9405    204.8211   1.1231419333e+02   1.1810479537e+01    0.4007592    0.2403593 -87.30  0.001391691    3.436    0.709
        38 -11.7679    108.6322    139.7034   1.0567894001e+02   3.2208732998e+01     0.626013    0.3424251 -32.57  0.002276078    2.512    0.602
        39 -12.5545     97.3979    139.4260   1.0872998736e+02   3.4313549170e+01    0.2892435    0.2813611 -32.79 0.0009792799    1.062    0.058
        40 -11.5639    107.5243    203.9434   1.1839326199e+02   1.6639714047e+01    0.3114265    0.2701194  77.76 0.0009933382    1.155    0.134
        41 -11.5231    105.9679    130.3104   1.0422408660e+02   3.4962710234e+01    0.4830515    0.3243974 -51.33  0.002181461    1.432    0.302
        42 -11.3994    103.4846    126.1335   1.0391798578e+02   3.6411894022e+01    0.3250264    0.2612823 -28.54 0.0008508997    1.353    0.261
        43 -11.0866    115.7690    130.0438   1.0146264427e+02   3.3152859446e+01    0.3492957    0.2788991 -22.99 0.0008487243    1.459    0.315
        44 -11.3225    135.7952    127.5494   9.5603237228e+01   2.9658908871e+01    0.6279321    0.1225059 -49.93  0.001378489    5.888    0.830
        45 -10.9965    120.1569    124.5879   9.8944517334e+01   3.3551566316e+01    0.3122505    0.2215408 -40.39 0.0008044233    1.418    0.295
        46 -10.6895    160.7733    128.0514   8.9735174161e+01   2.4188899734e+01    0.3450705    0.2102232 -56.79  0.001420625    1.774    0.436
        47 -10.3504    110.9082    119.0359   1.0008024737e+02   3.6647900268e+01     0.223156    0.2204932 -51.45  0.000418406    1.023    0.023
        48 -11.5781     67.4101    115.8064   1.1218533865e+02   4.4792073131e+01    0.3248646    0.2453691 -58.53 0.0008297189    1.287    0.223
        49 -10.3461    167.8234    112.7940   8.4467872033e+01   2.5874132560e+01    0.2931941    0.2321735 -80.59 0.0009293027    1.468    0.319
        50 -11.0971    135.0000    111.5360   9.1769600937e+01   3.3364646765e+01    0.5091323   0.08655777 -44.89  0.001142957    5.802    0.828
        51 -11.5224    119.0842    110.4524   9.5632211017e+01   3.6931481807e+01    0.5590818    0.2610886  56.84  0.001864093    3.084    0.676
        52 -10.4269    205.5061    110.1343   7.6597716190e+01   1.8151780135e+01    0.2936796    0.2115748  45.51 0.0009094956    1.579    0.367
        53 -11.5852    129.6026    211.1892   1.1441227698e+02   1.1144579238e+01     0.372292    0.2437541 -86.91   0.00156819    2.340    0.573
        54 -11.0602    104.5635    202.7415   1.1890482151e+02   1.7424363272e+01    0.3343408    0.2253396 -60.01  0.001176851    1.479    0.324
        55 -11.5639    106.7847    210.3384   1.1957865347e+02   1.5265861847e+01    0.6402993    0.3003394  50.00  0.002061954    2.229    0.551
        56 -10.0561     72.1962    102.6356   1.0741776666e+02   4.7075478374e+01    0.1911592    0.1336003  18.95  0.000367912    1.626    0.385
        57  -9.3265    128.6647     95.3170   8.9068652279e+01   3.8072360019e+01    0.1529987    0.1193407 -87.97 0.0007048163    1.696    0.410
        58  -9.8939     41.6469     91.9176   1.1486442450e+02   5.3402661781e+01    0.1838773     0.146627 -44.51 0.0004084817    1.103    0.094
        59 -11.9150    168.0493     67.8141   7.3116991198e+01   3.4097072340e+01    0.7390967    0.3987971 -80.54  0.002375253    4.337    0.769
        60  -9.2877     95.6976     63.3035   8.8681412775e+01   5.0596071206e+01    0.1275123     0.110045 -88.29 0.0003892005    1.593    0.372
        61 -11.8225    145.0020    242.6327   1.1599524751e+02   1.9427306921e+00    0.3281164    0.2053648 -50.17  0.001679232    1.751    0.429
        62 -11.2419     95.2210    200.6943   1.2081631126e+02   1.9461112023e+01    0.5672075    0.2586608 -55.68 0.0006873702    2.132    0.531
        63 -13.5943    173.1228     48.5396   6.7416870806e+01   3.5799668012e+01    0.6854827    0.5746386 -42.39 0.0009168244    1.296    0.229
        64 -10.0502     87.7366    202.8814   1.2293702481e+02   2.0132462234e+01    0.3204001    0.2171334 -46.47  0.001504103    1.647    0.393
