#   1 NUMBER                 Running object number                                     
#   2 MAG_AUTO               Kron-like elliptical aperture magnitude                    [mag]
#   3 X_IMAGE                Object position along x                                    [pixel]
#   4 Y_IMAGE                Object position along y                                    [pixel]
#   5 X_WORLD                Barycenter position along world x axis                     [deg]
#   6 Y_WORLD                Barycenter position along world y axis                     [deg]
#   7 A_WORLD                Profile RMS along major axis (world units)                 [deg]
#   8 B_WORLD                Profile RMS along minor axis (world units)                 [deg]
#   9 THETA_WORLD            Position angle (CCW/world-x)                               [deg]
#  10 FWHM_WORLD             FWHM assuming a gaussian core                              [deg]
#  11 ELONGATION             A_IMAGE/B_IMAGE                                           
#  12 ELLIPTICITY            1 - B_IMAGE/A_IMAGE                                       
         1 -10.4600     32.9203     63.3303   1.2041124471e+02   6.0052048717e+01     1.129888    0.4751388 -29.87   0.00417072    3.065    0.674
         2 -10.7078     36.8694      9.1120   9.9261774123e+01   6.8122804462e+01    0.7767944      0.46088 -44.07  0.003555811    2.423    0.587
         3 -10.9133     21.3325      7.8557   1.0542046371e+02   7.0008878704e+01     1.051906    0.8524399  63.77  0.006613743    3.409    0.707
         4 -10.8237     21.8595     53.6549   1.2180268964e+02   6.2818847535e+01    0.7164558    0.4501248 -78.93  0.002987756    3.221    0.690
         5 -11.0224     23.5283     32.9928   1.1449252532e+02   6.6231632947e+01     1.229416    0.3957372 -36.37  0.003217783    2.770    0.639
         6 -10.3550      9.7580     19.2114   1.1543317658e+02   6.9469848084e+01     1.079716     0.408713 -17.44  0.003850636    6.062    0.835
         7 -10.1785      4.7497     42.5394   1.2538853752e+02   6.5994090260e+01    0.8613023    0.3035761 -58.04  0.004263641    2.622    0.619
         8 -10.1591     74.0809     55.9728   1.0354748644e+02   5.6257465752e+01     1.317727    0.5306125 -28.59  0.003717132    3.592    0.722
         9  -9.1633    110.2045     31.9893   8.4408996872e+01   5.3063731220e+01    0.6960513    0.2337176 -32.22  0.001887818    3.082    0.676
        10  -9.1814    110.5708      6.2268   7.5251683002e+01   5.5663221755e+01    0.5197299    0.2168092 -12.25  0.002215742    3.294    0.696
        11  -8.6838    112.1211     15.5668   7.8190897946e+01   5.4474955908e+01    0.2900076    0.1674368 -36.09 0.0008172446    1.971    0.493
        12  -9.1306    114.3324      9.8237   7.5688576235e+01   5.4538803176e+01    0.3572758     0.179369  39.58 0.0003538595    1.877    0.467
        13  -8.9028    115.0928      4.4537   7.3665746599e+01   5.4836739864e+01    0.2889509    0.2100267 -42.41 0.0006505903    1.683    0.406
        14  -9.3529    102.8444     22.2876   8.2857479512e+01   5.5722872796e+01    0.4872485    0.2563423 -20.24   0.00141912    2.142    0.533
        15  -8.7729    104.0319     15.4650   8.0085420418e+01   5.6190486399e+01    0.4494985    0.2292554   1.00  0.001914002    3.126    0.680
        16 -10.2475     76.1162     31.7713   9.4203265910e+01   5.9596967022e+01    0.6497152    0.4760515 -81.35  0.001257283    3.485    0.713
        17 -10.2365     79.5366     23.8549   9.0079156726e+01   5.9999327883e+01    0.8070592    0.2846282  35.65   0.00321064    3.119    0.679
        18  -9.9388     63.6851      3.2445   8.6740456111e+01   6.4858092765e+01    0.4842115    0.2978941 -23.11  0.003056739    1.652    0.395
        19  -9.6447     63.2523     21.3890   9.4471730142e+01   6.2998010402e+01    0.3582861    0.2935758 -55.54  0.001368404    1.963    0.491
        20 -10.1426     64.1954     13.6064   9.0955671666e+01   6.3741807393e+01    0.4851292    0.2998993   7.89  0.002564885    1.700    0.412
        21 -10.3282     50.7645     15.2186   9.6440397338e+01   6.5579741260e+01     1.160195    0.5526847   2.40  0.004398521    4.628    0.784
        22  -9.6055    119.0545     20.2185   7.8222182564e+01   5.2494667262e+01    0.8658119    0.3386456 -16.73  0.003067199    3.808    0.737
        23  -8.4798    125.0660     13.0416   7.4520877865e+01   5.1870215577e+01    0.2283219    0.1893118  37.18 0.0006694674    1.126    0.112
        24  -8.7860    126.8592      8.8963   7.2795200142e+01   5.1846191957e+01    0.3065346    0.1633259  59.15 0.0006309172    1.594    0.373
        25  -8.0131    120.9780      5.9779   7.2984668371e+01   5.3416755904e+01    0.1992332    0.1646483  50.33 0.0005522763    1.024    0.024
        26  -8.7003    125.4147      5.0841   7.1819762123e+01   5.2501217510e+01    0.3038479    0.2052309  38.14  0.001038606    1.403    0.287
        27  -8.9446     40.9234     21.0575   1.0270851537e+02   6.6141929816e+01    0.3161329    0.1365027 -33.16 0.0005911239    2.101    0.524
        28 -10.2578    132.2888      8.7719   7.1723807789e+01   5.0620662832e+01    0.7429965    0.2612808 -36.04  0.003118602    3.114    0.679
        29  -9.0287    132.6540     17.5735   7.4482254714e+01   4.9698784124e+01    0.2427965    0.2060557 -16.91  0.001056008    1.329    0.247
        30  -9.9770     73.5089     17.7038   8.9559644444e+01   6.1751497689e+01    0.7956782    0.2112176 -31.13  0.003116829    3.742    0.733
        31  -8.2787     72.0339      8.4812   8.6274441278e+01   6.2960436072e+01    0.1746408    0.1382508  -3.36 -1.218513e-05    1.190    0.160
        32  -9.6020    231.5095     15.4583   6.0394486507e+01   2.6261936202e+01    0.3295356    0.2305539 -37.26  0.001256101    1.568    0.362
        33  -8.5649     97.6593      5.6975   7.8056952379e+01   5.8394420003e+01    0.2862428    0.1840459  13.85  0.001408233    1.696    0.410
        34  -8.5572     95.9780      2.9965   7.7454655179e+01   5.8958573852e+01    0.2676859    0.1885768  31.28 0.0007729076    1.255    0.203
        35  -8.7897     95.8655     16.6423   8.2611694746e+01   5.7727298170e+01    0.2911673    0.1643101 -30.39 0.0009488656    1.908    0.476
        36  -8.5722     96.6666     12.6416   8.0905599721e+01   5.7964474492e+01    0.3264808    0.2056947  13.62  0.001690129    1.792    0.442
        37  -9.5176      2.1537     14.3926   1.1712832915e+02   7.0712157164e+01    0.4257072    0.1893043 -54.54  0.002033144    2.982    0.665
        38 -10.1964      5.9656      5.2133   1.1150093231e+02   7.1711470008e+01    0.4338468    0.2557236 -12.02  0.001254382    1.434    0.303
        39  -9.1386      2.5117      3.0959   1.1228123109e+02   7.2249476080e+01    0.2551524    0.1274186 -32.83  0.001304263    1.539    0.350
        40  -8.5875     85.2133      6.2055   8.1487476661e+01   6.0785371708e+01     0.364671    0.2201419   5.48  0.002045105    1.865    0.464
        41  -8.6156     89.1948      2.7290   7.9061796453e+01   6.0319846151e+01    0.2380435    0.1706211 -16.85 0.0009948729    1.495    0.331
        42  -9.5763     85.0816     13.0000   8.4191892121e+01   6.0171970410e+01    0.3670003    0.2426993 -49.70  0.001529792    2.295    0.564
        43  -7.9541     80.4398     12.7256   8.5434861634e+01   6.1054627733e+01    0.2118588    0.1538735 -42.72  0.001288455    1.819    0.450
        44  -8.0769    141.2670     11.8659   7.1073610053e+01   4.8252565752e+01    0.2137375    0.1634076 -32.26  0.001265075    1.488    0.328
        45  -7.6615    204.1170     10.1149   6.1929135941e+01   3.3280300121e+01    0.1733328    0.1269573 -76.27            0    1.247    0.198
        46  -8.7680    102.1449      8.3051   7.7934113294e+01   5.7252231887e+01    0.2019532    0.1899657 -55.05 0.0006314898    1.351    0.260
        47  -9.2253     77.9862      4.2893   8.2762281576e+01   6.2292294160e+01    0.4029768    0.2326898  -6.22  0.001539184    1.893    0.472
        48  -8.1240    143.2289      5.3979   6.8759160199e+01   4.8377657305e+01    0.2116088    0.1416257 -53.33  0.000704624    1.797    0.444
        49  -8.3381    104.3484      2.2944   7.5229026405e+01   5.7301160367e+01    0.2693446      0.15439  32.80  0.001257827    1.682    0.406
        50  -7.5291    175.5989      2.5432   6.3333136552e+01   4.0898934223e+01    0.1272665    0.1074359  74.13 0.0002879787    1.041    0.040
        51  -7.5035    151.6262      2.3257   6.6530341097e+01   4.6660377815e+01    0.1343302   0.08874373 -73.51 1.126526e-05    1.824    0.452
        52  -7.9976    135.8514      1.5585   6.8809594146e+01   5.0413881024e+01     0.253601   0.09838819  60.49 0.0008511866    2.041    0.510
        53 -10.1354     78.0527    113.0301   1.1838655207e+02   4.4016249345e+01    0.5109193    0.3149324 -76.61  0.001653136    2.272    0.560
        54  -8.6731    166.7505    250.5608   1.2232423611e+02  -1.3535019551e+00    0.1834241    0.1013158  49.34  0.000945824    1.623    0.384
        55  -8.1130    160.3362    250.3048   1.2350862723e+02  -2.1583956809e-01     0.124025   0.09276057  16.83 0.0004175176    1.669    0.401
        56  -7.3951    167.3712    114.2037   9.5253711344e+01   2.5725291318e+01    0.2279422    0.1436147 -53.10 0.0005113987    1.665    0.399
        57  -8.9894     35.7683    111.5675   1.3051280085e+02   4.9553307015e+01    0.2615433    0.1558843  37.82  0.001429688    1.956    0.489
        58 -10.0804     67.0490    104.1169   1.1956827481e+02   4.7628232336e+01    0.7301393     0.440353   0.64  0.002995064    3.095    0.677
        59  -9.9882     65.7411    110.9624   1.2153217403e+02   4.6251074032e+01    0.4667982     0.331643  80.85  0.001345863    1.953    0.488
        60  -9.2936     59.5666    110.0049   1.2315442899e+02   4.7275866526e+01    0.5131834    0.3338501  84.23  0.001692131    2.398    0.583
        61  -9.0355     24.1060    112.6770   1.3408472547e+02   5.0337284136e+01    0.1806354    0.1470421  61.05  0.001184471    1.441    0.306
        62  -8.1586    158.7868    112.0194   9.6644995887e+01   2.8197207709e+01    0.2437568    0.2059893 -70.98 0.0005019777    1.275    0.215
        63  -9.2357    140.8011    111.7582   1.0090216461e+02   3.2365315881e+01    0.4351659    0.3119392  26.91  0.001901878    1.744    0.426
        64  -9.8105     30.5300    108.6964   1.3152416786e+02   5.0688229838e+01    0.3375987    0.2423344 -38.70  0.002056066    1.418    0.295
        65 -10.9233     44.6607    102.4865   1.2604292659e+02   5.0710332758e+01     0.792259    0.4602779  76.16  0.003209329    3.542    0.718
        66  -9.0943     39.9095    107.0856   1.2842836238e+02   5.0165380663e+01    0.1892523    0.1573053 -79.71 0.0005084387    1.236    0.191
        67 -10.1847    192.3319    247.7672   1.1706181365e+02  -5.2625338966e+00     0.335416    0.2573619 -52.02  0.002085154    1.670    0.401
        68 -10.4098     25.7115     78.2089   1.2677193725e+02   5.7709011814e+01    0.5576665    0.3873467  86.72   0.00175397    2.217    0.549
        69 -10.6935     20.8505    101.2960   1.3306991929e+02   5.3141655701e+01    0.9881845      0.49484  85.07  0.003506443    4.369    0.771
        70 -10.0856     20.1479     85.5647   1.3024874356e+02   5.6600875149e+01    0.9802323    0.1963389 -57.85  0.003553753    3.276    0.695
        71 -10.0719     34.4691     90.8343   1.2672710020e+02   5.4284571731e+01    0.5200572    0.2708945 -75.16  0.001637789    2.660    0.624
        72 -10.2965     37.4421     80.7195   1.2339142464e+02   5.6147629418e+01    0.7718385    0.3938002 -10.72  0.003104418    3.768    0.735
        73  -7.8983     78.0499    105.5811   1.1661425032e+02   4.5711409592e+01    0.3089687    0.1987656 -11.21  0.001294864    2.644    0.622
        74  -9.3824     81.5264     99.7460   1.1410935243e+02   4.6471375113e+01    0.7657598    0.2927542 -50.93  0.001904563    2.410    0.585
        75  -9.7333      6.0722    103.9706   1.3787813516e+02   5.3564531522e+01    0.4135397    0.2752684  74.97   0.00176563    1.843    0.457
        76  -9.5655    149.5882    103.3087   9.6508108541e+01   3.2157554723e+01    0.4201331    0.2943313 -59.75 0.0008613127    1.600    0.375
        77  -9.0874    149.5836     96.5751   9.4676869512e+01   3.3533825420e+01    0.4474393    0.3263386  38.98  0.002055466    1.461    0.316
        78  -8.5816     14.0135    105.0092   1.3573670144e+02   5.2818649438e+01    0.1860246    0.1438873 -59.20 0.0004494225    1.042    0.040
        79  -8.4443    165.9179    103.7877   9.2865117401e+01   2.8214393618e+01    0.2896712    0.2216897 -52.71 0.0005055874    1.323    0.244
        80 -10.7119     63.0306     94.6651   1.1851230688e+02   5.0258972039e+01     1.345809    0.4012157 -51.92  0.002516865    2.872    0.652
        81  -9.1050    159.0699    101.3149   9.3751213655e+01   3.0344361140e+01    0.3419734    0.2384071 -61.59 0.0007742799    1.650    0.394
        82  -7.4419    200.4058     97.8149   8.4319266749e+01   2.1070240835e+01    0.1983126    0.1460049 -28.17 0.0003269752    1.540    0.351
        83  -9.4488     94.2272     97.2920   1.0968090820e+02   4.4890649667e+01    0.3647673    0.3224569  83.89 0.0005961177    1.337    0.252
        84  -8.6702     95.7641     91.1509   1.0753845981e+02   4.5921401019e+01    0.4619888    0.2938425  -0.85  0.001788827    2.940    0.660
        85  -9.1845    243.0097     97.0014   7.7144387786e+01   1.1461512694e+01    0.2694416    0.1854054  30.65  0.001263323    2.163    0.538
        86  -7.7716    170.7904     95.9170   8.9708168246e+01   2.8606780323e+01    0.2066941    0.1252523 -39.19 0.0003841518    1.675    0.403
        87 -10.3194      4.2809     89.5679   1.3607707937e+02   5.6778511599e+01    0.6955603    0.3173113 -82.72  0.001858696    3.024    0.669
        88  -9.4525      6.2285     78.7310   1.3345497645e+02   5.8938672890e+01    0.6655192    0.2188797 -35.74  0.002834899    3.529    0.717
        89  -8.9105    164.6285     93.6643   9.0437324483e+01   3.0534928746e+01    0.5230659    0.2700837 -36.75  0.001322763    2.042    0.510
        90  -9.5310    138.7444     92.7304   9.6247006049e+01   3.6800447360e+01    0.4205763     0.396267 -58.26  0.001145545    1.070    0.066
        91  -9.1160    157.5180     90.6813   9.1206773203e+01   3.2821895714e+01    0.3579656    0.2290729 -25.03  0.001401868    1.990    0.497
        92  -9.3826    111.1079     89.7853   1.0272931654e+02   4.3302400189e+01    0.7208056    0.3803172  27.80  0.002662683    2.772    0.639
        93  -8.8588    150.6986     89.0014   9.2309097512e+01   3.4767227389e+01    0.3621865    0.2708868 -46.66  0.001269013    1.351    0.260
        94 -10.4410     48.1130     82.9824   1.2038212897e+02   5.4565300826e+01     1.080384    0.3745935 -51.84   0.00314104    2.391    0.582
        95 -10.5222     55.1891     71.0320   1.1472063952e+02   5.6150259974e+01    0.5485985    0.3668928  56.32  0.001261231    2.321    0.569
        96 -10.4986     60.5921     61.4282   1.0992965297e+02   5.7264727278e+01    0.9888474    0.3661723  25.31  0.001981637    4.165    0.760
        97 -10.0916     85.2262     86.6428   1.0944311186e+02   4.8669667180e+01    0.4411817    0.3419659 -82.42 0.0008748544    1.835    0.455
        98  -9.8414    139.3808    103.3595   9.9021296331e+01   3.4474341321e+01    0.7546288     0.339363 -47.59  0.001241769    2.255    0.557
        99  -7.3177    164.6748     83.6606   8.7682756107e+01   3.2422122104e+01    0.2229304    0.1653734 -18.89 0.0008190127    1.698    0.411
       100  -8.0924    163.4765     87.0301   8.8873480233e+01   3.2084309161e+01    0.2326224    0.1509488 -42.16 0.0004847284    1.550    0.355
       101 -10.2790    103.8642     82.4995   1.0267084999e+02   4.6178773978e+01    0.5379511    0.3021651 -53.45 0.0009934432    2.019    0.505
       102  -9.3420    105.4451     70.7580   9.8640295026e+01   4.8098729242e+01    0.8174252    0.4911826 -25.18  0.002568412    1.987    0.497
       103  -9.3577    109.7359     63.9025   9.5253801916e+01   4.8450718674e+01    0.3868974    0.2630265 -53.36 0.0009405204    1.761    0.432
       104  -8.8404    110.5836     58.2201   9.3181784603e+01   4.9226615439e+01    0.3688245    0.2713115   9.62 0.0008620271    1.646    0.392
       105  -9.5176     87.5529     78.7210   1.0642507778e+02   4.9876096891e+01    0.6548313    0.3531125  24.05  0.001808118    2.565    0.610
       106  -8.7749    170.0943     83.2750   8.6431724437e+01   3.1168881376e+01    0.2994716    0.1877565 -64.60  0.001184874    2.090    0.522
       107  -8.9899    157.5480     83.5755   8.9218600384e+01   3.4164163025e+01    0.3720654    0.2801629 -31.95  0.001273987    1.428    0.300
       108  -8.8151    156.9627     76.4771   8.7337811669e+01   3.5599970001e+01    0.3580875     0.238565 -67.24  0.001148332    1.996    0.499
       109  -8.5372    156.8706     70.8154   8.5734497147e+01   3.6613983365e+01    0.4252504    0.1843445 -46.55  0.001365362    2.500    0.600
       110  -9.7077    140.5514     82.2381   9.2802482122e+01   3.8427236685e+01    0.6689651    0.3436941 -32.29  0.001626285    2.234    0.552
       111  -9.0161    139.9385     75.3403   9.0930203709e+01   3.9840137596e+01    0.5145378    0.2807266 -33.02  0.001777038    2.001    0.500
       112  -8.9013    118.8867     80.5642   9.7883672476e+01   4.3532971864e+01    0.3257423    0.2535347 -76.71 0.0006508201    1.730    0.422
       113  -8.0517    119.8460     75.8880   9.6218346255e+01   4.4210297607e+01    0.2670296    0.2034213 -18.57 0.0007096973    1.502    0.334
       114  -8.6622    240.0189     81.2544   7.4009259794e+01   1.4805248474e+01     0.175428    0.1185596  64.03 0.0008837992    1.554    0.356
       115  -8.9054    149.7472     80.7617   9.0191953027e+01   3.6550962635e+01     0.442524    0.2618623 -37.03  0.001885416    1.751    0.429
       116  -7.7119    147.2838     77.6915   8.9877768661e+01   3.7696489170e+01    0.2621818    0.2090661  71.98 0.0004950487    1.377    0.274
       117  -9.1005     74.2185     79.2051   1.1077071983e+02   5.1919852657e+01    0.6241147    0.2361795 -46.82  0.001478505    2.420    0.587
       118  -7.8597     68.5420     79.4317   1.1267296365e+02   5.2705436314e+01    0.2617302    0.1053842 -39.90  0.001037712    2.461    0.594
       119  -8.5081    184.0647     77.8619   8.2200702646e+01   2.8695936708e+01    0.3430121    0.2084301 -38.78  0.001338318    1.668    0.400
       120  -8.8982    166.2902     78.4421   8.5890624107e+01   3.2976907293e+01    0.2694237    0.2054035 -37.95 0.0005382192    1.354    0.262
       121  -7.1732    174.3358     78.7040   8.4316106972e+01   3.0951390025e+01    0.1579532    0.1165867 -79.72 0.0004395423    1.649    0.393
       122  -8.7812    130.4360     64.2272   8.9894303733e+01   4.3945153081e+01    0.6503246     0.261283 -42.60  0.002408912    2.600    0.615
       123  -9.4235    127.3564     75.2116   9.4034712617e+01   4.2708880736e+01    0.4278693    0.2834744 -57.21 0.0008295466    1.836    0.455
       124  -8.5235    128.0175     70.2137   9.2346540798e+01   4.3458633202e+01    0.3581151    0.2356729   2.73  0.001440144    2.544    0.607
       125  -9.9728    183.7275    246.8024   1.1854470520e+02  -3.6658266485e+00    0.3377335    0.2001287 -39.84  0.001842002    2.005    0.501
       126  -9.8542     15.7233     70.8580   1.2852298995e+02   5.9950550728e+01    0.5391693    0.1998543 -52.69  0.001271413    1.962    0.490
       127  -8.8611    158.5168    246.9769   1.2339360244e+02   6.3772954421e-01    0.1651624    0.1094676 -19.90 0.0008104161    2.603    0.616
       128  -9.8682     16.7211     61.8450   1.2596754602e+02   6.1657184652e+01     0.619881    0.2824406 -51.06  0.003432486    1.670    0.401
       129  -9.9844    202.9884    246.4359   1.1485180488e+02  -6.8371399096e+00    0.3474979    0.1607942  44.55  0.001254844    1.967    0.492
       130  -9.0501    166.9961    245.2125   1.2151187900e+02  -5.4140315232e-01    0.1715156    0.1390952  87.83 0.0007042489    1.613    0.380
       131  -7.7591    113.2217    245.5435   1.3187946632e+02   8.5854169309e+00    0.1645579    0.1091347  37.18 0.0005545621    1.564    0.361
       132 -10.1321     13.3592     45.4202   1.2273752220e+02   6.4936626894e+01    0.6319547    0.3051269 -14.11  0.003237558    2.671    0.626
       133  -7.5817     38.2695    238.3645   1.4485493218e+02   2.0869507739e+01     0.100957   0.08096128 -63.58 0.0006996116    1.656    0.396
       134  -9.2604      6.8764     32.5140   1.2142790764e+02   6.7581902042e+01    0.2022597    0.1470799   1.70 0.0006674864    1.405    0.288
       135 -10.0219      7.1746     28.4623   1.1994606690e+02   6.8223330389e+01    0.2696695     0.249538 -19.56  0.001077846    1.399    0.285
       136  -9.0334    115.1775     71.9619   9.6283062711e+01   4.5910736031e+01    0.5242893    0.2413664 -34.67 0.0009011352    2.331    0.571
       137  -9.7968     81.5432     72.3986   1.0639482208e+02   5.2100656065e+01    0.3787591    0.2849329 -66.80 0.0009400367    1.802    0.445
       138  -9.0500     83.4951     64.5505   1.0330652154e+02   5.3227973168e+01    0.5221701    0.3267522   5.04  0.002313369    2.439    0.590
       139  -8.4396    162.7038     72.7135   8.5034051826e+01   3.4864458036e+01    0.2885039    0.1899905 -48.60 0.0006942038    1.582    0.368
       140  -8.1998    169.4509     71.0679   8.3187217037e+01   3.3487912181e+01    0.2254851    0.1459743 -41.03 0.0004297983    1.571    0.363
       141  -9.5462    146.9552     68.3234   8.7205746874e+01   3.9422822322e+01    0.6551812    0.3119954 -36.36  0.001633393    2.187    0.543
       142  -9.6701     94.7778     68.3363   1.0102065080e+02   5.0563605046e+01    0.4021397    0.2448569 -50.88 0.0009216471    1.849    0.459
       143  -9.3500     96.9238     58.9126   9.7326155317e+01   5.1808478512e+01    0.6993821    0.3947801  -8.88  0.002576629    3.443    0.710
       144  -7.9320     23.0903     69.3040   1.2554172501e+02   5.9722529157e+01    0.1550069    0.1321181 -32.67 0.0003046565    1.102    0.093
       145 -10.0007    240.2199     64.1663   7.0134415676e+01   1.7532218524e+01    0.2813038    0.2501168 -55.07 0.0002737564    1.131    0.116
       146  -9.4391    244.1787     60.1295   6.8755806966e+01   1.7274578768e+01    0.2781451    0.2244861  37.91   0.00107654    1.719    0.418
       147  -9.0990    137.9646     65.4792   8.8446337234e+01   4.2014026673e+01    0.4917443    0.2289278 -37.34  0.001299335    2.212    0.548
       148  -9.2578    138.8619     56.0288   8.5340744396e+01   4.3330624557e+01    0.7186632    0.2354511 -38.21  0.001624908    3.090    0.676
       149  -9.3836    142.0098     48.6850   8.2366732705e+01   4.3689839560e+01    0.5702584    0.2772891 -26.31  0.002191625    2.475    0.596
       150  -9.5323    130.0686     47.1305   8.4590575213e+01   4.6686315072e+01    0.7139735    0.2983859 -24.64  0.001248022    3.230    0.690
       151 -10.5821    133.9148     31.0622   7.8564015534e+01   4.7916783303e+01    0.3488573    0.2582916  10.48  0.001861288    1.645    0.392
       152 -10.5403    137.2256     38.7040   8.0288721163e+01   4.6188513991e+01    0.4570005      0.33493  83.81 0.0005028874    1.690    0.408
       153  -8.7128    132.7470     35.9856   8.0398515371e+01   4.7578589831e+01    0.3137789    0.1836522 -28.18 0.0005262351    1.875    0.467
       154  -8.9295    121.1528     65.9796   9.2815001127e+01   4.5698379232e+01    0.3513546    0.2500701 -59.03 0.0007531865    1.765    0.433
       155  -8.3913    122.0549     61.0121   9.1013413031e+01   4.6337434197e+01    0.3129763    0.2252813  27.00  0.001113059    1.553    0.356
       156  -8.3956    170.5070     65.9087   8.1538278171e+01   3.4090731813e+01    0.2280998    0.1483033 -36.07  0.001039084    1.611    0.379
       157  -8.6533    157.7718     63.2536   8.3355406416e+01   3.7658840510e+01     0.249499    0.1937311 -54.34 0.0009270504    1.375    0.273
       158  -8.6240    164.4541     61.0942   8.1370894120e+01   3.6366656057e+01     0.273622     0.149918 -30.96  0.001141672    2.041    0.510
       159  -8.5506     49.4788     62.0847   1.1405302286e+02   5.8546837791e+01    0.1854833    0.1092659 -46.21 0.0005584649    1.513    0.339
       160  -9.4053    188.0828    233.8478   1.1568000909e+02  -2.3862634917e+00    0.2080704    0.1915221 -37.47 0.0008011758    1.254    0.203
       161  -8.6373     87.3184     58.2865   1.0004980377e+02   5.3662879063e+01    0.3104387    0.2133463 -44.07  0.001112396    1.515    0.340
       162 -10.3957     85.0796     48.0418   9.7256574188e+01   5.5716123120e+01    0.5384692    0.3991919 -74.40 0.0008827042    2.552    0.608
       163 -10.4146     89.4402     38.2378   9.2421095314e+01   5.6365982789e+01    0.8669133    0.3131839  36.19  0.003251688    3.185    0.686
       164  -7.9639    152.5277     60.5751   8.3680944328e+01   3.9364056085e+01     0.146391    0.1377262  67.75 0.0001229658    1.024    0.023
       165  -8.6599      9.4681     60.1585   1.2822840896e+02   6.2458728140e+01    0.1806365    0.1485659 -16.91 0.0007950033    1.256    0.204
       166  -9.4592    146.8816     56.8457   8.3790291163e+01   4.1308439034e+01    0.6993328     0.273239 -27.54  0.002336408    3.442    0.709
       167  -8.9938    129.8368     56.3911   8.7592256383e+01   4.5350152786e+01    0.5909293    0.2156912 -41.10   0.00151676    2.862    0.651
       168  -9.4342    118.3307     54.7667   8.9977061681e+01   4.8145607452e+01    0.4945913    0.3127133 -40.69  0.001354609    1.660    0.398
       169  -9.1118    121.0063     46.6237   8.6628778638e+01   4.8785258015e+01    0.3685281    0.2020036 -31.09 0.0006025964    1.936    0.484
       170  -8.5252    123.2060     40.3843   8.4031285696e+01   4.9166398544e+01    0.4527883    0.2561777  13.69  0.001723291    3.256    0.693
       171  -9.1353     52.8976     39.3050   1.0515108343e+02   6.2011295577e+01    0.4761373    0.2172845 -29.80  0.002246989    2.222    0.550
       172  -9.9843     49.9387     54.4973   1.1149341533e+02   5.9868416106e+01    0.3833735    0.2889625 -63.16   0.00129558    1.839    0.456
       173  -9.8533     55.6258     44.0039   1.0584105654e+02   6.0912258620e+01    0.8274693    0.4244034  -3.82  0.002994108    4.535    0.780
       174  -9.7735    162.8924     52.9579   7.9344051316e+01   3.8007447361e+01     0.531449    0.2884398 -26.18  0.002121756    2.237    0.553
       175  -9.3427     44.4002     52.8236   1.1298992169e+02   6.0810507836e+01     0.303957    0.1782501 -29.05  0.001070562    1.608    0.378
       176  -7.7350    248.6445     53.7181   6.6847664103e+01   1.7258860708e+01    0.1218705    0.1032069  37.62 0.0007016222    1.662    0.398
       177  -8.3827    241.6243     52.1934   6.7311415431e+01   1.9043579994e+01    0.1814658    0.1250075 -29.47 0.0009468875    1.728    0.421
       178  -7.6626    182.1752     48.8254   7.4729492883e+01   3.3824864371e+01    0.1797594    0.1626242  36.69  0.001008231    1.267    0.211
       179  -8.6763    157.1949     48.1771   7.9063638461e+01   4.0106023050e+01    0.2771781     0.188157 -54.63  0.001258378    1.671    0.402
       180  -8.8701     40.0124     35.0000   1.0850496554e+02   6.4250982467e+01    0.3762734    0.1662238  31.30  0.001874313    2.364    0.577
       181 -10.2455     37.4999     41.9857   1.1199314484e+02   6.3413954642e+01    0.6483579    0.3708779 -62.17  0.003042677    3.368    0.703
       182 -10.3185     35.8534     37.9987   1.1124241089e+02   6.4235654558e+01    0.4110869    0.2155649 -33.72 0.0004100232    1.641    0.391
       183  -9.5143    149.8495     47.1023   8.0220473223e+01   4.2043552506e+01    0.4437707     0.215333 -29.30  0.001567391    2.331    0.571
       184  -9.1136    153.3947     40.9664   7.7670274777e+01   4.2031445832e+01    0.3808975    0.2297233 -51.63   0.00114941    1.935    0.483
       185  -8.7296    111.7760     46.7885   8.9068384703e+01   5.0742704155e+01    0.2405495    0.2252194 -58.52 0.0005450642    1.254    0.203
       186  -8.5851    113.2530     42.1827   8.7124565995e+01   5.1085072996e+01    0.4939679    0.2669847  -2.18  0.001738805    3.916    0.745
       187  -9.2284    105.4736     51.8244   9.2486767495e+01   5.1282386290e+01    0.5534071    0.2575845 -31.11  0.001565653    2.305    0.566
       188  -8.1698    224.1805     45.6265   6.7907146561e+01   2.4021089415e+01    0.1960205    0.1141366  57.84 0.0005875057    1.747    0.428
       189 -10.0624     69.4900     40.8350   9.9792820032e+01   5.9395601248e+01    0.7453135    0.3627115 -36.45  0.002391799    1.975    0.494
       190  -9.4016    144.2537     36.6189   7.8166050035e+01   4.4799353240e+01    0.3240607    0.2236876 -62.91 0.0005675994    1.852    0.460
       191  -9.5220    105.1711     39.4665   8.8342774182e+01   5.3138813281e+01    0.6060891    0.3048788 -23.89  0.002138399    2.297    0.565
       192  -8.6734     23.5241    231.9688   1.4693185042e+02   2.3866620200e+01    0.1898008     0.141154 -75.08  0.000558948    1.420    0.296
       193  -8.2876    111.3922     21.3406   8.0389130667e+01   5.4037969860e+01    0.3378536    0.1839405 -16.51   0.00164141    2.184    0.542
       194  -7.6526     43.7078    209.9750   1.4152187798e+02   2.6032360224e+01    0.1711388    0.1281448 -86.62 0.0004755018    1.124    0.110
       195 -10.1335    169.2644    208.1005   1.1513014792e+02   5.5874348078e+00    0.2397463     0.226184  51.80 0.0002074924    1.048    0.045
       196 -10.2007     10.2669    207.2891   1.4757568857e+02   3.0303894459e+01    0.4475504    0.3103295  29.20  0.002744679    2.050    0.512
       197  -9.0658    192.4042    195.0381   1.0793771526e+02   3.5810299875e+00     0.735092    0.3736932 -64.77  0.002187032    5.223    0.809
       198  -7.8544    159.6734     39.2339   7.5971493485e+01   4.0729013876e+01    0.1840254    0.1344498 -18.98 0.0008841766    1.647    0.393
       199  -8.7457    118.8381     34.7373   8.3201865873e+01   5.0865550945e+01    0.3040572    0.1821533 -29.01 0.0009002658    1.788    0.441
       200  -9.4925    100.8933     32.6922   8.7123038230e+01   5.4891012240e+01    0.5069186    0.2818438 -31.81  0.001815597    1.875    0.467
       201  -7.6196    169.8554    193.3913   1.1233734155e+02   8.3434563655e+00    0.2086225    0.1313951  33.80 0.0009408828    1.665    0.399
       202  -9.8122    101.0018    175.9956   1.2476371032e+02   2.5318960417e+01    0.2047394    0.1828354  83.90            0    1.006    0.006
       203  -8.2223    153.4927     35.0540   7.5887454738e+01   4.2775742002e+01    0.2189419    0.1837971 -85.95 0.0008791353    1.280    0.219
       204  -7.5740     45.2721    168.6586   1.3674118086e+02   3.5163046701e+01    0.1341988   0.08475589  79.18 0.0003235559    1.611    0.379
       205  -9.2116    116.1101    152.2228   1.1666609902e+02   2.8195078596e+01    0.2413537    0.2209748 -52.48 0.0002840246    1.133    0.118
       206  -9.1123     84.7207     21.9037   8.7747619948e+01   5.9291409053e+01    0.2609621     0.206612   6.17 0.0008066282    1.181    0.153
       207  -7.6097    134.3364    149.1512   1.1149991373e+02   2.5298493916e+01    0.3754785     0.198533 -66.53  0.001182293    2.693    0.629
       208  -9.4314     60.1462     33.8571   1.0046663898e+02   6.1818510498e+01    0.2971591    0.2346888 -42.74   0.00109752    1.528    0.346
       209  -9.2664     62.4883     27.1046   9.7019157932e+01   6.2394740658e+01    0.5403637    0.2416328  24.74  0.002360175    2.934    0.659
       210  -8.1762    133.3996    144.2010   1.1063702898e+02   2.6638165726e+01     0.378683    0.1476398 -54.70  0.001232803    2.791    0.642
       211  -9.6206     67.0318    144.4698   1.2779239956e+02   3.8158535509e+01    0.4824975     0.310686  69.50  0.002327867    1.892    0.471
       212  -8.3035    181.8231    145.0602   9.9590668470e+01   1.5868465981e+01    0.2199218    0.2149907 -40.40 0.0003779823    1.037    0.035
       213 -10.1098     46.2015     29.6518   1.0405520830e+02   6.4304971170e+01    0.4028756    0.2268492 -46.81  0.001509978    2.180    0.541
       214  -8.4304     42.1906     27.8993   1.0494324469e+02   6.5048230988e+01    0.1989324    0.1374509 -17.37  0.001296801    1.245    0.197
       215  -7.8492     50.2786     35.2816   1.0464238387e+02   6.2962984570e+01    0.1188654   0.07937161  -7.17            0    1.508    0.337
       216  -9.5061    152.1157     29.0408   7.4346295945e+01   4.3842903515e+01    0.3391151    0.2355913 -15.97  0.001094225    1.767    0.434
       217  -7.4964    149.7263     25.3756   7.3681122881e+01   4.4842002722e+01    0.2047188    0.1590753 -55.48 0.0004712334    1.455    0.313
       218 -10.3131    227.8796    138.6833   8.9054257792e+01   7.0874902883e+00    0.2681383    0.2641527 -51.52 0.0004121525    1.058    0.055
       219  -8.9635    113.3898    135.8312   1.1384665986e+02   3.2590413097e+01    0.5132555    0.3037765 -77.79 0.0008488373    2.751    0.637
       220  -9.2312    134.5018    131.9701   1.0753932060e+02   2.9225113051e+01    0.5645146    0.3881204  53.17  0.002524004    1.503    0.335
       221  -9.6561     98.9243    129.0320   1.1617075837e+02   3.6855984616e+01      0.69554    0.3925905  66.94  0.002528407    2.987    0.665
       222 -10.2901     70.2881    126.1810   1.2346519002e+02   4.2075557067e+01    0.6126865    0.5670087 -21.46  0.001929601    1.243    0.196
       223  -9.0104     91.4059     26.2691   8.7443219620e+01   5.7532696565e+01    0.2778395    0.2176078 -52.07 0.0009199529    1.743    0.426
       224  -8.7933     91.9876     21.0624   8.5328500854e+01   5.8016437608e+01    0.3444854    0.2090028  22.74  0.001405752    1.782    0.439
       225  -8.6846    143.9878     25.7766   7.4871022475e+01   4.6167735748e+01    0.2524042    0.1715028 -28.43  0.001340195    1.642    0.391
       226  -8.5813    128.3476     25.7518   7.8031183827e+01   4.9812103584e+01    0.2301057    0.1951973 -80.12 0.0006191187    1.426    0.299
       227 -10.0695     58.2112    124.6192   1.2654202032e+02   4.4048899236e+01    0.6208197    0.3672321  83.47  0.002465556    2.724    0.633
       228  -8.2781    140.3713     23.1329   7.4742402040e+01   4.7316633611e+01    0.1816151    0.1183809 -41.75 0.0006050569    1.724    0.420
       229  -8.1826    130.1317     21.5989   7.6296291958e+01   4.9859881057e+01    0.2663051    0.1084422  53.18  0.001141565    2.056    0.514
       230 -10.4903    131.8690    120.1243   1.0530793207e+02   3.2469904567e+01    0.8919223    0.5876286  74.65   0.00352438    2.266    0.559
       231 -10.6291    133.6006    109.7341   1.0218833758e+02   3.4390414434e+01     1.785133    0.5008246 -51.43  0.004603997    4.547    0.780
       232  -9.6519    117.3921    125.6581   1.1043673425e+02   3.4186487482e+01    0.6491766    0.4475462 -79.54  0.002387526    1.978    0.494
       233  -9.9053    108.5813    114.7987   1.1015101103e+02   3.8384623916e+01    0.7836057    0.5173229  84.05  0.001589421    2.619    0.618
       234 -10.6114    123.9976     89.7999   9.9212110198e+01   4.0638338906e+01      1.51717    0.6067784 -33.98  0.004884354    3.238    0.691
       235  -7.5866    155.3091     17.6624   7.0423634426e+01   4.4333489884e+01    0.1360024   0.09592513 -71.17 0.0006511719    1.682    0.406
       236  -7.7622    139.4889     17.5375   7.3159334300e+01   4.8113738094e+01    0.1317708    0.1169111  66.02 2.890483e-05    1.067    0.063
       237 -10.7725    121.2789    112.1722   1.0604455040e+02   3.6461990331e+01     1.111487    0.6199579 -54.59  0.002650572    1.884    0.469
       238 -10.2652    127.7802    102.4224   1.0173794005e+02   3.7218046729e+01    0.6236991    0.5504081   6.84  0.001873588    1.307    0.235
       239  -8.7665    110.3935    106.9087   1.0762869033e+02   3.9801766205e+01    0.8311204    0.3816972  29.95  0.002752546    3.335    0.700
       240 -10.3629    108.2784     99.7830   1.0631590049e+02   4.1762913888e+01     1.108029     0.626397  61.62  0.003304289    2.652    0.623
       241  -7.9200    160.0000    126.9868   1.0015603543e+02   2.4706194545e+01    0.2668309   0.08965019 -44.45 0.0008048904    2.959    0.662
       242  -9.4948     41.2524    121.9228   1.3080996927e+02   4.6620789637e+01    0.5141098    0.2368778 -78.05  0.001665471    2.894    0.654
       243  -9.4993     27.2392    123.0025   1.3487522106e+02   4.7712657972e+01    0.4682527    0.2582772  75.81  0.001764816    2.641    0.621
       244  -8.2652    157.9848    122.0392   9.9393459521e+01   2.6241818779e+01    0.2571858    0.1953504 -85.50  0.001124333    1.687    0.407
       245  -7.8096    151.3688    122.2958   1.0102316629e+02   2.7693809352e+01    0.1613586    0.1277382   8.65 0.0003077652    1.727    0.421
       246  -9.0685    246.0957    120.0833   8.1844267157e+01   6.7345339842e+00    0.2178501    0.1990258 -47.35 0.0002872154    1.020    0.019
       247  -9.9472    140.7699    118.4243   1.0263115289e+02   3.0915916754e+01    0.5552605    0.3806326 -84.61  0.001128627    2.241    0.554
       248  -8.0050    231.7943    119.6196   8.4046696481e+01   9.8143580076e+00    0.2898434    0.1720292 -61.29  0.001209653    2.130    0.530
       249  -7.5018    100.4937    118.4968   1.1329324010e+02   3.9035685472e+01    0.1485074    0.1402043 -51.16 1.416495e-05    1.035    0.033
       250  -7.1569    179.2630    117.6931   9.3540525600e+01   2.2195648853e+01    0.1560834    0.1212424 -75.67 0.0001509272    1.527    0.345
       251 -10.0702     91.7356    112.9188   1.1441056617e+02   4.1846685155e+01     0.615087    0.4059976 -78.81  0.001710068    2.174    0.540
       252  -8.5903     92.0159    103.9735   1.1209034985e+02   4.3813349904e+01    0.6611104    0.4008391  14.95  0.002625888    2.756    0.637
       253  -7.9750    164.2485    116.3834   9.6515891587e+01   2.6000206476e+01    0.2264017    0.1489162  61.55 0.0009410942    1.685    0.407
       254  -9.0248    152.8117    115.5052   9.8950893660e+01   2.8838521584e+01    0.2990539    0.2160855 -46.88 0.0006014168    1.374    0.272
       255  -9.9941     14.6931    111.9032   1.3663626647e+02   5.1235369460e+01    0.4848374    0.2646494  76.78  0.002368739    2.694    0.629
