#   1 NUMBER                 Running object number                                     
#   2 MAG_AUTO               Kron-like elliptical aperture magnitude                    [mag]
#   3 X_IMAGE                Object position along x                                    [pixel]
#   4 Y_IMAGE                Object position along y                                    [pixel]
#   5 X_WORLD                Barycenter position along world x axis                     [deg]
#   6 Y_WORLD                Barycenter position along world y axis                     [deg]
#   7 A_WORLD                Profile RMS along major axis (world units)                 [deg]
#   8 B_WORLD                Profile RMS along minor axis (world units)                 [deg]
#   9 THETA_WORLD            Position angle (CCW/world-x)                               [deg]
#  10 FWHM_WORLD             FWHM assuming a gaussian core                              [deg]
#  11 ELONGATION             A_IMAGE/B_IMAGE                                           
#  12 ELLIPTICITY            1 - B_IMAGE/A_IMAGE                                       
         1 -14.0387    248.2111    104.8561   4.3074456805e+01   1.1900963297e+01     2.537564    0.7692142 -32.54  0.008924333    3.857    0.741
         2 -14.6110    247.3801    149.8633   5.2101026775e+01   4.9360363828e+00     3.252571     1.129312 -39.27     0.014245    2.324    0.570
         3 -10.3924     54.0439     52.0710   7.2988512035e+01   6.1173018267e+01    0.6832037    0.2193544 -50.72  0.002187151    4.226    0.763
         4 -10.2271     27.3126     31.5761   7.7617702891e+01   6.8591886431e+01    0.7853501    0.1561877 -39.22  0.002346962    5.408    0.815
         5  -9.9188     12.5858     29.3578   8.5222205592e+01   7.0557966506e+01     0.366307    0.1141119 -53.17  0.001465838    3.351    0.702
         6 -10.0213     40.8010     14.1764   6.2120526600e+01   6.9195022813e+01    0.2179888    0.1560269  14.42   0.00132369    1.267    0.211
         7  -9.6431    116.5226    227.5056   9.2441060234e+01   1.0791563285e+01    0.1339317    0.1175549  29.69 9.591128e-05    1.016    0.016
         8 -12.2132    159.5744    240.2762   8.4744453827e+01   2.3924613052e+00     0.627219    0.2400007 -38.57  0.002695354    2.962    0.662
         9 -11.1434    154.7575    240.2130   8.5752038517e+01   3.0627172619e+00    0.3528114    0.1576761 -55.40  0.001537677    3.193    0.687
        10 -11.8172    167.0745    242.4902   8.3506663676e+01   1.0178124344e+00    0.2784153    0.2006802  31.18  0.001702866    1.289    0.224
        11 -12.3184    166.1342    248.6255   8.4586410763e+01   1.7051623712e-01    0.4394776    0.3060484  10.08  0.002680566    1.296    0.228
        12  -8.8462     13.7356    250.6924   1.1704930692e+02   1.8671495244e+01   0.09453481   0.08431578 -51.46 0.0002184599    1.531    0.347
        13 -10.6789     88.3086    227.0915   9.8944833338e+01   1.4827771680e+01    0.2654237    0.2103001 -12.92   0.00130438    1.598    0.374
        14  -9.5070     88.6194    222.7790   9.8368439704e+01   1.5685435454e+01    0.1948048    0.1340339 -63.83 0.0008122653    1.614    0.380
        15  -9.9711    191.9740    226.0291   7.5894090608e+01   3.1582078190e-01     0.201305    0.1569019  -0.53 0.0007084234    1.080    0.074
        16  -9.9552    171.1144    225.7047   8.0091856638e+01   3.2416023365e+00    0.1858933    0.1716607 -16.83 0.0003083059    1.229    0.186
        17 -10.7815     99.1073    225.4095   9.6216400339e+01   1.3685506732e+01    0.3558232    0.2334872  28.29  0.001407098    1.405    0.288
        18 -10.3533    123.4537    224.7594   9.0469373230e+01   1.0326225506e+01    0.2680671    0.1740036 -63.20  0.001026471    1.937    0.484
        19 -10.9274    125.9934    220.6668   8.9298823158e+01   1.0757024165e+01      0.28495    0.2571021  52.64 0.0006831384    1.226    0.184
        20  -9.7813     61.7981    224.2488   1.0484753150e+02   1.8868316168e+01    0.2414902    0.1400806  35.98  0.001129862    1.514    0.339
        21  -9.3770     75.7788    219.6562   1.0106771137e+02   1.8079165294e+01    0.1977837    0.1040981  39.52 0.0007561712    1.657    0.396
        22  -9.5455    185.5938    213.3192   7.5038401720e+01   3.2983393923e+00    0.2310755    0.1216257 -44.43  0.001122122    2.004    0.501
        23  -9.0362    131.4518    214.5030   8.7110729482e+01   1.1163664107e+01    0.1381024    0.1229462  13.10 0.0002684445    1.040    0.039
        24  -9.3704      9.0331    248.2670   1.1786500774e+02   1.9586456946e+01    0.1585527    0.1195711  53.96 0.0007683261    1.061    0.058
        25 -12.8549    248.9651    127.7006   4.7536206193e+01   8.2137636035e+00     1.904788    0.3019444 -39.52  0.005705733    4.894    0.796
        26 -14.0461    249.1603    185.8017   5.8593708717e+01  -8.7827191106e-01     2.965972    0.6124868 -38.20   0.01046878    3.995    0.750
        27 -11.0013    176.4052    246.7798   8.2236638871e+01  -8.8154347981e-01    0.2228725    0.1763961 -29.86  0.001470104    1.357    0.263
        28 -10.4481     44.8338    194.0928   1.0603590721e+02   2.7777854625e+01    0.3361958    0.1549892  40.43  0.001510295    1.964    0.491
        29 -10.8358    225.2642    192.0100   6.3675230679e+01   1.2736826961e+00    0.1866772    0.1372601 -24.85 0.0009806398    1.136    0.119
        30 -10.8625     89.0945    189.7162   9.3863060043e+01   2.3024886920e+01     0.414317    0.1978017  26.67  0.001651334    2.223    0.550
        31 -11.3801     97.9713    187.9103   9.1251882189e+01   2.2111531032e+01    0.7098665    0.2473801  32.81  0.002437368    2.723    0.633
        32 -10.9860     92.4303    182.9662   9.1942140048e+01   2.4130510491e+01    0.3956699    0.2375296 -52.22  0.001204826    1.699    0.411
        33 -11.3228     56.2130    187.6944   1.0234446647e+02   2.7987268277e+01    0.4149274    0.1825286  47.02  0.001698992    2.258    0.557
        34 -10.0041     35.3017    187.9351   1.0790289194e+02   3.0310885903e+01    0.3200291    0.1577044  54.04  0.001438785    2.060    0.514
        35 -12.1761    230.2780    185.1636   6.1542620659e+01   1.6866782269e+00    0.4038181    0.2904246 -30.09  0.002487854    1.178    0.151
        36  -9.9720    110.8827    185.8389   8.7547577178e+01   2.0559038194e+01    0.3581856    0.2532159 -53.33  0.001339696    1.469    0.319
        37 -10.2997     67.2851    185.5708   9.9104335111e+01   2.7090571853e+01     0.277536    0.1220194  35.51  0.001129451    2.101    0.524
        38 -10.6276     45.5260    182.8790   1.0466049252e+02   3.0440331402e+01     0.287561    0.1820183  40.93  0.001452637    1.507    0.337
        39  -9.3058     27.4686    182.9557   1.0949490671e+02   3.2323495288e+01     0.201053   0.09479558  75.06 0.0008097012    2.600    0.615
        40  -9.3487    211.8361    182.2006   6.4236444695e+01   4.8050401420e+00    0.1863129    0.1355748 -11.84 0.0008496645    1.325    0.245
        41 -11.4456     61.3710    177.5910   9.9662057889e+01   2.9839189641e+01    0.4368593    0.2074495  41.26  0.001837118    2.010    0.502
        42  -9.1113    205.2070    176.7215   6.4407726127e+01   6.7657469330e+00    0.2122208   0.09086128 -32.75 0.0006576602    2.353    0.575
        43 -11.3956     80.0866    177.0392   9.4381513094e+01   2.7410101357e+01    0.5163333    0.1616538  39.59  0.001733513    2.935    0.659
        44  -9.3120     13.5237    177.0483   1.1267326372e+02   3.5037172689e+01    0.2014291   0.08794832  74.07 0.0008095706    2.677    0.626
        45 -10.5492     75.8653    184.8172   9.6683704996e+01   2.6105065166e+01    0.3441282    0.1714882  39.55  0.001464201    1.882    0.469
        46 -10.2495     45.1317    172.2464   1.0353444485e+02   3.3154786692e+01    0.2766196    0.1710124  48.88  0.001200316    1.613    0.380
        47 -10.7635     69.8645    171.1232   9.6351357945e+01   3.0333441217e+01    0.2332697    0.1924676  64.25 0.0009623916    1.250    0.200
        48 -11.5413     56.3018    169.9058   1.0005295345e+02   3.2422208648e+01    0.4302202    0.2820053  43.90  0.001598462    1.504    0.335
        49 -10.2557     75.7057    168.9659   9.4351901052e+01   3.0055373549e+01    0.2092267    0.1941242 -77.37 0.0007171204    1.071    0.066
        50 -10.2766    101.9518    167.1474   8.6643899607e+01   2.6440739517e+01    0.6770875    0.1559274  39.17   0.00189368    3.952    0.747
        51 -11.7999     81.1647    164.7589   9.2094695708e+01   3.0313938269e+01    0.6354516    0.3398966  55.92  0.002449608    2.398    0.583
        52  -9.0621    185.5924    203.1900   7.3260605626e+01   5.0591566813e+00    0.1966893    0.1131344 -30.43 0.0009605215    1.729    0.422
        53 -10.2441     48.1404    164.5474   1.0169375423e+02   3.4778212711e+01    0.2939357    0.2070878  66.40  0.001464845    1.525    0.344
        54 -10.1837     38.2885    164.6970   1.0458332126e+02   3.5833549491e+01    0.2537116    0.1978473  62.77 0.0007907947    1.280    0.219
        55  -8.9429    213.4912    162.4831   6.0057408893e+01   7.9729033400e+00    0.1371753     0.113726 -18.27 0.0001105011    1.071    0.066
        56 -10.5549     95.0982    161.1721   8.7460837887e+01   2.9030863582e+01    0.5140929    0.2322545  37.64  0.001949832    2.143    0.533
        57 -11.4795     63.5382    161.5970   9.6734731298e+01   3.3616897352e+01    0.3622482    0.2325187  49.74  0.001677346    1.628    0.386
        58 -11.2163     70.5010    163.6492   9.5009028262e+01   3.2140590933e+01    0.3258209     0.234877  58.87  0.001078636    1.512    0.339
        59  -9.0429    205.5749    159.5262   6.0887783823e+01   9.7849210982e+00    0.1385762    0.1177617 -21.04 0.0001480092    1.037    0.036
        60 -10.5209    109.2267    159.2198   8.3117395713e+01   2.7129488823e+01    0.7673245    0.1719665  38.56  0.002078781    4.122    0.757
        61  -9.1810     23.3195    159.6352   1.0836789130e+02   3.8591503220e+01    0.1493623   0.08965172  64.59 0.0007039897    1.779    0.438
        62 -12.2354     82.7975    155.2287   8.9937806636e+01   3.2475648558e+01    0.8832288    0.3188952  39.22  0.002541499    2.674    0.626
        63 -12.4818     70.3069    154.0975   9.3482473863e+01   3.4617106595e+01    0.7579988     0.336124  32.94  0.002926133    2.226    0.551
        64 -11.7333     50.7469    155.7379   9.9688547830e+01   3.6750995323e+01    0.5886983    0.2684557  51.05  0.002203942    2.580    0.612
        65  -9.5420    121.5176    156.5264   7.9224885179e+01   2.5588583366e+01    0.2883039    0.1340241  46.83  0.001036577    2.378    0.580
        66  -9.5749     50.0096    202.5205   1.0557003011e+02   2.5179281231e+01    0.2058146     0.122718  32.32 0.0009496261    1.600    0.375
        67 -10.3144    100.2223    151.6817   8.4148969923e+01   3.0524137027e+01    0.3564739    0.2063864  39.75  0.001489782    1.716    0.417
        68 -10.9336     92.3409    152.1053   8.6527126871e+01   3.1741596248e+01    0.3920127    0.2081415  36.76  0.001469346    1.859    0.462
        69  -9.8636     29.2764    150.1620   1.0550619869e+02   4.0500458004e+01    0.3856554    0.1749493  75.10  0.001321211    3.532    0.717
        70 -12.1228     57.2861    146.3200   9.6187510283e+01   3.8397434107e+01    0.7223291    0.4146266  63.33  0.002753532    2.360    0.576
        71 -11.0265     40.2263    147.9183   1.0180801020e+02   3.9986614856e+01    0.5315093    0.2710932  56.57  0.002154516    2.413    0.586
        72 -10.7902    234.0261    146.7032   5.3468984537e+01   7.4406336471e+00    0.3009734    0.1598034 -38.46  0.001013337    1.569    0.363
        73 -10.3348     58.3560    206.2695   1.0387086638e+02   2.3303878117e+01    0.3571036    0.1107254  40.70  0.001346021    2.723    0.633
        74 -11.3032    110.8210    146.8974   8.0125862079e+01   2.9825734425e+01    0.9452796    0.3636553  45.74  0.003089922    2.879    0.653
        75 -11.5391     79.2147    147.3852   8.9550361543e+01   3.5026269481e+01    0.3341007    0.2633735  48.61  0.001266474    1.318    0.241
        76  -9.1256     13.4039    146.2072   1.0992598062e+02   4.2865032295e+01    0.1971799    0.1138945  89.27 0.0008137189    1.720    0.418
        77 -12.2222     90.0924    144.5195   8.5676650467e+01   3.4018045473e+01    0.6566904    0.2834293  37.39  0.002400939    2.281    0.562
        78  -9.6458    126.7678    144.5875   7.5243935034e+01   2.7404000111e+01    0.2267681    0.1431647  49.46 0.0009421599    1.735    0.424
        79 -12.3762     71.1599    140.9509   9.0827915682e+01   3.7888619825e+01    0.6648769    0.3717551  58.52  0.002543058    2.466    0.594
        80 -10.4626     90.5386    199.7565   9.4933439570e+01   2.0477526197e+01    0.4648137    0.1968369  28.38  0.001688729    2.397    0.583
        81 -11.7783     82.2812    140.0520   8.7153968887e+01   3.6418714120e+01    0.4007021    0.2493877  42.91  0.001508199    1.654    0.395
        82 -10.0684     49.1752    138.9187   9.7553620796e+01   4.1337777647e+01    0.2335116    0.1924746  73.45  0.001049227    1.309    0.236
        83 -10.3001     23.2869    137.8093   1.0584288064e+02   4.4262344585e+01    0.4895307    0.2317986  69.17  0.001825538    3.096    0.677
        84 -10.7969     39.2482    135.9983   1.0034708386e+02   4.3218904170e+01    0.3193624     0.240818  76.31  0.001078457    1.468    0.319
        85  -9.3566     48.6617    210.3211   1.0665761565e+02   2.3532314981e+01    0.1440921   0.08416595  59.38 0.0007050276    1.713    0.416
        86 -10.6388     97.2272    136.4260   8.1797454658e+01   3.4820441149e+01    0.2935631     0.154366  31.51  0.001130933    2.012    0.503
        87 -10.5037    115.2652    134.3195   7.6047884112e+01   3.2013042349e+01    0.6291897    0.2095498  43.41  0.001946347    3.090    0.676
        88 -13.5607     85.5043    132.2865   8.4496094106e+01   3.7860726053e+01     1.014561    0.5070167  35.22  0.002965508    2.017    0.504
        89 -13.1976     73.8813    130.0509   8.7748111563e+01   4.0283824109e+01     0.958356    0.4306965  45.56  0.003480403    2.508    0.601
        90 -12.8374     60.3482    124.6464   9.1150199003e+01   4.3633802276e+01    0.7848703     0.502117  70.34  0.002982326    2.293    0.564
        91  -9.0040    126.8075    196.9436   8.5409058202e+01   1.5527286155e+01    0.1843791    0.1112386 -50.54 0.0008449171    1.744    0.427
        92  -9.7759    135.0539    133.1504   7.0422201590e+01   2.8398861310e+01    0.4074189    0.1794813  33.72  0.001385665    2.676    0.626
        93 -13.1524    102.2072    129.0119   7.8601381814e+01   3.5740444323e+01    0.9595956    0.5306489  39.10  0.003572874    1.818    0.450
        94  -9.7731     13.0386    129.1912   1.0813679716e+02   4.7301836068e+01    0.3777745    0.1689976  71.96  0.001375359    3.358    0.702
        95  -9.4545    172.9960    195.7451   7.4554082439e+01   8.3478335812e+00    0.1985529     0.179196  43.66  0.001170683    1.333    0.250
        96 -11.5258    120.5350    126.8663   7.2787596059e+01   3.2732857829e+01    0.7115847    0.3416304  54.12  0.002401658    2.833    0.647
        97 -12.0559     44.4165    122.1154   9.6199111590e+01   4.6285259058e+01     1.194187    0.6419872  83.52  0.004160529    3.397    0.706
        98 -10.8971     28.5643    122.2321   1.0182258045e+02   4.7872633500e+01    0.7666898    0.3577263  71.87  0.002429197    4.367    0.771
        99 -10.6103     68.0153    195.5423   1.0018527505e+02   2.4588612249e+01    0.3608946    0.1945942  46.28  0.001643486    1.783    0.439
       100 -12.3904     72.0755    120.2095   8.6183959349e+01   4.3061352262e+01    0.5028416    0.3995581  81.11  0.001825924    1.574    0.365
       101  -9.5079    142.9050    120.5353   6.5348756042e+01   2.9562094578e+01    0.2514856    0.2168051 -74.15 0.0008399548    1.345    0.256
       102 -10.1406    133.4663    120.0914   6.7622126875e+01   3.1630974923e+01    0.4520022    0.1988677  51.74  0.001534397    2.709    0.631
       103 -12.7518    111.3651    115.7840   7.2608177064e+01   3.7117858234e+01    0.6682726    0.5200686  54.13  0.002713311    1.403    0.287
       104 -13.8756     95.6498    113.6883   7.6843259699e+01   4.0639703798e+01     1.022828    0.6841432  33.64   0.00343883    1.537    0.349
       105 -13.5745     80.9811    113.2034   8.1502451934e+01   4.3363795386e+01     0.882695      0.64408  68.83  0.002901944    1.871    0.465
       106  -8.9140      3.3530    117.6612   1.1006433703e+02   5.0880137922e+01    0.1400341   0.08855273  62.41 0.0001063935    1.801    0.445
       107 -11.4517    124.2090    113.3107   6.8335343974e+01   3.5056741957e+01    0.5477018    0.2702995  43.99  0.002083174    2.050    0.512
       108 -13.1357     67.4950    110.1168   8.5400418865e+01   4.6287837275e+01    0.8154553    0.5089027 -69.36    0.0030293    1.929    0.481
       109 -12.0995     59.8385    109.4720   8.7994607399e+01   4.7565581648e+01    0.6212854    0.2877418 -60.46  0.002386314    2.186    0.543
       110 -10.1486     14.1970    109.9664   1.0512199549e+02   5.2186342045e+01    0.4121278    0.2252111 -89.46   0.00183963    2.149    0.535
       111 -12.2310     45.8900    102.3815   9.1565766468e+01   5.1154793693e+01     0.952052    0.5525423  71.09  0.003470695    3.347    0.701
       112 -10.8033     43.9130     92.6353   9.0018795680e+01   5.3790719743e+01    0.4159684     0.235813 -27.57   0.00120503    2.136    0.532
       113 -10.2457    141.4468    105.8815   6.1915736389e+01   3.2958835209e+01    0.4401616    0.2039101  58.32  0.001472378    2.978    0.664
       114 -13.8869    112.9228    100.8462   6.8127362275e+01   4.0149302267e+01     1.366679    0.6836226  53.80  0.004980417    2.422    0.587
       115 -13.4302     97.2410     98.0517   7.2102071479e+01   4.3943682688e+01     0.890188    0.4769376  47.49  0.003537968    1.991    0.498
       116 -10.7465     22.7380    101.2190   1.0037504851e+02   5.3775335573e+01     1.012777    0.5016665 -87.42   0.00384427    3.046    0.672
       117 -11.2299    129.0047    102.5166   6.4151943133e+01   3.6365903244e+01    0.3071243    0.2363312  66.56  0.001336328    1.543    0.352
       118 -13.7338     83.8236    100.1681   7.7117567534e+01   4.5980902407e+01     1.014649    0.6625124  57.63  0.004204021    2.004    0.501
       119 -10.5933     57.7624     92.0870   8.4390796557e+01   5.2101237890e+01     0.263629    0.2123076  40.71 0.0003459627    1.347    0.258
       120 -13.2802     64.2787     96.1377   8.3002380736e+01   5.0176065678e+01    0.9076739    0.6770794  76.02  0.003163713    1.964    0.491
       121 -12.2393     64.3410     87.6502   8.0611720108e+01   5.2147619395e+01    0.6264001    0.3559128  12.70  0.002445454    2.521    0.603
       122 -10.6440    140.8670     93.3565   5.8648604704e+01   3.5599985538e+01    0.4245188    0.1978427  58.72  0.001493701    2.683    0.627
       123 -12.8490    127.8154     91.9798   6.1507654506e+01   3.8788661998e+01    0.8317693    0.3881229  47.46  0.003152382    2.140    0.533
       124 -10.6291     35.0626     87.7772   9.2461361915e+01   5.5958493363e+01    0.8947274    0.2774825 -58.18  0.003180017    2.813    0.645
       125 -13.6943     88.1660     86.6268   7.1714034566e+01   4.8208586153e+01    0.9183141    0.7076065 -85.39  0.003645567    1.921    0.479
       126 -13.3487    106.8225     84.3342   6.5087313637e+01   4.4903138001e+01    0.8802361     0.486116  59.00   0.00336043    2.385    0.581
       127 -11.9452     48.9540     83.1782   8.5453142974e+01   5.5399645593e+01    0.9922041    0.5718255 -64.64  0.004323918    2.067    0.516
       128 -12.1125    120.9870     81.2821   6.0158885208e+01   4.2405943480e+01    0.4690016    0.3163569  69.13  0.002022186    1.941    0.485
       129 -12.5710     74.8861     79.5259   7.4188441564e+01   5.2183249156e+01    0.7109957    0.3246192 -51.46  0.002720675    2.352    0.575
       130 -10.4217     24.2653     80.0959   9.5254830302e+01   5.8834119559e+01    0.7589262    0.2413689 -64.59   0.00264937    3.245    0.692
       131 -10.3109     27.6570     71.6639   9.1545992891e+01   6.0483617415e+01    0.6109379    0.2324782 -27.31  0.001794451    5.061    0.802
       132 -10.8337     79.7990    193.7545   9.6878355996e+01   2.3409415822e+01    0.3607379    0.1886142  29.23  0.001572883    1.888    0.470
       133 -12.2480     62.2041     74.1910   7.7341603261e+01   5.5462958179e+01     1.268451    0.2353056 -46.84  0.003372012    4.927    0.797
       134 -11.9690    129.2587     76.3540   5.6545678679e+01   4.1446239312e+01    0.4738686    0.3194981  82.00  0.001975604    2.243    0.554
       135 -12.6513     83.1830     73.1553   6.9152142639e+01   5.1961504411e+01    0.6489515    0.4976909 -85.81  0.002364779    2.063    0.515
       136 -11.8031     83.0103     65.3311   6.6562030317e+01   5.3510599865e+01    0.5228553    0.3155091  -5.07  0.001906704    3.147    0.682
       137 -11.8050    116.9772     73.3431   5.8789062989e+01   4.4790686485e+01    0.3673429    0.2653439  69.59  0.001699471    1.692    0.409
       138 -12.5686     95.7341     71.8423   6.4533799886e+01   4.9695851327e+01    0.5568033    0.3608421 -56.98  0.002452632    1.944    0.485
       139 -11.9882    106.7113     72.5115   6.1406486062e+01   4.7223817659e+01    0.4126217    0.2819523  60.65  0.001573904    1.680    0.405
       140 -10.2973     42.6801     71.8993   8.4822921473e+01   5.8758749341e+01    0.3328104    0.1687212 -59.39  0.001413589    2.196    0.545
       141 -11.4565     51.6284     68.0889   7.9722938510e+01   5.8370065404e+01    0.9459325    0.3471457 -56.93  0.003135833    3.665    0.727
       142  -9.6888     16.5884     69.0695   9.6058060405e+01   6.2031034355e+01    0.3078514    0.1164351 -61.95  0.001262801    2.428    0.588
       143 -11.0387    148.7899     69.1050   5.0008584629e+01   3.8151967509e+01    0.3861169    0.1705435  64.54  0.001383917    2.779    0.640
       144 -11.8405    123.1009     66.8883   5.5162813298e+01   4.4533940700e+01    0.4781461    0.2490795  58.67  0.001937164    2.050    0.512
       145 -11.2698    110.6243     64.2964   5.7613036740e+01   4.7828548851e+01    0.3124194    0.2462312 -83.33  0.001281742    1.700    0.412
       146 -10.5831     37.6232     62.9123   8.4280460267e+01   6.1327564819e+01    0.5949127    0.2545069 -50.28  0.002532117    2.159    0.537
       147 -11.2670    101.2357     61.0468   5.9209189686e+01   5.0474708433e+01    0.3589925    0.2425595 -79.67  0.001435779    2.788    0.641
       148 -11.6054     73.4813     59.3548   6.7875508747e+01   5.6451760176e+01    0.5154492    0.3015088 -50.48  0.001748769    2.006    0.502
       149 -11.0815    132.4896    103.5011   6.3515863573e+01   3.5403491713e+01    0.3406001    0.2588892 -12.42  0.001405155    1.679    0.405
       150  -9.7160     25.1494     57.9929   8.8713191385e+01   6.3739279336e+01    0.4077922    0.1536761 -51.62  0.001719484    2.296    0.564
       151 -10.4752    131.1786     58.3998   5.0573981541e+01   4.4034134683e+01    0.2090228    0.1352108  68.90 0.0008430167    1.715    0.417
       152 -11.1210    120.3455     56.9149   5.2648657330e+01   4.6814941189e+01    0.4133416    0.2460185  77.73  0.001615184    2.656    0.623
       153 -10.1274      7.6117     54.0283   9.6573365512e+01   6.6007670072e+01    0.7582923   0.08447848 -55.43  0.002476079    4.079    0.755
       154  -9.8560     44.0096     55.2242   7.8663932225e+01   6.2070785817e+01     0.320381    0.1931394 -56.88   0.00134824    2.035    0.509
       155 -10.5749     45.0994     49.3735   7.5970596820e+01   6.3036674002e+01    0.3226877    0.2240912 -23.28 0.0004103017    1.427    0.299
       156 -11.1427     63.1132     53.3760   6.9685075433e+01   5.9417036612e+01    0.5507982    0.2133341 -45.27  0.002109427    2.744    0.636
       157 -10.4576    159.2905    231.2692   8.3463792571e+01   3.9552894218e+00    0.2578337    0.2353682 -77.18  0.001420329    1.582    0.368
       158  -9.9991    105.9921     53.4915   5.5241014931e+01   5.0658124662e+01    0.1985518    0.1278295  78.37 0.0008095843    2.460    0.594
       159 -10.7608     92.9542     51.0284   5.8178212969e+01   5.3934600870e+01    0.4067135    0.2240541 -50.91  0.001699873    2.352    0.575
       160 -10.3340     30.9873     49.9812   8.3052328517e+01   6.4760982264e+01    0.5408446    0.2092514 -55.29  0.002140943    2.946    0.661
       161  -9.6272     20.0142     51.4971   8.9241130899e+01   6.5588320053e+01    0.2987207    0.1585795 -60.21  0.001443246    2.051    0.512
       162 -10.2804     82.1218     46.7572   6.0083404963e+01   5.6897942536e+01    0.2376686    0.1919483 -43.59 0.0007516503    1.388    0.280
       163  -9.7315     45.1271     44.6919   7.4114145105e+01   6.3886360847e+01     0.224316    0.1796879 -45.92   0.00077693    1.417    0.294
       164 -10.0281     16.8241     42.7179   8.7941047558e+01   6.7651654654e+01    0.5118883    0.0924546 -49.57  0.001746156    3.884    0.743
       165 -10.4663     58.0166     42.0572   6.7308692359e+01   6.2254368212e+01    0.3260716    0.1830727 -51.17  0.001466407    2.411    0.585
       166 -10.4648      5.0363     39.8333   9.3696124982e+01   6.9140859314e+01    0.5892909    0.1705996 -60.40  0.002271506    3.468    0.712
       167  -9.4686    113.9538     41.3255   4.8962805999e+01   5.0602630920e+01    0.1975638    0.1650689  53.15 0.0003716931    1.101    0.092
       168 -10.2946     68.9197     40.8337   6.2456681341e+01   6.0450635972e+01    0.2478613    0.1830272 -62.82  0.001239615    2.102    0.524
       169  -9.9202     36.8072     39.7264   7.6117413724e+01   6.5950514611e+01    0.3327706    0.1641051 -47.04  0.001564763    2.134    0.531
       170  -9.5924     84.0390     39.9465   5.6807365442e+01   5.7522900843e+01    0.2249159    0.1543098  21.40 0.0005887307    1.655    0.396
       171 -11.3894    162.7832    225.8149   8.1873172375e+01   4.4066224252e+00    0.5359953    0.3009694  23.48  0.002327272    1.685    0.407
       172  -9.5654     60.3952     32.2211   6.2138490789e+01   6.3340314669e+01    0.1783169    0.1222703 -42.15 0.0009498925    1.699    0.411
       173  -9.9760    100.5230     54.4767   5.7138921980e+01   5.1725760211e+01    0.1444052    0.1337634  30.01 5.565079e-06    1.024    0.024
       174 -11.6340    236.8828    230.1016   6.8298618811e+01  -5.8111993152e+00     0.332533    0.2168733   3.70  0.001574176    1.332    0.249
       175  -9.3461     40.9377     21.2985   6.5666681537e+01   6.8242581759e+01    0.1745863    0.1365614  16.98 0.0002257702    1.088    0.081
       176  -9.6215      3.6043     25.5309   8.9309417444e+01   7.1987770862e+01    0.3336225    0.0983597 -53.51   0.00140859    3.052    0.672
