#   1 NUMBER                 Running object number                                     
#   2 MAG_AUTO               Kron-like elliptical aperture magnitude                    [mag]
#   3 X_IMAGE                Object position along x                                    [pixel]
#   4 Y_IMAGE                Object position along y                                    [pixel]
#   5 X_WORLD                Barycenter position along world x axis                     [deg]
#   6 Y_WORLD                Barycenter position along world y axis                     [deg]
#   7 A_WORLD                Profile RMS along major axis (world units)                 [deg]
#   8 B_WORLD                Profile RMS along minor axis (world units)                 [deg]
#   9 THETA_WORLD            Position angle (CCW/world-x)                               [deg]
#  10 FWHM_WORLD             FWHM assuming a gaussian core                              [deg]
#  11 ELONGATION             A_IMAGE/B_IMAGE                                           
#  12 ELLIPTICITY            1 - B_IMAGE/A_IMAGE                                       
         1 -15.0255      9.5795    152.6992   1.5054993437e+02   4.1752038790e+01     11.64881     3.229547  58.71   0.04834295    3.193    0.687
         2 -13.4972    192.7795     27.8190   7.1018461276e+01   3.2999548030e+01     1.448447     1.309287 -32.44   0.00652995    1.103    0.093
         3 -13.6266    207.8541      8.3274   6.3746338307e+01   3.1149499085e+01     1.510319     1.086444  34.42  0.005399369    1.685    0.407
         4 -11.5241      2.3981     11.5466   1.3842263726e+02   7.5627430079e+01    0.5829378     0.210184 -62.92  0.002774254    2.069    0.517
         5 -12.2197      2.6457      3.9953   1.3561680647e+02   7.7285627157e+01    0.6637218    0.4828631   6.56  0.004343912    1.524    0.344
         6 -11.6814      2.4620     21.2309   1.4096661036e+02   7.3422091326e+01    0.6443797    0.1434245 -67.40  0.002502152    3.043    0.671
         7  -9.2929     47.0371    249.4826   1.4654414379e+02   2.0304230031e+01    0.1526192   0.07386642  35.87 0.0003707105    1.505    0.336
         8 -10.1805    249.1325    249.3693   1.1008928817e+02  -4.7318408006e+00    0.1742234    0.1034462   1.81  0.001030524    1.357    0.263
         9 -12.1565    139.6757    248.9320   1.2903788015e+02   9.2041319183e+00    0.4208913    0.2602104  41.87  0.002884324    1.303    0.233
        10 -11.5184    127.1656    250.1738   1.3151311850e+02   1.0688440444e+01    0.3000978    0.2145879 -21.80  0.002105447    2.091    0.522
        11  -8.4176     67.2978    250.6853   1.4285334965e+02   1.7942065016e+01    0.1100966   0.05441598  52.84 0.0003457057    1.607    0.378
        12  -9.8702      3.2461    249.0192   1.5431015982e+02   2.4452794957e+01    0.2530793    0.1489172  27.40  0.001941729    1.723    0.420
        13 -10.8247     34.8664    245.0523   1.4860414960e+02   2.2204818785e+01    0.3196838    0.2681746 -65.14  0.002745765    1.717    0.418
        14  -8.6533     57.2801    240.3537   1.4419536609e+02   2.0612776372e+01   0.08882072   0.07904628   0.14 0.0004126052    1.654    0.396
        15  -8.3944     12.5597    240.6076   1.5252445314e+02   2.4961334873e+01    0.1715311   0.08620964  14.49 0.0009625343    3.306    0.698
        16 -12.6483     10.1667    206.7735   1.5217593574e+02   3.0885499177e+01    0.7960851    0.3541199  37.55  0.003549076    1.689    0.408
        17 -10.6519    237.7053    248.0343   1.1170192386e+02  -3.3044296739e+00    0.1560143    0.1103163  19.93 0.0008115749    1.239    0.193
        18 -12.6682     37.8681    234.7846   1.4765546851e+02   2.3529504230e+01    0.2429883    0.2234596  50.83 0.0007779215    1.364    0.267
        19 -10.7024    173.4202    221.7737   1.1940753367e+02   7.9531628769e+00    0.3046529    0.2035802  34.21  0.001540314    1.187    0.158
        20  -9.7914      2.0000    219.9944   1.5406225660e+02   2.9223101143e+01    0.1455009   0.04914931 -87.70 0.0007329835    2.922    0.658
        21  -8.8011     94.0241    216.2981   1.3504526193e+02   2.0077837800e+01    0.1686245    0.1177616  42.73 0.0002759815    1.090    0.082
        22 -14.1048     43.6842    227.2724   1.4619852331e+02   2.4172271521e+01    0.9973686    0.6545222  37.66  0.004615681    1.244    0.196
        23  -8.9038    152.5109    213.0374   1.2238465684e+02   1.2225481005e+01     0.140813     0.122878 -32.21 0.0003068571    1.448    0.309
        24  -9.4174     25.1161    212.3972   1.4930967567e+02   2.8566590978e+01    0.3700956   0.04055832  46.74  0.001532909    3.530    0.717
        25 -11.5436     63.5712    200.0516   1.4035479140e+02   2.6789845847e+01    0.2500297    0.2246815 -40.59  0.000628675    1.518    0.341
        26 -11.1873     20.9830    200.4983   1.4973295977e+02   3.1114353568e+01    0.2376424    0.1448293  47.22 0.0004857831    1.233    0.189
        27 -11.1544     17.5084    198.4735   1.5040064624e+02   3.1797862472e+01    0.2363036    0.1487189  49.10 0.0005880008    1.192    0.161
        28  -9.7785    192.0040    193.1731   1.1151793497e+02   8.8672269649e+00    0.3863522    0.2534615 -65.93  0.001558929    5.149    0.806
        29  -9.3020      8.9636    195.5259   1.5212569452e+02   3.3062890511e+01    0.1584988   0.08572707  34.71 0.0008247407    1.571    0.363
        30 -11.7937     69.5541    191.7741   1.3831267119e+02   2.7637071462e+01    0.2413408    0.2340993   3.38 0.0006963442    1.327    0.246
        31 -10.7839     79.3415    178.7512   1.3470793606e+02   2.8945310366e+01    0.2243037    0.2033905  48.16  0.000379201    1.107    0.097
        32 -13.1660     66.2761    176.8839   1.3775224462e+02   3.1007203319e+01    0.4526932    0.2712348 -44.15  0.001933487    2.319    0.569
        33  -9.2406    102.5508    178.9772   1.2904597731e+02   2.5600288360e+01    0.2380911    0.1483404  49.86 0.0006060631    1.470    0.320
        34 -11.7604     86.6070    169.2169   1.3178758895e+02   2.9890442527e+01    0.6231522    0.5401484  30.26  0.003886251    1.176    0.150
        35  -9.9819     98.6398    153.0087   1.2637584222e+02   3.1501965759e+01    0.2821333    0.2606778 -58.37 0.0008292812    1.207    0.172
        36  -9.1011    101.8096    148.8549   1.2485573749e+02   3.1884887390e+01    0.2013131    0.1851575  -1.93 0.0004381237    1.248    0.199
        37 -12.0105     87.4978    152.4267   1.2931380329e+02   3.3337431662e+01    0.2797934    0.2576058 -10.93 0.0005478371    1.304    0.233
        38 -12.4998     67.1440    143.7792   1.3385518459e+02   3.8116319510e+01    0.7762677     0.451291  56.09  0.003606965    1.732    0.423
        39 -11.6527     57.2781    133.1138   1.3540645261e+02   4.1836454534e+01    0.7299138    0.3575806 -89.89  0.002975338    2.706    0.630
        40 -10.9524    153.5866    229.2927   1.2421652637e+02   9.8285758455e+00    0.3864203    0.1143356  29.80  0.001452341    3.573    0.720
        41  -9.1826    177.7321    227.5411   1.1935715779e+02   6.6183289153e+00     0.159398   0.08627932  39.43 0.0009315872    1.547    0.354
        42  -8.3073    192.2769    144.2887   1.0225944721e+02   1.5917600124e+01    0.1391408   0.09784892   9.22 0.0002516384    1.517    0.341
        43  -9.8418    110.2102    137.5768   1.2055726705e+02   3.2902134859e+01    0.4294385    0.2673664 -21.20  0.001403563    2.804    0.643
        44 -10.4796     97.4406    135.2013   1.2373553169e+02   3.5608471272e+01    0.2526634    0.2316686  11.12  0.000509729    1.202    0.168
        45  -9.8387     84.0489    134.8511   1.2759340771e+02   3.7807376108e+01    0.2874894    0.1893183  52.39 0.0007151131    1.500    0.333
        46 -10.5608     32.9541    131.7269   1.4266209190e+02   4.4696824506e+01    0.2407324    0.1453598  78.84 0.0008445677    1.618    0.382
        47  -9.2732    107.0924    124.3141   1.1881522815e+02   3.6384246045e+01    0.2022187    0.1708526  41.67 0.0003241632    1.110    0.099
        48  -9.2002    183.7981    147.0238   1.0457104729e+02   1.7102077696e+01    0.1933758    0.1890493  69.68 0.0009214329    1.347    0.258
        49 -10.2355    167.9141    113.0384   1.0023154063e+02   2.6171706682e+01    0.3068178    0.2770933 -86.59 0.0008793949    1.412    0.292
        50  -9.5229    203.1915    111.8230   9.2730080095e+01   1.8756157922e+01    0.2039111    0.1572866   9.42 0.0005515424    1.333    0.250
        51  -8.9645      7.7835    226.1540   1.5309149696e+02   2.7712608599e+01    0.1217689    0.1032066  40.68 0.0006044782    1.344    0.256
        52  -8.6561    184.6990     77.6504   8.7170337244e+01   2.8263177703e+01    0.1587936    0.1142173  15.48 0.0007038396    1.692    0.409
        53  -9.2258    156.7440     75.9721   9.2490578142e+01   3.5437068723e+01    0.2058475     0.135905 -32.84 0.0005089294    1.550    0.355
        54 -10.7974      2.2934     69.1580   1.4800493014e+02   6.1895329454e+01    0.3041746   0.09740186 -83.77  0.001219771    2.755    0.637
        55 -11.2710     10.7091     64.2258   1.4367663778e+02   6.2811716988e+01    0.3938842     0.161786  28.81  0.001611245    2.608    0.617
        56 -10.8000     26.3180     59.7999   1.3544045565e+02   6.3029476145e+01    0.6317389    0.1609529  37.94  0.001774008    4.164    0.760
        57 -11.1979      2.8195     37.5644   1.4393183365e+02   6.9569632974e+01    0.3330543    0.1622819 -86.08  0.001644051    2.003    0.501
        58 -10.9650    172.6793    248.2406   1.2285746120e+02   4.8974429930e+00    0.4071008    0.1605498  47.18  0.001870035    3.405    0.706
        59  -9.4349    162.2979    249.3577   1.2487862158e+02   6.1487131477e+00    0.1102266   0.06934194  11.77 0.0007034891    1.704    0.413
        60  -9.9229    152.5188    249.4918   1.2669736404e+02   7.4320639359e+00    0.1138072   0.07873848  30.41 -7.060242e-05    1.011    0.010
        61 -10.8323    102.0482    247.7403   1.3608101568e+02   1.4232319519e+01    0.2213141    0.1352635  52.48  0.001284275    1.480    0.324
