#   1 NUMBER                 Running object number                                     
#   2 MAG_AUTO               Kron-like elliptical aperture magnitude                    [mag]
#   3 X_IMAGE                Object position along x                                    [pixel]
#   4 Y_IMAGE                Object position along y                                    [pixel]
#   5 X_WORLD                Barycenter position along world x axis                     [deg]
#   6 Y_WORLD                Barycenter position along world y axis                     [deg]
#   7 A_WORLD                Profile RMS along major axis (world units)                 [deg]
#   8 B_WORLD                Profile RMS along minor axis (world units)                 [deg]
#   9 THETA_WORLD            Position angle (CCW/world-x)                               [deg]
#  10 FWHM_WORLD             FWHM assuming a gaussian core                              [deg]
#  11 ELONGATION             A_IMAGE/B_IMAGE                                           
#  12 ELLIPTICITY            1 - B_IMAGE/A_IMAGE                                       
         1 -13.7128    244.7001    110.5374   3.3294269397e+01   8.5434194071e+00     2.266859     1.096447 -41.25  0.009777667    1.929    0.482
         2 -11.5281     84.9883     47.8055   5.1169058271e+01   5.5551118844e+01    0.9442892    0.5920379 -54.16  0.004396403    2.204    0.546
         3 -13.1491     44.7222     23.1070   5.6527141755e+01   6.5611591440e+01     1.019757    0.7176762 -47.38  0.006165929    1.771    0.435
         4 -12.2259    178.5252     23.8599   2.0857245622e+01   3.7275423264e+01    0.6647102    0.4767146 -44.82  0.003459678    1.467    0.318
         5 -11.7686    173.4367     20.5144   2.0639545279e+01   3.8952419884e+01    0.5261779    0.2602791  56.44  0.001980004    1.793    0.442
         6 -12.0416     78.1180     13.9487   3.9902745091e+01   6.1636218906e+01    0.5895759    0.2875521 -10.61  0.002567126    2.655    0.623
         7 -11.1681     75.9874     24.7050   4.5213747540e+01   6.0665050840e+01    0.4637758     0.276955  -3.54   0.00225271    2.040    0.510
         8 -11.2559    227.1767     15.7143   1.2772447313e+01   2.6108982581e+01    0.4992231     0.360577 -74.11  0.002825637    1.317    0.240
         9 -13.5063    167.2939     11.0468   1.8717150201e+01   4.1505369488e+01     2.030579    0.5237659  54.51  0.007007119    3.056    0.673
        10 -12.5650    156.1200     11.7521   2.0667977800e+01   4.4264909275e+01    0.7152006    0.5763323  40.70  0.004067437    1.220    0.180
        11 -12.3025    177.5630      3.6432   1.5134670661e+01   3.9603534251e+01     0.971674    0.5331161 -61.94  0.004410235    2.234    0.552
        12 -12.4783    158.5558      3.7287   1.7760463468e+01   4.4396101246e+01     1.068625    0.4308088  62.80  0.004512202    2.059    0.514
        13 -11.7534    169.4850      2.3473   1.5805417174e+01   4.1761300033e+01    0.7109494    0.2785707  67.19  0.002940735    2.186    0.543
        14 -10.4452    116.2658     16.5422   3.0236455627e+01   5.3437603713e+01    0.3728395    0.2146481 -43.39  0.001750816    2.148    0.535
        15 -10.0281    129.7100     12.6915   2.5832086739e+01   5.0686404473e+01    0.2578434    0.1907995  34.55  0.001209827    1.285    0.222
        16 -10.8489    231.9571      9.3411   1.0833362848e+01   2.5689354416e+01    0.4278441    0.2747978 -75.72  0.002345849    1.517    0.341
        17 -11.8906    145.9197      4.3069   1.9929726948e+01   4.7503869672e+01    0.6182683    0.4007016  61.56  0.003249917    1.340    0.254
        18 -10.3086    141.3395      1.6804   1.9819814902e+01   4.8857775017e+01    0.2427025    0.1951671 -42.51  0.001414218    1.427    0.299
        19 -10.8360     39.4693      8.1556   5.2074743653e+01   6.8397268736e+01    0.3714904     0.182692 -17.40   0.00188843    2.212    0.548
        20 -11.2973    131.4263      3.7312   2.2298741779e+01   5.1098070511e+01    0.8039529    0.2211588  52.69  0.002977661    2.723    0.633
        21 -11.1328    121.3550      4.3126   2.4504202218e+01   5.3439405543e+01    0.4929254    0.3921629  58.19  0.002911087    1.169    0.145
        22 -10.5945    106.2803      4.9165   2.8113601782e+01   5.6818184997e+01    0.3870456    0.2487721 -85.26  0.001723783    2.963    0.663
        23 -10.8989     71.1191      5.8545   3.8614928664e+01   6.3797287536e+01    0.4076308    0.1906364  47.97  0.002018379    2.072    0.517
        24 -11.0928    208.4887      4.5026   1.1885136950e+01   3.1802046331e+01    0.4200536    0.2312834  84.70  0.002044329    1.787    0.440
        25 -11.9457     83.7891      3.6306   3.3593412287e+01   6.1639811466e+01    0.7984148    0.3051578  54.72  0.003443674    2.596    0.615
        26 -10.5774     61.2100      2.0821   4.0325105390e+01   6.5901136081e+01    0.4014588     0.165897  34.38  0.001902375    2.291    0.564
        27 -10.6137    192.4943      5.5270   1.3863021456e+01   3.5665540139e+01     0.259449    0.1333758 -25.12  0.001212267    2.169    0.539
        28  -9.0551     17.4984      1.5531   5.9381075254e+01   7.1723812686e+01    0.1126689   0.08159721 -14.06 0.0001488592    1.007    0.007
        29  -9.9932     53.6362    143.4472   8.4355107904e+01   3.9286690971e+01    0.2495853    0.1822268 -75.05  0.001453321    1.217    0.179
        30 -12.7926     10.1887    140.4221   9.4651555856e+01   4.4110766574e+01    0.5191108     0.379976 -64.28  0.003573007    1.249    0.199
        31  -9.5098     40.3302    139.3302   8.7146277223e+01   4.1704964187e+01    0.1273079   0.08622411 -42.81 0.0007051736    1.716    0.417
        32  -8.9152     23.6560    141.2738   9.1519360619e+01   4.2838613752e+01    0.1217967   0.07741277  69.14 0.0003191708    1.620    0.383
        33 -13.4631    240.5915    125.0811   3.7324812100e+01   7.0226701178e+00     1.389819     1.120724  59.81  0.007617304    1.470    0.320
        34 -11.0657      3.4142    230.4066   1.0194045053e+02   2.6412802418e+01    0.2091326     0.125464  68.43  0.001261276    1.196    0.164
        35 -10.7623     18.0242    127.6861   9.1353520204e+01   4.6377964494e+01    0.1658707    0.1418252 -84.08  0.001169675    1.087    0.080
        36 -11.1768      4.5823    124.7167   9.4437021926e+01   4.7994417183e+01    0.2845473    0.1445414  76.97  0.001503983    2.214    0.548
        37 -12.0894     10.5573    122.3090   9.2647982459e+01   4.8137126621e+01    0.4359052    0.2184916  68.21  0.002212037    2.491    0.599
        38 -10.1989    154.3088    120.9700   5.3716272372e+01   2.6877473553e+01     0.223682    0.2061749 -37.84 0.0007628774    1.093    0.085
        39 -11.4475    190.0838    114.4561   4.4090559052e+01   1.9974677376e+01     1.029176    0.5103197 -20.19  0.003149214    3.705    0.730
        40  -9.8680    207.6427    123.4769   4.2836721138e+01   1.4317218969e+01    0.3252787    0.1468468  48.69  0.001231813    2.247    0.555
        41 -11.0460    212.8926    112.9470   3.9268457357e+01   1.5020491958e+01     0.543302    0.3362721 -32.33  0.002426336    1.591    0.372
        42  -9.7367    224.5211    112.0221   3.6964709872e+01   1.2593750514e+01    0.3441083    0.1373104 -36.02  0.001265419    2.363    0.577
        43 -11.4802    222.4634    107.3571   3.6184021393e+01   1.3844208224e+01    0.5582557    0.3346532  41.79  0.002492497    1.794    0.443
        44 -10.1609    148.4156    110.9229   5.2563799699e+01   3.0283958448e+01     0.369398    0.2410939 -52.58  0.001304811    1.666    0.400
        45 -10.9319     17.2482    104.4770   8.8482998641e+01   5.1696048971e+01    0.3616177     0.236124  43.95  0.002225259    1.815    0.449
        46 -10.1035     30.3873    102.1693   8.4229770825e+01   5.1197281485e+01    0.2609437    0.1667123 -33.19  0.001460408    1.798    0.444
        47  -9.5352    208.8242     94.2065   3.5277156136e+01   1.9232109186e+01    0.2072923     0.177907   5.63 0.0006226487    1.316    0.240
        48  -9.7632    178.7478     92.4170   4.0625963200e+01   2.6784926439e+01    0.2970323    0.1891661 -47.38  0.001263585    1.649    0.394
        49 -10.6798     12.9352     89.9935   8.7526226851e+01   5.5225578337e+01    0.1904169    0.1489863 -62.14  0.001293541    1.001    0.001
        50 -12.6090      5.0058     76.1833   8.7754358170e+01   5.8698325425e+01    0.6522489    0.4347048  83.61  0.003953365    1.839    0.456
        51 -13.0609     14.8861     73.2487   8.3836366339e+01   5.8762184876e+01     0.796012    0.6237681  38.17  0.005462865    1.614    0.380
        52 -11.0331      2.2614     88.4217   9.0591825870e+01   5.6179559373e+01    0.3346206    0.1935179 -69.62  0.001829955    1.344    0.256
        53 -10.7550      2.5047     83.9077   8.9836241653e+01   5.7152811041e+01    0.3276975    0.1633254 -63.63  0.001433671    1.477    0.323
        54 -10.2585    193.5449     87.0339   3.6203926741e+01   2.4143263788e+01    0.3458858    0.2218711  65.60  0.001253535    1.780    0.438
        55 -12.6856     42.8137     80.7029   7.5872356164e+01   5.4858133532e+01    0.9881564    0.6896341 -21.22  0.005243795    1.633    0.388
        56  -9.5711    100.4257     83.7614   5.8033225067e+01   4.5937957259e+01     0.212882    0.1327976 -34.38 0.0009489191    1.643    0.391
        57  -9.7852    215.1763     79.9019   3.0499258086e+01   2.0120293449e+01    0.2399331    0.1964041 -65.23  0.001231889    1.324    0.245
        58  -9.7531    221.1838     78.1065   2.9079758647e+01   1.8988538580e+01    0.2825845    0.1897666 -82.18  0.001235146    2.103    0.524
        59 -10.0490    169.6832     76.4867   3.8040268618e+01   3.1868623209e+01    0.3042734    0.3026547  21.89  0.001654561    1.011    0.011
        60  -9.3173    165.0083    134.5117   5.4517741950e+01   2.1714950433e+01    0.2349484    0.1499918  46.62  0.001015355    1.544    0.352
        61  -9.4591    218.7645     71.6012   2.7795216885e+01   2.0587878991e+01    0.2018867    0.1398307  75.59 0.0009483753    1.656    0.396
        62 -10.5761     75.6436     68.9979   6.1450790599e+01   5.3162563487e+01    0.4552532    0.3086764  -0.14  0.002200395    1.944    0.486
        63  -9.8432     83.8239     68.9121   5.8715454520e+01   5.1869755164e+01    0.2288435    0.1842088 -15.51   0.00124648    1.261    0.207
        64 -11.2523    214.5369     66.9681   2.7250097428e+01   2.2321548091e+01    0.3554377    0.2536788 -11.49  0.001673223    1.772    0.436
        65 -11.0019     25.4892     65.2386   7.8260121959e+01   5.9718423213e+01    0.4061844    0.2036386 -57.00  0.002169959    1.623    0.384
        66  -9.4416    179.0075     66.4673   3.3251485119e+01   3.1225260559e+01    0.2417822    0.1478287  57.65  0.001038655    1.615    0.381
        67 -10.9532    233.1702     63.9276   2.3790661497e+01   1.8374542003e+01    0.3150137    0.1973999  57.18  0.001536468    1.655    0.396
        68  -9.1746    132.2559     63.9860   4.2928626822e+01   4.3064060008e+01    0.1965514    0.1290718 -34.92 0.0008813494    1.539    0.350
        69 -10.7503    209.6266     60.2827   2.6252767910e+01   2.4535287127e+01    0.5387844    0.2102208 -41.12  0.001998224    2.442    0.590
        70 -10.2172    218.6909     61.8293   2.5297823592e+01   2.2099635877e+01    0.2253528    0.1861021  -9.16  0.001186133    1.428    0.300
        71  -9.4657    200.0248     63.7155   2.8709755574e+01   2.6387501450e+01    0.2049067    0.1970277  83.33 0.0006215356    1.024    0.023
        72 -10.2311    220.3515     53.5954   2.2954388204e+01   2.2904641918e+01    0.2835393    0.1731542  59.94  0.001343618    1.635    0.388
        73 -10.8633    198.0178     53.3205   2.6192405396e+01   2.8452302917e+01    0.6412465    0.3894976   0.89  0.002431975    2.965    0.663
        74  -9.4300    137.7565     55.9831   3.8953382262e+01   4.3114384467e+01    0.1976222    0.1270213 -31.84 0.0008833599    1.598    0.374
        75  -9.8136    164.7029     53.8526   3.2318187525e+01   3.6817295803e+01    0.2400131    0.1941575   2.25  0.001185585    1.452    0.311
        76  -9.7660     35.0197     52.6663   7.1208135864e+01   6.1458614084e+01    0.1727292    0.1442267 -18.52  0.001154675    1.137    0.121
        77 -10.8988    215.2824     51.0919   2.3014907072e+01   2.4490382742e+01    0.3111423    0.2614931  61.80  0.001719362    1.196    0.164
        78 -11.4906    240.5421    229.2371   5.8376470026e+01  -8.1634740157e+00    0.3186139    0.2485518  41.68  0.002116849    1.538    0.350
        79 -11.5499      3.3824     41.1526   8.0835578309e+01   6.5988796409e+01    0.3930276    0.3562711 -61.22  0.002560058    1.313    0.238
        80 -10.7795      6.0790     35.3538   7.8057826446e+01   6.6955294272e+01    0.2449238    0.1929877  31.81  0.001494035    1.708    0.414
        81 -11.8969     40.1485     29.8031   6.1194430880e+01   6.5091576019e+01    0.4260117    0.2718883 -38.79  0.002273315    1.381    0.276
        82 -11.5487    248.2671    224.7484   5.6265887861e+01  -8.7847616423e+00    0.5103705    0.3254751  -8.58  0.003118153    1.536    0.349
        83 -11.0934    191.1380     37.8010   2.2948610641e+01   3.2341817296e+01      0.47884    0.2003635 -40.13  0.001874888    2.363    0.577
        84  -9.7976     97.2857     36.6453   4.3092941585e+01   5.4988642938e+01    0.1310184    0.1099111 -62.66 0.0004841887    1.669    0.401
        85 -10.9960    182.5384     40.2734   2.5011838780e+01   3.4208426592e+01    0.5039971    0.2417798  67.77  0.001995789    2.166    0.538
        86 -10.1832     90.2481     28.3291   4.2016401434e+01   5.7541513079e+01    0.3290162    0.2530236   6.97  0.001782669    1.256    0.204
        87 -11.0502     86.0318     31.5039   4.4622921428e+01   5.7903020261e+01    0.2587402    0.1758362  24.38  0.001117146    1.459    0.315
        88 -10.0946    145.2312     28.0187   2.7973316493e+01   4.5224865368e+01    0.3669831    0.2152258 -65.13  0.001447513    2.821    0.646
        89  -9.8007     67.0221     29.1589   5.0252548220e+01   6.1528688409e+01    0.1974299    0.1265137 -14.05  0.001049349    1.591    0.372
        90 -11.8720    158.6249    225.4177   7.3049726825e+01   5.8854573853e+00    0.2796285    0.2416788  65.18  0.001551237    1.284    0.221
        91  -9.7040    111.3058    229.0004   8.2708732615e+01   1.3099088947e+01    0.1712106    0.1471432  64.16 0.0009062327    1.077    0.072
        92  -9.8170     31.9568    227.2852   9.7076322054e+01   2.4078228144e+01    0.1535685    0.1118662  61.86 0.0006782752    1.128    0.113
        93 -12.6464    203.9040    220.4929   6.3555324634e+01  -1.1495520896e+00    0.7500637    0.4698814  -9.44  0.003885285    2.120    0.528
        94  -9.4400    102.8004     26.1514   3.7434341689e+01   5.5282764031e+01    0.1967665    0.1466963  19.66 0.0008833996    1.314    0.239
        95  -9.9187    224.6805     22.9772   1.4774669415e+01   2.5865486676e+01    0.2526105    0.2021394 -56.31  0.001429974    1.169    0.144
        96 -10.1186    187.4558     19.4764   1.8326284257e+01   3.5492225469e+01    0.2586513    0.2311832  77.98  0.001505504    1.019    0.018
        97 -10.5089    128.3680     18.2905   2.8126459667e+01   5.0430262668e+01     0.324887    0.2803055  30.40  0.001268079    1.085    0.078
        98 -12.2457    209.6270    215.4559   6.1621008066e+01  -1.4059074150e+00     0.539422    0.3712439  11.62  0.003050293    1.522    0.343
        99 -13.7092    182.2989    217.0608   6.7135820279e+01   3.0902961074e+00     1.153823    0.7984344 -10.80   0.00620901    1.925    0.481
       100 -11.2466     50.5925    218.3425   9.3128022324e+01   2.3600503297e+01    0.3233927    0.2443052  56.57  0.002296165    1.173    0.148
       101 -10.5768     67.3691    216.9454   8.9866811960e+01   2.1731746176e+01    0.2205119    0.1353089  55.59  0.001340841    1.367    0.268
       102 -10.5485     77.0759    220.0875   8.8316480882e+01   1.9810581807e+01    0.2853882    0.1656334  31.77  0.001560658    2.064    0.515
       103 -10.1982    141.1888    206.4775   7.3746015061e+01   1.2170269153e+01    0.2348002     0.194713 -54.71  0.001409219    1.375    0.273
       104  -9.8555    203.7684    205.3917   6.0966766887e+01   1.0894906092e+00    0.1948243    0.1088323  31.95 0.0009503374    1.651    0.394
       105 -10.0411     94.2332     17.2051   3.6303961614e+01   5.8134337187e+01    0.2956494    0.2100677  89.49  0.001378265    2.808    0.644
       106  -9.8294    247.6822     16.3475   1.1040380774e+01   2.1326701590e+01    0.1397342   0.07843083 -61.76 0.0007048426    1.728    0.421
       107  -9.6066     64.4866     16.4778   4.5778644545e+01   6.3691874246e+01    0.1270723     0.104263   3.25 0.0001512935    1.016    0.016
       108 -10.0027     20.2684     15.2387   6.4252560252e+01   6.9449209999e+01    0.3040935    0.1456301 -13.81  0.001493772    2.715    0.632
       109 -11.7115    244.0848    201.7861   5.2850117571e+01  -5.2460646632e+00    0.5770348    0.4578108 -32.99  0.003655615    1.462    0.316
       110 -10.5903    202.9725    197.0282   5.9596520403e+01   2.5254640760e+00    0.2847565    0.1949121 -26.85  0.001487781    1.577    0.366
       111 -11.1307    204.5052    192.5483   5.8456904104e+01   2.9550158977e+00    0.4448981    0.2235701  30.79   0.00195104    2.061    0.515
       112 -11.5900    195.7229    184.8536   5.8722079036e+01   5.8628615466e+00    0.4195367    0.3433111 -56.94  0.002317665    1.568    0.362
       113 -11.2193    191.2015    186.0225   5.9860785803e+01   6.5268329693e+00    0.3047106    0.2477686  -4.27  0.001492545    1.318    0.241
       114 -10.2638     37.3147    185.4418   9.2908625790e+01   3.1779204094e+01    0.1951223    0.1150739  30.73  0.001127665    2.051    0.512
       115  -9.9432     26.5008    180.5012   9.4687017199e+01   3.3947821800e+01    0.1173318    0.0909476  83.68 0.0008106863    1.007    0.007
       116 -10.9147    173.7682    159.6880   5.8210770433e+01   1.4815365768e+01    0.4461112     0.340595  66.27  0.002158589    1.622    0.384
       117 -10.3029     14.4931    160.0051   9.5469055114e+01   3.9457448219e+01    0.1830577   0.09228563 -77.36  0.001036278    1.602    0.376
       118 -11.4191    217.8543    156.3017   4.8446457590e+01   6.3865476373e+00    0.6143722    0.3713621  43.14  0.002899994    1.641    0.391
       119  -9.9397     20.6830    155.0743   9.3650046207e+01   4.0008985413e+01    0.1729604    0.1270058 -78.55 0.0008435455    1.108    0.098
       120 -10.7913    163.0221    152.1637   5.8980617759e+01   1.8546349212e+01    0.3466175    0.2244957 -38.09  0.001561504    1.638    0.390
       121  -9.2474    173.5101    144.5166   5.4929613486e+01   1.7849494888e+01    0.1507924    0.1463111  30.74 0.0002303236    1.030    0.029
