#   1 NUMBER                 Running object number                                     
#   2 MAG_AUTO               Kron-like elliptical aperture magnitude                    [mag]
#   3 X_IMAGE                Object position along x                                    [pixel]
#   4 Y_IMAGE                Object position along y                                    [pixel]
#   5 X_WORLD                Barycenter position along world x axis                     [deg]
#   6 Y_WORLD                Barycenter position along world y axis                     [deg]
#   7 A_WORLD                Profile RMS along major axis (world units)                 [deg]
#   8 B_WORLD                Profile RMS along minor axis (world units)                 [deg]
#   9 THETA_WORLD            Position angle (CCW/world-x)                               [deg]
#  10 FWHM_WORLD             FWHM assuming a gaussian core                              [deg]
#  11 ELONGATION             A_IMAGE/B_IMAGE                                           
#  12 ELLIPTICITY            1 - B_IMAGE/A_IMAGE                                       
         1 -11.4375     80.9311     29.5602   4.2285182440e+01   5.8712251017e+01    0.6686639    0.2424733 -37.49  0.002803606    3.104    0.678
         2 -11.6095     29.4799      6.6486   5.1595417512e+01   7.1379212213e+01    0.3363908    0.2725501 -30.49   0.00167281    1.550    0.355
         3 -11.5822     38.2661     19.1182   5.3542592446e+01   6.8450747997e+01    0.6309258    0.3720165  66.13  0.002611802    3.929    0.746
         4 -10.2028     36.3154      8.5215   4.9272030053e+01   6.9979272560e+01     0.301805    0.2141661  70.56 0.0005843253    2.269    0.559
         5 -11.3782     35.3074     12.0358   5.1505863394e+01   6.9787886255e+01    0.3208634    0.2470812  46.66 0.0009675458    1.307    0.235
         6 -10.8500     14.4594     16.4574   6.5375519870e+01   7.2480320626e+01      0.30211    0.2082442 -38.86 0.0007889602    1.696    0.410
         7 -11.1259     25.9487     13.1757   5.6864739214e+01   7.1232272239e+01    0.2572151    0.2241499  17.06  0.001156584    1.180    0.153
         8 -11.2704    125.1521     16.8240   2.8886370416e+01   5.0088526752e+01    0.2835896    0.1857271 -83.42 0.0003578389    1.569    0.363
         9 -10.4866     90.8798     10.6357   3.3003733909e+01   5.8426328825e+01    0.3557284    0.2019324  32.08 0.0009379842    2.231    0.552
        10 -10.3405    226.3731     12.1004   1.8464593993e+01   2.9961502782e+01    0.1566892    0.0623535 -49.77 0.0009453018    1.878    0.468
        11 -10.5644    203.7412     11.3694   1.9717482177e+01   3.4120930401e+01     0.196492    0.1681991   2.05  0.001158517    2.059    0.514
        12 -11.2012    126.0129     11.0319   2.7119128984e+01   5.0436407799e+01    0.2090669    0.1651576 -62.44 0.0003449976    1.303    0.232
        13 -10.4808    124.2473      4.9974   2.5651686815e+01   5.1357974616e+01    0.2838247    0.1817689  -8.09  0.001643438    2.375    0.579
        14  -9.6894     54.5023      4.5511   4.0215339904e+01   6.6817744875e+01     0.169607    0.1198289 -16.41 0.0005496963    1.702    0.413
        15 -11.4042     52.5576     11.4935   4.4043663924e+01   6.6582286747e+01    0.3574657     0.216925  64.48  0.001933757    1.866    0.464
        16 -12.3783     55.8327      9.4365   4.1963340983e+01   6.6115153663e+01    0.2345113    0.1950164  43.59 0.0003110062    1.045    0.043
        17 -10.5261     11.5812     11.8166   6.4851423296e+01   7.3488505218e+01     0.223506    0.1712715  28.47   0.00106157    1.298    0.230
        18 -10.6906      7.7423      8.6651   6.5772150908e+01   7.4394525824e+01    0.4332783    0.2433577  32.89  0.001752435    1.604    0.376
        19 -10.2120      2.7517      6.2458   6.8047076396e+01   7.5311526765e+01    0.2060994    0.1589837  23.76 0.0009150172    1.312    0.238
        20  -9.7666    164.8026     10.8640   2.2674144573e+01   4.1950580076e+01    0.1608369    0.1067214 -70.26 0.0003962457    1.325    0.245
        21 -10.2379    133.1493     10.6436   2.6064072536e+01   4.8868838711e+01    0.1867167    0.1462074 -65.60 0.0004625016    1.264    0.209
        22 -10.3000     79.2062     10.9202   3.5772605763e+01   6.1000965145e+01    0.2376503    0.1402959  53.80 0.0005277452    1.358    0.264
        23 -10.7293     43.2710     10.5367   4.7222275345e+01   6.8485962523e+01    0.2958577    0.2014315  56.14  0.001778176    1.498    0.333
        24  -9.7799    101.1287      9.8616   3.0726786882e+01   5.6179334072e+01     0.279596    0.1854166 -37.72  0.001689762    1.755    0.430
        25  -9.9965     96.0899     10.2496   3.1811362055e+01   5.7285948710e+01    0.1776481    0.1391518  68.16  0.001094607    1.056    0.053
        26 -10.1820    116.1834      7.8993   2.7622448170e+01   5.2933162191e+01    0.1801547    0.1424651 -82.01 0.0005194152    1.218    0.179
        27 -10.0471    111.8839      6.1094   2.7732373362e+01   5.4057118199e+01    0.2312114    0.1175414  57.11  0.001250125    1.661    0.398
        28 -10.1927    247.0757      5.9670   1.6401943562e+01   2.7153876637e+01    0.1451609   0.09581836 -65.84 0.0003247126    1.034    0.032
        29 -11.2867    222.4406      5.5206   1.7533648171e+01   3.1318503550e+01    0.2045838     0.184773   4.57  0.001681175    2.010    0.502
        30  -9.8708    199.8425      6.1729   1.8977115014e+01   3.5377872711e+01    0.1342276    0.1139944  83.24 0.0007367124    1.327    0.247
        31 -10.2917    151.6965      5.9870   2.2782743139e+01   4.5205824226e+01    0.2160627    0.1280841  64.75 0.0007033655    1.524    0.344
        32 -11.1131    148.5077      2.3438   2.2207154423e+01   4.6215966451e+01    0.2147326    0.1617208 -85.04 0.0004083311    1.081    0.075
        33 -10.2132     70.4764      5.2373   3.5773570192e+01   6.3388384813e+01    0.2062316    0.1458932  42.00 0.0006370638    1.274    0.215
        34 -11.3924    194.0191      4.7055   1.9071401509e+01   3.6635583876e+01    0.1803725    0.1478558 -74.21 0.0002338885    1.148    0.129
        35 -11.2521    104.6986      4.3674   2.8327615607e+01   5.5825446557e+01    0.2132146    0.1701993  81.53 0.0002820855    1.106    0.096
        36 -10.7528     48.1366      4.3576   4.2354893973e+01   6.8119586975e+01    0.3557356    0.2488229  -4.17  0.001694265    1.695    0.410
        37 -10.6379     44.0212      4.2526   4.3869172939e+01   6.8937541708e+01    0.2955794    0.1410445  51.57  0.001563414    1.687    0.407
        38 -12.4279     20.1059      2.3734   5.4306819259e+01   7.3378536435e+01    0.3005815    0.1968883  21.75  0.001405878    1.305    0.233
        39 -10.7332     34.5345      3.9293   4.7731806103e+01   7.0753848601e+01     0.201781    0.1793457  25.64  0.001411354    1.187    0.157
        40 -10.0762     13.2010      2.8662   5.8806059633e+01   7.4374428561e+01    0.2660448    0.1620323  49.41   0.00151324    2.214    0.548
        41 -10.0772    245.1377      1.5357   1.5783121510e+01   2.7907979541e+01    0.1276997   0.08928808 -74.80   0.00054669    1.122    0.109
        42 -10.1399    138.1521      1.8071   2.3133131236e+01   4.8525550720e+01    0.1706131    0.1290771 -81.04 0.0004521874    1.150    0.130
        43  -9.8678    204.8439      1.6017   1.7805246905e+01   3.4880935994e+01    0.1517618   0.07510588 -83.41 0.0009400228    1.750    0.428
        44  -9.2184     84.9858      1.2312   3.0863048161e+01   6.0502366164e+01    0.1564022   0.08213244  65.69 0.0003835393    1.519    0.342
        45 -10.6587     29.8230      1.3741   4.8594768862e+01   7.1839866490e+01    0.2189834   0.09085283  46.97 0.0004699597    1.932    0.482
        46 -11.4716     11.4383    120.6412   9.6958720504e+01   5.0301938634e+01    0.5531227    0.2723081 -20.73 0.0008314629    2.462    0.594
        47  -9.3318    109.6704    250.7321   8.4753508566e+01   6.4111769848e+00     0.134126   0.09199094  -7.42 0.0003175244    1.579    0.367
        48 -11.3563     24.4310    248.8686   1.0518152984e+02   1.6281362893e+01    0.3885789    0.1827848  55.42   0.00185958    2.079    0.519
        49 -11.8763     17.8221    248.4242   1.0670284556e+02   1.6993804016e+01    0.5088668    0.2731524  -2.59  0.002286327    2.947    0.661
        50 -12.5473      9.8419    245.1344   1.0837937951e+02   1.8423619402e+01    0.7196547    0.2996953 -73.01  0.003213456    2.438    0.590
        51 -11.5230      2.5011    247.8741   1.1019256206e+02   1.8451572014e+01    0.5010921    0.3546929  31.49  0.002502486    1.289    0.224
        52 -11.2468      4.7163    243.3899   1.0947832303e+02   1.9244543654e+01    0.4298781    0.1558031  35.89  0.001996389    2.147    0.534
        53 -11.9969      6.3320    240.0021   1.0893558356e+02   1.9859905174e+01    0.3484742    0.3381072 -14.88  0.001857982    1.245    0.197
        54  -9.0885     52.0023    120.9946   8.1006829845e+01   4.6090844037e+01    0.1769639    0.1678331  -6.60 0.0009472159    1.027    0.026
        55 -11.3085     69.4144    115.4802   7.3263518058e+01   4.4905800295e+01    0.3450672    0.3017922  24.95 -0.0001390596    1.127    0.113
        56 -10.2133     37.4262    116.0067   8.5663831194e+01   4.9184443027e+01    0.3805903    0.1099971  35.30  0.001204857    3.316    0.698
        57 -12.6534     23.2948    113.3814   9.0929873080e+01   5.1291764319e+01    0.3379079     0.277905 -50.29 0.0003993342    1.122    0.109
        58  -9.9063     40.3989    112.7674   8.3786145927e+01   4.9677455357e+01    0.2250292    0.1247076 -48.74 0.0009532832    1.692    0.409
        59  -9.7844      6.2975    112.6885   9.7878453071e+01   5.2732085856e+01    0.2003597    0.1928092  63.61 0.0003749791    1.168    0.144
        60 -10.5225      2.8502    111.8449   9.9186444127e+01   5.3148417270e+01    0.2090273     0.186342 -46.23 0.0003139003    1.015    0.014
        61 -11.2817     13.9032    107.4914   9.3834755127e+01   5.3583301383e+01    0.3174499    0.1852234 -36.37 0.0006932673    1.653    0.395
        62 -10.7179     17.8991    105.3825   9.1733309181e+01   5.3820306936e+01    0.2225668    0.1886638 -72.13  0.000351341    1.238    0.193
        63  -9.2638     67.6676    103.7646   7.0950860109e+01   4.8009953613e+01    0.1502197    0.1140485  -3.45 0.0001843486    1.533    0.348
        64 -10.8061    247.7871    102.0800   3.2534657804e+01   1.4867232429e+01    0.1772412    0.1193534 -54.94  0.001213768    1.208    0.172
        65 -11.6547     18.8795     97.7658   8.9808647152e+01   5.5670623040e+01    0.7418126    0.4330068  85.28  0.003009988    2.762    0.638
        66 -10.0958     20.7367     92.6120   8.7866272507e+01   5.6786278146e+01    0.2433241    0.1702427 -33.47 0.0005095653    1.339    0.253
        67 -10.5048     24.1421     90.1699   8.5738577828e+01   5.7063878303e+01    0.2615128    0.1927453  -0.62 0.0003688515    1.355    0.262
        68  -9.4918    217.8025     98.3901   3.5236011444e+01   2.0065254480e+01    0.1418326    0.1135704  47.00 0.0005009913    1.593    0.372
        69  -9.6979     37.6011     96.8134   8.1302220150e+01   5.3996781185e+01    0.1972641    0.1418724 -72.37 0.0006673647    1.669    0.401
        70 -11.9234     57.9524     92.3503   7.1617162090e+01   5.2216987172e+01    0.4628997    0.3908884 -42.41  0.001313639    1.193    0.162
        71  -9.1856    144.3518     94.6597   4.6330786095e+01   3.4706420813e+01    0.1502069    0.1081925 -82.02 0.0007043268    1.802    0.445
        72 -10.3834      8.6083     92.0375   9.3374958001e+01   5.7864004353e+01    0.4513149    0.2455344  59.48  0.001416706    2.903    0.656
        73 -11.0539    125.3152     93.0026   5.0234573848e+01   3.9044331355e+01    0.2497536    0.2036798  49.75 0.0002198214    1.209    0.173
        74 -10.1876     97.4916     93.5128   5.8000384903e+01   4.4744617254e+01    0.2655384     0.135834  53.01 0.0007542598    2.214    0.548
        75 -12.0799    159.5117     89.5505   4.2106961560e+01   3.2463102094e+01    0.3454024    0.2889268  32.81  0.001966614    1.470    0.320
        76 -10.2800    114.0599     91.8633   5.2806697981e+01   4.1648042128e+01    0.2628673    0.2257702   9.52  0.001032894    1.381    0.276
        77 -11.3390    104.3528     91.3501   5.5359769813e+01   4.3779461974e+01    0.4508607    0.2471712  52.54  0.001877961    1.916    0.478
        78  -9.8708     66.6566     91.8259   6.8074680478e+01   5.0905822144e+01    0.1976489    0.1833016 -37.39 0.0003879715    1.111    0.100
        79  -9.8760     45.5059     89.7291   7.6058823581e+01   5.4656499037e+01    0.3893563    0.2633025  76.19  0.001607075    2.687    0.628
        80  -9.8008      1.5121     90.3602   9.6389665616e+01   5.8695310362e+01    0.2955464    0.1175221 -65.59  0.001219978    2.231    0.552
        81 -13.7962     65.4670     81.8793   6.5612639528e+01   5.3249606056e+01    0.5158029    0.4548481  50.86 0.0008465029    1.247    0.198
        82 -11.1469     12.7080     76.0316   8.7899268281e+01   6.1403500178e+01    0.3986364    0.1840318  -8.95  0.001569941    2.748    0.636
        83 -11.4973      9.7857     80.2447   9.0357534849e+01   6.0638419265e+01    0.3178106    0.2312863  18.45  0.001229836    1.406    0.289
        84 -10.8089      5.3901     74.7003   9.1341822694e+01   6.2231247734e+01    0.2256123    0.1314358 -31.41 0.0009286303    1.569    0.363
        85  -9.0011     27.4863     82.4893   8.2267925501e+01   5.8539369638e+01     0.146781    0.1218733 -21.10 0.0008083851    1.103    0.093
        86 -10.6827     48.0373     79.5335   7.2054101809e+01   5.6571822542e+01    0.2493133    0.2083364 -46.06   0.00041981    1.251    0.201
        87  -9.7656     85.4837     79.1540   5.7621689528e+01   5.0028960854e+01    0.3167852    0.1814641  19.73  0.001163317    2.897    0.655
        88  -9.4318     24.4398     79.5637   8.2962227745e+01   5.9530922592e+01    0.1394456    0.1238042 -16.85 8.781614e-05    1.012    0.012
        89 -10.0530     74.9946     76.7991   6.0500419727e+01   5.2534638844e+01    0.2058426    0.1839423  60.60 0.0003905964    1.255    0.203
        90 -10.3616     53.8884     75.6536   6.8362301709e+01   5.6486900577e+01    0.3025548    0.2001608  27.60 0.0008744647    1.446    0.309
        91 -10.1300     43.4593     76.5220   7.3171109341e+01   5.7883280441e+01    0.1444805    0.1275642  -5.16 0.0001905052    1.038    0.037
        92 -11.5444    179.8320     76.4065   3.5762273994e+01   3.0494434110e+01    0.3930135    0.2150174  55.55  0.002013722    1.927    0.481
        93  -9.6461    151.7796     70.9680   3.8974925801e+01   3.7182510138e+01    0.1704047    0.1062523 -41.21 0.0004856445    1.619    0.382
        94  -9.4414    142.0565     71.7963   4.0989675615e+01   3.9160461253e+01    0.1797398    0.1037617  58.89 0.0007389521    1.686    0.407
        95 -10.8044     76.2243     69.9952   5.7903865793e+01   5.3590129175e+01    0.3848072     0.260789  32.91  0.001888511    1.441    0.306
        96 -12.5694     81.0577     66.9458   5.5257297204e+01   5.3180396024e+01    0.3106111    0.2829849 -11.22  0.000426049    1.166    0.143
        97 -10.5692    131.3207     69.0442   4.2430367613e+01   4.1964983545e+01    0.2873945    0.2188553  21.65 0.0004754597    1.843    0.458
        98 -10.1062     90.5529     69.4888   5.3016359076e+01   5.0777671037e+01    0.2926178    0.2080722  88.32 0.0007798014    2.277    0.561
        99 -10.2079     39.2376     70.0253   7.3101177657e+01   5.9844534650e+01    0.1955648    0.1847685  46.39  0.000516824    1.279    0.218
       100 -11.8847    211.9435     67.2796   2.9866080926e+01   2.5760468643e+01    0.2203309    0.1652097 -58.99 0.0003402662    1.085    0.079
       101  -9.7933     58.8658     65.9714   6.3153705027e+01   5.7564360705e+01    0.2566413    0.1572827 -43.90  0.001226617    1.738    0.425
       102 -11.8028     16.8539     64.5735   8.2673068843e+01   6.3599712850e+01     0.374994    0.2981975  10.77 0.0003916318    1.192    0.161
       103 -13.5195     21.0426     58.4200   7.8532877682e+01   6.4465002123e+01    0.4039148    0.2820397 -37.70 0.0007811449    1.345    0.256
       104 -11.3824      7.8970     62.8734   8.7066121795e+01   6.4719296389e+01    0.2911352    0.2042995 -30.31 0.0002918534    1.246    0.197
       105 -11.8247     11.6910     59.6909   8.4058827526e+01   6.5100038359e+01    0.2567823    0.2069861  -1.69 0.0002922808    1.116    0.104
       106 -10.9190    128.5208     63.7998   4.1581646229e+01   4.3415899898e+01    0.2486385    0.2116398 -74.15 0.0004709792    1.209    0.173
       107  -9.2228    166.4822     64.5144   3.5009296294e+01   3.5039297719e+01    0.1283316    0.1139796 -79.02 -6.09031e-05    1.019    0.019
       108 -10.8528     51.9593     63.7983   6.5313449756e+01   5.9150464873e+01    0.2245579    0.1989777 -42.26 0.0002658506    1.258    0.205
       109 -10.3637     49.7669     59.7882   6.4882280569e+01   6.0261794466e+01    0.2250321    0.1976457 -48.42 0.0006224836    1.336    0.252
       110  -9.6554    119.9376     62.6153   4.3121982043e+01   4.5514647000e+01    0.1810096    0.1602009  59.76  0.001058022    1.057    0.054
       111 -10.3320     97.9700     60.8592   4.8122705551e+01   5.0647477866e+01     0.211377    0.1884634  56.98 0.0005247197    1.056    0.053
       112  -9.6673      1.5657     70.7059   9.2445694500e+01   6.3381449085e+01    0.1676737    0.1252244 -74.62 0.0009385459    1.543    0.352
       113 -10.0950     42.0766     59.7994   6.8378809466e+01   6.1470544981e+01    0.1981041    0.1802494  34.43 0.0004248867    1.226    0.184
       114 -11.3834     58.4021     58.9306   6.0920701438e+01   5.8934323348e+01    0.2689548    0.1904755  36.46 0.0001433359    1.289    0.224
       115  -9.7492     38.0327     59.4831   7.0192414634e+01   6.2123874862e+01     0.201275    0.1241796  24.59   0.00038204    1.518    0.341
       116  -9.3720    130.7518     57.0115   3.9248464173e+01   4.3940612630e+01    0.1551776    0.1136071 -41.83 0.0004065369    1.447    0.309
       117 -10.1137     71.3199     56.3890   5.5080053863e+01   5.6934978193e+01    0.2607569    0.1989978  86.94  0.001071448    2.078    0.519
       118  -9.6988    229.4512     56.4884   2.6157309685e+01   2.4190004602e+01    0.1120575   0.08464845 -61.97 0.0001430246    1.006    0.006
       119 -10.0732     54.1902     55.9573   6.1611089396e+01   6.0201789195e+01    0.2030836    0.1667009   1.55 0.0006007268    1.230    0.187
       120 -10.9159     26.9485     65.9388   7.7820924497e+01   6.2254760708e+01    0.2094173    0.1726292   8.15  0.001215352    1.111    0.100
       121 -12.8954    115.1839     53.2078   4.1444641734e+01   4.7992834979e+01    0.3069386    0.2843588  51.11 0.0006696673    1.104    0.094
       122  -9.2121    107.3020     55.3159   4.3943822668e+01   4.9449059402e+01    0.1359027    0.1035412  25.45 0.0006086903    1.618    0.382
       123  -9.4526     83.4738     55.4825   5.0673032017e+01   5.4603428416e+01    0.1409088    0.1235624  32.32 0.0005668652    1.091    0.083
       124  -9.7072     33.8868     55.3103   7.0772164337e+01   6.3500558155e+01    0.2030729    0.1114894  18.61 0.0009324732    1.879    0.468
       125  -9.5383     66.1440     47.2007   5.3663867924e+01   5.9416089454e+01    0.4996288    0.3517993  87.38   0.00224162    2.830    0.647
       126 -10.9059     65.8073     52.7885   5.5827911180e+01   5.8600691595e+01    0.4179344    0.1591578  42.53   0.00147127    2.364    0.577
       127 -12.4356     62.0343     49.6571   5.6126836310e+01   5.9826273600e+01    0.2978757    0.2476596 -33.80 0.0003949995    1.325    0.245
       128  -9.5573    225.3464     52.6710   2.5811691809e+01   2.5388039564e+01    0.1212265   0.06517954 -65.95     0.000705    1.755    0.430
       129  -9.2832    148.7634     52.0286   3.4703980274e+01   4.0641825575e+01    0.1595485    0.1048942 -41.66 0.0005505456    1.565    0.361
       130 -10.8811    138.0621     50.3701   3.6073135512e+01   4.3244137849e+01    0.2685853    0.2067557  64.50 0.0008661685    1.195    0.163
       131  -9.7460     97.9640     51.2363   4.5055742934e+01   5.2122677034e+01    0.1851191    0.1610538  52.12            0    1.035    0.033
       132 -10.3985     83.7867     50.3632   4.8833334117e+01   5.5324542697e+01    0.1974989    0.1838663 -57.75  0.000390786    1.232    0.189
       133 -10.8481     78.3237     50.0354   5.0454643067e+01   5.6521171124e+01    0.2481626    0.1955576  44.11 0.0003029384    1.128    0.114
       134  -9.7341     74.4627     47.1954   5.0727765813e+01   5.7744651097e+01    0.1985507    0.1601038  88.93 0.0006788354    1.725    0.420
       135 -11.2064     14.0967     49.0966   7.9317729821e+01   6.7033065127e+01    0.3050795    0.1820486 -39.97 0.0004077538    1.557    0.358
       136  -9.7303      7.5368     49.5358   8.3334308304e+01   6.7535810572e+01    0.2164605    0.1730754  48.69 0.0008015666    1.726    0.420
       137 -10.1499      9.8950     46.8319   8.1026855149e+01   6.7868167929e+01    0.1859203    0.1492828 -12.84 0.0006116169    1.030    0.029
       138  -9.6547    159.1070     48.8290   3.2336747090e+01   3.8821267337e+01     0.187371     0.142314 -77.01 0.0002717104    1.249    0.199
       139  -9.6043    155.0029     47.0230   3.2486822904e+01   3.9950471152e+01    0.1561438      0.13266  87.01 0.0006279037    1.037    0.036
       140  -9.8419    129.6234     45.9814   3.6396238521e+01   4.5732553991e+01    0.1682759    0.1575269 -77.98  0.001079309    1.105    0.095
       141 -10.3945    103.3149     45.1964   4.1755314524e+01   5.1781972978e+01    0.3193331    0.2360921 -78.59   0.00170396    1.710    0.415
       142 -10.2014     79.0284     45.4889   4.8622759873e+01   5.7044565206e+01     0.186838    0.1794249   4.72 0.0003419686    1.132    0.117
       143 -10.1751      2.4804     45.6647   8.5177179638e+01   6.8696685683e+01    0.2349768    0.1323568  17.75 0.0006807212    1.671    0.402
       144  -9.5509    139.0050     44.9452   3.4457553957e+01   4.3759064814e+01    0.1739138    0.1345825 -74.77 0.0002977019    1.297    0.229
       145 -12.5014    141.6475     40.8674   3.2943442499e+01   4.3690707746e+01    0.2646807     0.205855  74.15 0.0004139146    1.143    0.125
       146 -10.2250     16.9022     44.1724   7.5924851811e+01   6.7678290883e+01    0.2796305    0.2188711  87.29  0.001519594    2.390    0.582
       147  -9.9070     85.8596     42.8379   4.5612231192e+01   5.5957436456e+01    0.1934292    0.1618797  35.72 0.0003401908    1.160    0.138
       148 -11.2850     37.1114     41.1880   6.3795445753e+01   6.5512085039e+01    0.4419499    0.3270917  41.84  0.002553799    1.433    0.302
       149 -10.3675     26.9848     42.6520   6.9648582427e+01   6.6729374543e+01    0.3229346    0.1469439  31.57  0.001500077    1.986    0.497
       150  -9.8384    109.2317     41.7964   3.9307799232e+01   5.0899705110e+01    0.3102145    0.1879357  27.17  0.001398319    2.571    0.611
       151 -11.7853    183.6974     39.8938   2.7241272079e+01   3.4823720659e+01      0.48685    0.2327391  84.38            0    2.387    0.581
       152 -11.8828     91.0826     39.8572   4.3123376224e+01   5.5214115117e+01    0.2376591    0.2148132  63.54 0.0002591402    1.077    0.071
       153 -10.6501     81.3506     38.7592   4.5502306451e+01   5.7477395332e+01    0.2464204    0.1793872  48.49 0.0005759857    1.189    0.159
       154 -10.2608    116.5484     40.6392   3.7393514843e+01   4.9389239759e+01    0.2513255    0.1701256 -59.68 0.0008893452    1.699    0.411
       155 -11.9767    121.4569     36.8210   3.5299938676e+01   4.8748199868e+01    0.4025173    0.2481531 -40.36  0.001716885    1.761    0.432
       156 -10.5650     66.9437     36.5990   4.9370168696e+01   6.0777808406e+01    0.2084886    0.1743419  -3.87 0.0005955042    1.330    0.248
       157  -9.1171    102.6991     36.2587   3.9031904767e+01   5.3074525800e+01    0.1257732   0.09551064 -88.67 0.0001595744    1.509    0.338
       158 -10.5746     45.6051     33.8112   5.6725421589e+01   6.5225885157e+01    0.2441091    0.2152425 -44.14 0.0009320789    1.443    0.307
       159  -9.6488     28.0000     33.8259   6.5465135673e+01   6.8049994678e+01    0.1747633   0.07057989 -42.79 0.0004922495    2.686    0.628
       160 -10.0989      6.2038     34.3865   7.8809918725e+01   7.0528593745e+01    0.1804642    0.1353451 -15.80  0.001138575    1.119    0.106
       161 -11.8281    212.9570     31.8772   2.2947837425e+01   3.0160391943e+01    0.1888029    0.1469121 -71.77 0.0002563179    1.040    0.038
       162 -10.8854    145.2050     32.5608   3.0238643184e+01   4.3903184056e+01     0.222724    0.1813933 -85.40 0.0003149294    1.091    0.083
       163  -9.4963    128.0134     32.9681   3.3018623852e+01   4.7717806598e+01    0.1517667    0.1275778  76.19 0.0003801903    1.024    0.024
       164 -10.3547     31.8161    247.7055   1.0335329344e+02   1.5819303859e+01    0.1934543    0.1563521   3.67 0.0007491364    1.399    0.285
       165  -9.8461     83.7571     22.0391   3.8763159373e+01   5.8925630810e+01    0.2559496    0.1323153  34.87  0.001188408    2.332    0.571
       166 -10.2561     55.0826     32.9093   5.2338988514e+01   6.3609510620e+01    0.1923724    0.1583283  28.56 0.0002718491    1.056    0.053
       167 -12.3435     11.0848     29.8403   7.3790009029e+01   7.0830663791e+01    0.2985187    0.2010414  29.35  0.001794219    1.478    0.323
       168 -10.1582     39.1700     29.9652   5.8054976924e+01   6.6878624913e+01    0.2418321    0.1398551  19.54 0.0005431809    1.953    0.488
       169 -11.1093    135.7006     29.0975   3.0713658661e+01   4.6423464196e+01    0.2185386    0.1573479  72.10 0.0002833061    1.201    0.167
       170  -9.5728    132.0117     26.5134   3.0567946255e+01   4.7540172943e+01    0.1812239    0.1078015  70.67 0.0005741877    1.464    0.317
       171  -9.9112     21.1615     37.8252   7.0980493005e+01   6.8310767272e+01    0.1832663     0.157137  19.06 0.0005162311    1.201    0.167
       172  -9.8052    202.1776     28.4046   2.3137478599e+01   3.2569568529e+01    0.1522893   0.08802893 -87.57 0.0004668114    1.616    0.381
       173 -10.9101    165.1224     26.7779   2.6316462217e+01   4.0226962577e+01     0.208937     0.169624  75.51 0.0002289225    1.178    0.151
       174  -9.2124    144.2773     27.6392   2.9093953469e+01   4.4668320925e+01     0.128769   0.08092595 -68.28 0.0007009385    1.664    0.399
       175 -10.4771    216.8903     25.6466   2.1492354688e+01   3.0164505747e+01    0.1817686    0.1321849 -64.30 0.0002683955    1.054    0.052
       176 -11.1248    212.8826     23.7807   2.1430786319e+01   3.1099650338e+01    0.2399398    0.1273575 -63.47  0.000215464    1.579    0.367
       177 -10.1627     90.1653     24.7194   3.8115211510e+01   5.7218552371e+01    0.2625532    0.1650134 -51.25  0.001402905    1.976    0.494
       178  -9.8584     59.6912     25.3222   4.7444457380e+01   6.3664118021e+01    0.2561005    0.1559354 -48.47  0.001227274    2.269    0.559
       179  -9.5482    230.2065    247.3950   5.9361590864e+01  -5.9735600192e+00    0.1293317   0.09262741  17.41 0.0004421125    1.506    0.336
       180 -10.3649    131.3583    247.1052   7.9187960108e+01   4.5008667749e+00    0.1792481    0.1583329 -10.59 0.0008033315    1.113    0.102
       181 -10.3827    116.1099    247.0236   8.2752619992e+01   6.3617832381e+00    0.2058053     0.165404 -12.09  0.001215204    1.215    0.177
       182 -10.4486     38.8603     13.8666   5.0754105941e+01   6.8951413608e+01    0.1876937    0.1495416  31.66 -0.0006383859    1.018    0.017
       183  -9.4841    243.3124    244.3606   5.6765415794e+01  -6.6425074077e+00    0.1186405   0.06013643 -18.54 0.0007041995    1.749    0.428
       184 -11.4465     33.2926     23.9568   5.8248060908e+01   6.8677201717e+01     0.277418    0.2254511  45.88 0.0002318902    1.423    0.297
       185 -10.7778     32.2679     20.5596   5.7172497577e+01   6.9291211252e+01    0.3014127    0.1754564  21.75 0.0008262276    1.740    0.425
       186 -10.1556      2.7876     26.5831   7.7949739820e+01   7.2200416835e+01    0.1677433   0.09680504  27.07 0.0004877214    1.676    0.403
       187 -10.1118    103.9232     24.8332   3.5066189094e+01   5.4105011754e+01    0.1876217    0.1483113  52.91 0.0003232716    1.162    0.140
       188 -10.2798     52.5134     23.7317   4.9487013067e+01   6.5266323288e+01    0.2758957     0.172039 -43.72  0.001500107    2.069    0.517
       189 -11.6322     47.2977     23.6421   5.1582955201e+01   6.6266100762e+01    0.3799013    0.2062573  34.57  0.001962223    1.662    0.398
       190  -9.5877     25.7516     25.0160   6.2770124353e+01   6.9700766963e+01    0.1630582    0.1373297  -2.83  0.000292837    1.135    0.119
       191  -9.7198    250.6873     23.2475   1.8989890690e+01   2.4748469836e+01    0.1236067   0.07360682 -43.16 0.0004859537    1.507    0.337
       192 -10.8495    130.1799     22.3021   2.9677678620e+01   4.8401647433e+01    0.2455435    0.2095314  43.22  0.000951378    1.381    0.276
       193 -10.4808    112.7636     22.0691   3.2482216425e+01   5.2381878319e+01     0.277091     0.182164  24.74  0.001125389    2.240    0.554
       194 -10.3518    200.7621     21.8398   2.1958630835e+01   3.3575239199e+01    0.1584186   0.09957757 -70.17 0.0006270284    1.321    0.243
       195 -10.9165    162.9718     20.7040   2.5131691890e+01   4.1344093343e+01    0.2409254    0.2075604   4.92  0.001057457    1.773    0.436
       196  -9.5022    101.0262     21.1477   3.4461280483e+01   5.5145168235e+01    0.2533711    0.1600969  -4.76  0.001308603    2.445    0.591
       197  -9.6385     97.0446     21.9780   3.5583906971e+01   5.5961387158e+01    0.1522043    0.1233913  62.84 0.0009526405    1.036    0.034
       198 -10.8228     17.0630     20.8099   6.5887228582e+01   7.1520293423e+01    0.3633626    0.2149916  16.74  0.001157968    1.555    0.357
       199 -10.6955     52.5918    243.7812   9.7984684488e+01   1.4521970241e+01    0.2426609    0.1203458 -62.85  0.001144917    2.165    0.538
       200 -12.1119     24.3918     17.9853   6.0159105811e+01   7.0869027640e+01    0.2453405    0.1746377  19.64 0.0003730758    1.170    0.145
       201  -9.7884    147.4963    243.4828   7.5005744604e+01   3.2470193653e+00     0.133519    0.1089066  -1.47 0.0001343092    1.024    0.024
       202  -9.8032    124.2855     21.0201   3.0221007439e+01   4.9867933299e+01    0.1681465    0.1454844  79.93 0.0004728236    1.042    0.041
       203 -10.2742    106.6754     21.3601   3.3400922840e+01   5.3840427690e+01    0.2099965    0.1272443  56.06 0.0003560899    1.410    0.291
       204 -10.2510     78.6699     21.2081   3.9807746076e+01   6.0128946233e+01    0.2199737    0.1470465  61.44  0.001250021    1.326    0.246
       205  -9.7058    191.3259     20.6756   2.2476885382e+01   3.5528985215e+01    0.1220182   0.06553858 -67.25  0.000704886    1.691    0.409
       206 -10.1272      2.0216     20.2256   7.5695040270e+01   7.3322785886e+01    0.2158868    0.1420389  28.19  0.001253429    1.544    0.352
       207 -10.9190     70.6615     18.7126   4.1131796332e+01   6.2115373876e+01    0.2272601    0.1888775  51.66 0.0005408171    1.038    0.037
       208 -10.6042    225.5239     17.9974   1.9546326564e+01   2.9482794903e+01    0.1442583   0.08521692 -44.06 0.0004043337    1.516    0.340
       209 -10.2607     91.2401     18.0355   3.5519999987e+01   5.7662988055e+01    0.2373659     0.140688  44.37 0.0007315609    1.610    0.379
       210  -9.8616    147.7997     16.7767   2.5871958881e+01   4.5033248560e+01    0.1605153    0.1144494 -71.81 0.0003090036    1.304    0.233
       211 -10.5122     37.7010    241.5502   1.0147850206e+02   1.6586906427e+01    0.4622835   0.09109487  45.81  0.001357474    4.862    0.794
       212  -9.2696     43.2891     17.6572   5.0584585940e+01   6.7717071895e+01    0.1103941   0.09799782  83.10 0.0007023589    1.649    0.394
       213 -10.3683    239.9822     15.3079   1.8264984834e+01   2.7329443501e+01    0.1366911   0.09723133 -72.92 0.0003817282    1.091    0.083
       214 -12.2750      2.2685    233.4234   1.0956692602e+02   2.1680559624e+01    0.6436563    0.3444567 -79.52  0.002398131    1.854    0.461
       215 -10.5618     31.7203    233.0579   1.0231963012e+02   1.9117389892e+01    0.3709296    0.1463736  27.20   0.00158175    2.211    0.548
       216  -9.3802     55.2756    231.6256   9.6180804699e+01   1.6961118797e+01     0.143983   0.09303645  59.16 0.0004734448    1.692    0.409
       217  -9.7480    185.4633     12.4798   2.1260825239e+01   3.7548348221e+01     0.113093   0.08602367 -76.82 0.0001544787    1.015    0.015
       218  -9.5777    245.9888    230.5147   5.4249942515e+01  -4.8897092126e+00    0.1403815   0.09525017  11.30 0.0006660334    1.511    0.338
       219  -9.4824    242.5117    230.5263   5.4794500001e+01  -4.5891363030e+00    0.1134691   0.07982794 -21.20 0.0001800791    1.009    0.009
       220  -9.9481    139.9882    227.8397   7.4392876480e+01   7.1810147247e+00    0.2256519    0.1497898  49.18  0.001105535    2.034    0.508
       221 -10.0123    223.4647    226.0219   5.7209127886e+01  -2.1354473623e+00    0.1730276   0.07244065 -26.60 0.0006041137    2.455    0.593
       222 -11.8886      2.8663    220.7612   1.0876590579e+02   2.4587242663e+01    0.5384797    0.2193956  77.20  0.001890292    2.810    0.644
       223 -10.8452      7.7119    221.3585   1.0758416011e+02   2.4054821786e+01    0.3107991    0.1439427 -82.14  0.001424812    2.166    0.538
       224  -9.5655    210.3660    215.8090   5.7847069670e+01   8.8105764510e-01    0.1774867   0.08974259 -33.64 0.0007061675    1.662    0.398
       225  -9.7120     85.7386    215.0235   8.6194278717e+01   1.7150422224e+01    0.1858729    0.1765278 -22.40 0.0001821087    1.083    0.077
       226  -9.3370    229.6985    208.6687   5.3373430014e+01  -1.0437960418e-02    0.1233732    0.0717902 -19.58  0.000591142    1.651    0.394
       227 -10.1191     39.1601    207.2536   9.8113195333e+01   2.4606190952e+01    0.1982504    0.1867289   2.04 0.0005228447    1.132    0.116
       228 -11.0617      2.8237    205.3309   1.0788949197e+02   2.8357140715e+01    0.2433411    0.1480765  77.21 0.0009306195    1.616    0.381
       229  -9.8873    237.6702    186.4733   4.8441552788e+01   2.7201447955e+00    0.1971913    0.1065569 -28.75 0.0007169177    1.661    0.398
       230  -9.3791    229.4971    165.5378   4.6059739670e+01   7.1547277474e+00    0.1222946   0.09549823 -33.93 0.0001453054    1.018    0.018
       231  -9.2254     39.2969    151.6849   9.1255284270e+01   3.9397451144e+01    0.1548769    0.1112839  61.72 0.0004020653    1.606    0.377
       232  -9.5189     86.2757     10.3903   3.3914901170e+01   5.9478912127e+01    0.1635453    0.1022477  72.60 0.0003104525    1.496    0.331
       233 -10.5420     22.5175    150.0186   9.6863293852e+01   4.1481869435e+01    0.2259438    0.1984442  15.57 0.0008339895    1.199    0.166
       234 -10.7724      6.3826    145.2345   1.0193999821e+02   4.3994907830e+01    0.2720349    0.2192659  81.09 0.0002472764    1.271    0.213
       235 -10.8246     29.4836    139.2867   9.2859947096e+01   4.3785607558e+01     0.397517     0.221535  48.87  0.001212863    2.077    0.519
       236  -9.5206      1.8474    140.1504   1.0300341368e+02   4.5646068266e+01    0.1952657    0.1428048 -50.38 0.0003493199    1.271    0.213
       237  -9.3234    235.6669    137.6836   4.0243998431e+01   1.0985246869e+01    0.1156675   0.08280987 -19.23 0.0007047273    1.689    0.408
       238  -9.6684     21.5454    135.7874   9.5271722688e+01   4.5451987293e+01     0.194582    0.1375144 -87.54 0.0003800791    1.545    0.353
       239  -9.9945     95.9039    134.2891   6.8836081799e+01   3.5759442690e+01    0.2789256    0.2127721 -61.93  0.001296863    1.417    0.294
       240  -9.9143      8.0120    133.9880   1.0006741072e+02   4.6942098351e+01    0.2221212    0.1444625 -39.95  0.001078809    1.505    0.335
       241  -9.4465     52.7816    130.3553   8.2665505971e+01   4.3541350400e+01    0.2888944    0.1286404 -64.58  0.001026178    2.408    0.585
       242 -10.4593     27.9998    129.7392   9.1897945921e+01   4.6514694382e+01    0.2496806    0.2086849 -81.65 0.0003197146    1.264    0.209
       243  -9.7556     14.6012    129.7911   9.7036066717e+01   4.7624068091e+01    0.1902266    0.1623466  57.32 0.0001649228    1.293    0.227
       244  -9.9780     11.3390    128.3237   9.8082244537e+01   4.8251091356e+01    0.2810352      0.22952  40.15 0.0008838386    1.334    0.251
       245  -9.1878     92.4374    129.4424   6.8804761463e+01   3.7558606822e+01    0.1525941    0.1512459  37.73 4.533165e-06    1.051    0.049
       246  -9.5829    247.3319    126.7043   3.6865820652e+01   1.1165528074e+01      0.11131   0.07553921 -63.73 0.0002141874    1.639    0.390
       247  -9.2378     78.4623    126.4879   7.2699292136e+01   4.0693140864e+01    0.1535711    0.1513408   4.49 0.0002524221    1.036    0.035
       248  -9.7515     65.1177    125.1680   7.7067040069e+01   4.3145507335e+01    0.2018738    0.1772943  58.90  0.001014658    1.278    0.218
       249 -10.0492     74.6564    124.3426   7.3508870134e+01   4.1856052830e+01    0.1632398    0.1215412  68.23 0.0007047286    1.785    0.440
       250  -9.7914    208.4497    123.3066   4.1344518904e+01   1.7466689509e+01    0.1679252    0.1037337 -51.00 0.0006247839    1.432    0.302
       251 -10.0057     26.5909    122.1352   9.1158234641e+01   4.8683229735e+01    0.3815128     0.251354 -10.75   0.00175924    1.713    0.416
