#   1 NUMBER                 Running object number                                     
#   2 MAG_AUTO               Kron-like elliptical aperture magnitude                    [mag]
#   3 X_IMAGE                Object position along x                                    [pixel]
#   4 Y_IMAGE                Object position along y                                    [pixel]
#   5 X_WORLD                Barycenter position along world x axis                     [deg]
#   6 Y_WORLD                Barycenter position along world y axis                     [deg]
#   7 A_WORLD                Profile RMS along major axis (world units)                 [deg]
#   8 B_WORLD                Profile RMS along minor axis (world units)                 [deg]
#   9 THETA_WORLD            Position angle (CCW/world-x)                               [deg]
#  10 FWHM_WORLD             FWHM assuming a gaussian core                              [deg]
#  11 ELONGATION             A_IMAGE/B_IMAGE                                           
#  12 ELLIPTICITY            1 - B_IMAGE/A_IMAGE                                       
         1 -11.6832     80.4375     23.3190   9.0109289305e+01   6.1203579777e+01    0.6022534    0.3194295  26.50 0.0004755288    2.240    0.554
         2  -8.9727    230.7966     18.8109   5.7248245998e+01   2.4647698557e+01    0.4395081    0.1924881 -22.97  0.001853665    2.211    0.548
         3  -9.1301     79.3262     12.9370   8.5601703252e+01   6.2974005545e+01    0.4042127    0.2494242  42.10  0.001379936    1.611    0.379
         4  -9.0650     74.4582     13.5010   8.7763689618e+01   6.3805711124e+01    0.3386546    0.2259669   4.91  0.001271087    1.619    0.382
         5  -9.2407     64.3226     14.0272   9.2231853125e+01   6.5486670696e+01    0.3316549     0.201631   8.78  0.001008751    2.026    0.506
         6  -9.4793    134.4144     13.3580   6.9785007860e+01   5.0306732785e+01    0.4229521    0.2411788  31.12  0.001793884    1.867    0.465
         7  -8.3420    105.7687     13.8299   7.7229394149e+01   5.7260396077e+01    0.2592216    0.1297469  22.32 0.0009428781    2.775    0.640
         8  -8.8084     89.1995     12.3378   8.1759615573e+01   6.1080387782e+01    0.5015175    0.1944146  37.09  0.001857328    2.756    0.637
         9  -9.1201     32.0126     11.0417   1.0674216886e+02   7.0299218235e+01    0.3719429    0.2014603  -7.84 0.0004250136    2.440    0.590
        10  -9.1656    130.8479      8.5909   6.8608394210e+01   5.1720472772e+01     0.500348    0.2896764 -18.03  0.001823769    1.795    0.443
        11  -8.3272     96.5748     12.1344   7.9235111606e+01   5.9532399364e+01    0.3038602    0.1563934  35.41  0.001287156    1.938    0.484
        12  -8.3984    125.0279     10.2221   7.0603414660e+01   5.3028640754e+01    0.2446135     0.197745  21.99 0.0005323064    1.169    0.145
        13  -8.5028    156.2036      7.5164   6.3350482732e+01   4.5153266162e+01    0.3220779    0.1785446 -13.89  0.001127657    1.963    0.490
        14  -9.1224    119.1909      7.0087   7.0601995390e+01   5.4819394947e+01    0.2717091     0.207532  23.17 0.0002411086    1.242    0.195
        15  -9.6544     46.6488      6.5381   9.6672053253e+01   6.9331332869e+01     0.296316    0.2077234   4.93 0.0002485939    1.400    0.286
        16  -8.7670     41.1737      6.0075   9.9237840833e+01   7.0136085620e+01    0.3625195    0.2020068 -23.49  0.001593998    1.722    0.419
        17  -8.0394    100.2647      6.7940   7.5562455488e+01   5.9343771501e+01    0.2017826    0.1442771  22.32  0.000453448    1.327    0.246
        18  -8.9884     76.5004      5.8407   8.3059409567e+01   6.4472234371e+01    0.3813139    0.2742088 -25.42  0.002109718    1.348    0.258
        19  -9.0662     31.9910      6.2981   1.0443822660e+02   7.1149397282e+01    0.2472471    0.1649352 -16.58 0.0003573379    1.377    0.274
        20  -9.9640      7.8962      5.2865   1.1848500243e+02   7.3250143977e+01    0.4499794    0.2175641 -10.79  0.002416209    2.414    0.586
        21  -8.8191     84.9697      5.3537   7.9737952885e+01   6.2835913368e+01     0.313835     0.183585 -21.36 0.0006539099    1.651    0.394
        22  -8.0867    111.1854      4.5883   7.1513189210e+01   5.7021416599e+01    0.2666494    0.1728983  24.27 0.0007396577    1.542    0.351
        23  -8.3686    110.4981      1.5177   7.0272988697e+01   5.7490220218e+01    0.2573825    0.2002297  48.79 0.0006706946    1.196    0.164
        24  -8.6092     92.3893      5.0706   7.7134542872e+01   6.1291481381e+01    0.4104179    0.1767979  47.90  0.001625836    2.106    0.525
        25  -8.8601     71.1479      9.0655   8.6841038467e+01   6.5043026850e+01    0.2710486    0.1817046  29.87  0.001337005    1.431    0.301
        26  -8.3894    143.1998      2.1831   6.3575665115e+01   4.9100367125e+01    0.2375314    0.2086458  37.05 0.0002830762    1.042    0.040
        27  -8.0520    134.1167      3.1712   6.5690659743e+01   5.1395949326e+01    0.2222392    0.1744399  34.87 0.0003495149    1.171    0.146
        28  -8.5676    104.5184      2.1954   7.2159908476e+01   5.8848722896e+01    0.3349295    0.1740084  29.38  0.001422997    2.026    0.506
        29  -8.4365     56.7054      3.1190   8.9906529700e+01   6.8350325141e+01    0.3678316    0.1536197  29.84  0.001524638    2.786    0.641
        30  -8.1781    175.5362      4.7940   5.9478829800e+01   4.0204485786e+01    0.3384849     0.134646 -22.82  0.001283132    2.530    0.605
        31  -7.1834    159.4718      1.5088   6.0635487006e+01   4.4810666629e+01     0.149192    0.1304246  43.44 0.0002028769    1.064    0.060
        32  -8.0745      3.1748      1.5302   1.1999770551e+02   7.4214458480e+01    0.1804533    0.1047976  14.14 0.0008151518    1.997    0.499
        33  -7.6704     93.8191    103.3538   1.1160281497e+02   4.2725557287e+01    0.1966598    0.1326087  23.92 0.0006206624    1.721    0.419
        34  -9.0995    218.1526    250.2931   1.0958314088e+02  -1.5477633370e+00    0.2255583   0.06493086  34.43  0.001053209    2.563    0.610
        35  -9.7498    199.0683    248.8605   1.1256976606e+02   1.2398217710e+00    0.2132715    0.1185834  33.98  0.001418263    1.258    0.205
        36  -9.8423     16.0039     94.9974   1.3408198117e+02   5.3136859215e+01    0.3464085    0.1794303 -81.83  0.001111771    1.701    0.412
        37 -10.4390     12.3159     93.8788   1.3508198504e+02   5.3605992910e+01    0.5431787    0.2394579 -33.98  0.002540911    3.204    0.688
        38  -8.2803    250.1389     94.6252   7.4432758527e+01   1.1282945023e+01    0.1926312     0.114617  37.84 0.0004134923    1.728    0.421
        39  -7.7197     82.7531     93.9919   1.1282479281e+02   4.6523675861e+01    0.2824887    0.1795422  -0.57  0.001179406    2.692    0.628
        40  -8.8563     43.6220     92.2761   1.2499938949e+02   5.1644389910e+01    0.3448077    0.2204653 -10.42   0.00168447    2.287    0.563
        41  -8.1156    109.5088     91.3266   1.0400555792e+02   4.2640730166e+01     0.278835    0.1811598  10.14  0.001135546    2.371    0.578
        42  -7.5339     95.4041     90.7723   1.0811253658e+02   4.5246159589e+01     0.209368    0.1262872 -39.76 0.0008616099    1.698    0.411
        43  -7.8980     56.6746     91.7118   1.2066708156e+02   5.0434056026e+01    0.1320876    0.0935448 -32.34 0.0007010958    1.609    0.379
        44  -8.7616      2.0787     90.4653   1.3785005381e+02   5.4891306340e+01    0.2371346    0.1251083 -74.70 0.0007563886    1.469    0.319
        45 -10.3431     37.2871     81.1189   1.2514560852e+02   5.4788495841e+01    0.6529926    0.3317178 -19.95  0.002760696    3.413    0.707
        46  -7.7646     66.1687     84.5804   1.1601834060e+02   5.0939679526e+01    0.1790583    0.1313999   9.73 0.0006921958    1.676    0.403
        47  -7.4674    109.0103    106.4873   1.0793577614e+02   3.9479207935e+01    0.2055857     0.128069  12.89 0.0008104895    2.577    0.612
        48  -7.5121    127.1535     83.6091   9.6775502794e+01   4.0741771495e+01    0.2247314    0.1385283  32.33 0.0009467331    1.751    0.429
        49  -8.7942     87.8317     79.0701   1.0742459767e+02   4.9054787425e+01    0.5783089     0.326092   6.32  0.001920723    4.091    0.756
        50  -9.8303      7.6848     77.7274   1.3473129856e+02   5.7503520246e+01    0.5529981    0.2248698 -31.12  0.002406085    3.411    0.707
        51  -8.0782    183.9903     78.0713   8.1431522287e+01   2.8577732800e+01    0.2430011    0.2167803  17.91 0.0007933648    1.069    0.064
        52  -8.9874     48.6941     77.4087   1.2043191556e+02   5.4579566419e+01    0.3975346    0.2264503 -12.60  0.001753274    2.888    0.654
        53  -7.4442    105.4828     76.4665   1.0104098474e+02   4.6523232346e+01    0.1481264    0.1393645 -13.07 0.0008094368    1.014    0.014
        54  -8.9512     32.5673     63.0840   1.2329683428e+02   5.9312286509e+01    0.5372185    0.1137377 -65.12  0.001704673    4.308    0.768
        55  -9.3491     29.0593     68.9717   1.2582176715e+02   5.8234318989e+01    0.3577044    0.1928173 -20.25   0.00173992    2.600    0.615
        56  -9.5598     24.1176     73.5328   1.2843636153e+02   5.7533603174e+01    0.4794358     0.155666 -54.24  0.002056931    2.355    0.575
        57  -8.3064     23.4585     69.4778   1.2797951514e+02   5.8506543137e+01    0.2038729    0.1751758 -56.42 0.0004800886    1.073    0.068
        58  -8.0655     74.8078     74.5829   1.1058392423e+02   5.2027584699e+01    0.2022956     0.169399   2.31 0.0003862645    1.329    0.247
        59  -9.5155    238.5337     67.7225   6.9328110723e+01   1.7189099569e+01    0.3372616    0.2366289 -31.52 0.0006509476    1.328    0.247
        60  -7.9793    106.0222     67.3929   9.8067285840e+01   4.8275752545e+01    0.3055845      0.21858  13.09  0.001408718    1.713    0.416
        61  -8.6308     83.5286     64.4985   1.0461935570e+02   5.2887223119e+01    0.5341743    0.3158539 -10.30  0.001993205    3.151    0.683
        62  -9.5378    242.9811     63.4652   6.7627056763e+01   1.6739638783e+01    0.2667981    0.2282417  87.38  0.001315069    1.447    0.309
        63  -9.8751     36.9544     59.6177   1.2079275620e+02   5.9736445206e+01    0.4724035    0.2043926 -41.75  0.002145692    2.223    0.550
        64  -9.2688     17.8742     62.1553   1.2878061160e+02   6.0519224616e+01    0.4237186    0.1839389 -38.91  0.002057253    2.383    0.580
        65  -9.6682     61.9140     61.4929   1.1158998607e+02   5.6661859193e+01    0.7428427    0.2809191  22.62  0.002586296    3.981    0.749
        66  -8.0919     95.6403     60.4975   9.9178394469e+01   5.1621937984e+01    0.2905032    0.1725629 -18.71  0.001109447    2.399    0.583
        67  -9.1864     27.1763     60.0489   1.2475308313e+02   6.0404266198e+01    0.2442662    0.1707521  24.58  0.001219509    1.689    0.408
        68  -7.6544    111.2152     58.5495   9.3501793660e+01   4.8958568401e+01    0.2087046    0.1383035  30.20 0.0006187785    1.611    0.379
        69 -10.1700     74.9455     50.3330   1.0307644683e+02   5.7187784828e+01    0.4471591    0.2992063 -19.69 0.0003600919    1.707    0.414
        70  -8.3026    118.5180     51.1738   8.8689394868e+01   4.8738818357e+01    0.2623513    0.1994332  39.11  0.000531723    1.293    0.227
        71  -9.0759     45.0758     49.3984   1.1475257738e+02   6.1240570131e+01    0.3738409    0.1953014 -31.49  0.001462509    2.136    0.532
        72  -9.5423     12.3081     45.9178   1.2793217995e+02   6.4467115482e+01    0.6097456    0.2316528 -36.99  0.002450132    2.658    0.624
        73  -8.7536     92.1341     36.8382   9.1650882986e+01   5.6734312689e+01     1.021372    0.1592523 -38.47  0.002444623    6.074    0.835
        74 -10.6449     83.1945     40.0848   9.6172162816e+01   5.7809354003e+01    0.4152313    0.2612212 -21.16  0.000223532    1.750    0.429
        75  -8.8141     87.9698     38.0023   9.3599192305e+01   5.7320936414e+01    0.3333536    0.2309206  18.39 0.0008319231    1.598    0.374
        76  -9.1612      2.3744     44.7664   1.3198427292e+02   6.5133099005e+01    0.2172268     0.131865 -57.94  0.001370947    1.239    0.193
        77  -7.7154      2.8326     25.1795   1.2770003428e+02   6.9386686270e+01    0.2274429   0.08668334 -50.84 0.0004553126    1.817    0.450
        78  -9.4811      6.5393     33.6215   1.2787591608e+02   6.7428234573e+01    0.3619134    0.2040075 -32.67  0.001491228    1.701    0.412
        79  -9.3501      1.8730     30.2402   1.2936346061e+02   6.8332746984e+01    0.3802002    0.1897105 -86.48  0.001928871    2.482    0.597
        80  -9.4474     57.8569     41.4722   1.0676724409e+02   6.1430831912e+01    0.5473092    0.2713127 -20.66  0.001970188    3.642    0.725
        81  -8.2886    106.4261     49.1873   9.1662141559e+01   5.1681186270e+01    0.4203324    0.2148364  20.63  0.001313836    3.836    0.739
        82  -7.5098    124.2082     39.5877   8.2743817362e+01   4.9360788002e+01    0.2068562      0.13405  38.47 0.0003217538    1.509    0.337
        83  -9.4661     69.9876     36.0312   9.9680953316e+01   6.0764978063e+01    0.6163108    0.3458698   3.22  0.002319762    3.323    0.699
        84  -8.4687     35.7376     38.0136   1.1534129999e+02   6.4587242237e+01     0.249429    0.1783442 -51.04 0.0008921808    1.192    0.161
        85  -8.7847     38.6987     35.4389   1.1312613157e+02   6.4851032250e+01    0.2492776     0.184389  -3.57 0.0007415385    1.463    0.317
        86  -9.5601     22.9799     35.5115   1.2053365569e+02   6.6131464083e+01    0.4652822    0.2292125  18.56  0.002455615    2.375    0.579
        87  -9.0983     22.0115     32.0439   1.1997988687e+02   6.6938797692e+01    0.2883124    0.2466797  14.95  0.001146229    1.390    0.280
        88  -8.0178    105.9909     36.5021   8.6906759803e+01   5.3957049730e+01    0.2193741    0.1142503  27.36 0.0008102551    2.520    0.603
        89  -8.9525     56.4937     34.9794   1.0493811061e+02   6.2909902481e+01    0.3254496    0.1908824 -25.84 0.0008084151    1.824    0.452
        90  -9.1942     41.8517     27.1798   1.0860513722e+02   6.6203885938e+01    0.3641175     0.216499 -58.44  0.001211912    1.908    0.476
        91  -8.4548     61.9086     26.9003   9.9272959977e+01   6.3683178470e+01    0.2107862    0.1578389 -12.66 0.0004135715    1.282    0.220
        92  -8.9038     63.6715     23.0016   9.6781685544e+01   6.4108095600e+01    0.2553573    0.2231904 -17.04  0.001565933    1.088    0.081
        93  -7.5386    109.6869     26.6780   8.1712335901e+01   5.4650863283e+01    0.1571342    0.1058888  16.80   0.00025666    1.656    0.396
        94  -9.9594    205.0498    249.7086   1.1167535641e+02   3.1886576748e-01    0.3325535    0.1475657  29.36  0.001936559    1.775    0.437
        95  -8.3267     25.5330     25.4536   1.1608176266e+02   6.8063921208e+01    0.2895032    0.1138374 -36.31 0.0009890938    2.428    0.588
        96  -8.6030     28.5638     20.6855   1.1274579372e+02   6.8780309157e+01    0.3162078    0.2112923 -43.88  0.001332662    1.203    0.169
        97  -8.2709    144.8258     23.4069   7.1478038380e+01   4.6465592910e+01    0.2365123    0.2044533  -8.01 0.0003122211    1.167    0.143
        98  -7.6205    118.4818     24.4840   7.8280941689e+01   5.2914316975e+01    0.1512658    0.1353046  17.72 0.0001327715    1.007    0.007
        99  -8.2960    129.3862     22.1206   7.4495652127e+01   5.0560706934e+01     0.312703    0.1789793  41.72   0.00120723    1.654    0.395
       100  -8.4444     46.1787     20.9482   1.0390898152e+02   6.6898814321e+01     0.324643    0.1651131 -46.06  0.001316863    1.785    0.440
       101  -9.7150    170.6440    249.6810   1.1749519719e+02   5.1668196836e+00    0.3051319    0.1231587  46.31  0.001636477    2.203    0.546
       102  -8.1973     92.6973     20.6193   8.4459727078e+01   5.9210249071e+01    0.2774106    0.1866107  13.03 0.0009839161    1.635    0.388
       103  -8.4114    140.3539     19.9263   7.1100996218e+01   4.8037126597e+01    0.2688456    0.1969267  47.19 0.0003707585    1.259    0.206
       104  -8.3295      9.5499     19.6095   1.2259324059e+02   7.0278450737e+01    0.2427314    0.1462941 -17.76  0.001077293    1.743    0.426
       105  -7.9091      5.0594     18.7047   1.2477504643e+02   7.0668518754e+01    0.1571118    0.1215603 -44.80 0.0003769672    1.054    0.052
       106  -8.4613    127.4292     16.9060   7.2836169075e+01   5.1680858933e+01    0.2704463    0.1935421  42.48 0.0005108424    1.282    0.220
       107  -8.5331    121.1790     14.9930   7.3568110935e+01   5.3454446520e+01    0.2516443    0.1524737  14.97  0.001070029    1.957    0.489
       108  -8.8962    162.5133    248.8593   1.1879958721e+02   6.4069039831e+00    0.1874682    0.1180257  28.37  0.001130551    1.336    0.251
       109  -8.0126    110.0573    247.4734   1.2771722859e+02   1.3738501052e+01     0.158619   0.07721633  39.91 -5.709089e-05    1.501    0.334
       110  -8.0446    115.5769    243.2277   1.2639905684e+02   1.3585414483e+01    0.1621035    0.1052217 -70.16  0.001143266    2.109    0.526
       111  -8.2604    246.6181    239.7702   1.0350675726e+02  -4.4748565387e+00    0.1224243   0.09165228 -16.66 0.0009024895    1.617    0.382
       112  -9.3525    187.9576    233.5314   1.1251313743e+02   4.4742095370e+00     0.262615    0.1837356 -54.91  0.001708136    2.479    0.597
       113  -8.0473    250.6599    231.2556   1.0159218722e+02  -4.2831763818e+00    0.1451371    0.0825425  -7.00 0.0009454485    1.733    0.423
       114  -7.4693     40.2744    211.5045   1.3752459469e+02   2.7441355548e+01    0.1234121   0.09081026  28.74  0.000926287    1.624    0.384
       115  -7.8270     12.4952    206.9854   1.4223252989e+02   3.0769414780e+01    0.1465441    0.0522218  70.11 0.0008105184    2.574    0.611
       116  -7.6117    167.3411    196.3236   1.1109094086e+02   1.2504704241e+01    0.1296662   0.08731822  13.42 -0.0001266978    1.727    0.421
       117  -7.0001    157.0000    181.9771   1.1093788666e+02   1.6436929940e+01    0.1869351   0.07564773 -45.41  0.000798932    2.918    0.657
       118  -7.2564    203.2531     13.2935   5.8676094190e+01   3.2080564353e+01    0.1388063    0.1024161  30.41 0.0002051907    1.488    0.328
       119  -7.7413     96.0628    178.8723   1.2356883921e+02   2.6620628448e+01    0.1505277    0.1339959  28.03 0.0003889147    1.246    0.198
       120  -7.5959    178.9194    148.1805   1.0006222026e+02   1.7942076128e+01    0.1953418    0.1487096  15.35 0.0003517514    1.320    0.243
       121  -9.2606     67.1710    144.6751   1.2604869245e+02   3.7315835983e+01    0.4008065    0.2455647  63.34  0.002156788    1.756    0.431
       122  -9.3405    225.7492    141.7627   8.9454931874e+01   9.7892538288e+00    0.2553281     0.209429  29.01  0.000472776    1.167    0.143
       123  -7.5081    188.3368    133.3016   9.4834196438e+01   1.8497813498e+01    0.1532098    0.1044784  13.71  0.000703654    1.663    0.399
       124  -8.0121      5.2260    133.7801   1.4021944231e+02   4.5286417959e+01    0.1402682   0.08876011  -1.02 0.0008732632    2.453    0.592
       125  -8.2639    243.7980    123.3505   8.2209628533e+01   8.8062183703e+00    0.1838163    0.1126074  34.50 0.0005431617    1.568    0.362
       126  -7.8014    229.3002    123.3174   8.4650623860e+01   1.1640329124e+01    0.1469207   0.09679972  11.43 0.0004180985    1.617    0.382
       127  -7.3737     84.6524    121.6898   1.1793380831e+02   4.0034814403e+01    0.1353774    0.1037561 -21.09 0.0007045098    1.709    0.415
       128  -7.7686    119.9637    118.5120   1.0767505429e+02   3.4951557545e+01    0.2102474    0.1264726  16.29 0.0008100204    2.655    0.623
       129  -7.8917    100.5400    118.5225   1.1293405901e+02   3.8304886606e+01    0.2459551    0.1361822  24.78  0.001030835    2.309    0.567
       130  -7.3987     15.3247    114.6736   1.3625005729e+02   4.8767676756e+01    0.1213733   0.07145654  66.70  0.000704918    1.693    0.409
       131  -7.2732    131.3107    113.3311   1.0349860042e+02   3.3872864210e+01    0.1515399     0.115335  -1.99 0.0004440389    1.671    0.402
       132  -9.1273      2.1398    109.7777   1.3940383447e+02   5.0614897599e+01      0.30101    0.1352936 -58.26  0.001688793    2.005    0.501
       133  -7.8280    124.0098    107.5141   1.0403552743e+02   3.6487572691e+01    0.2097316    0.1281893  17.24 0.0007490597    2.486    0.598
       134  -7.5587     76.2857    107.3086   1.1763446959e+02   4.4429502078e+01    0.1334669    0.1003955 -30.15 0.0002894662    1.571    0.363
       135  -7.8032    133.8094    106.1913   1.0109750054e+02   3.4823395581e+01    0.2108005    0.1744291   3.87 0.0006493238    1.353    0.261
       136  -9.1581     14.8599    105.1364   1.3548632548e+02   5.0920888691e+01    0.3460251    0.1362546 -43.31  0.001575268    3.167    0.684
       137  -8.2783    250.0000    105.0275   7.6950783798e+01   9.9773087229e+00    0.2246706   0.07010658 -27.85 0.0007985205    2.915    0.657
