#   1 NUMBER                 Running object number                                     
#   2 MAG_AUTO               Kron-like elliptical aperture magnitude                    [mag]
#   3 X_IMAGE                Object position along x                                    [pixel]
#   4 Y_IMAGE                Object position along y                                    [pixel]
#   5 X_WORLD                Barycenter position along world x axis                     [deg]
#   6 Y_WORLD                Barycenter position along world y axis                     [deg]
#   7 A_WORLD                Profile RMS along major axis (world units)                 [deg]
#   8 B_WORLD                Profile RMS along minor axis (world units)                 [deg]
#   9 THETA_WORLD            Position angle (CCW/world-x)                               [deg]
#  10 FWHM_WORLD             FWHM assuming a gaussian core                              [deg]
#  11 ELONGATION             A_IMAGE/B_IMAGE                                           
#  12 ELLIPTICITY            1 - B_IMAGE/A_IMAGE                                       
         1 -15.2812     43.3343    201.9250   1.3557717662e+02   2.7139167331e+01     13.89804     6.156182  79.52   0.04050079    3.479    0.713
         2 -13.0109    198.2809     34.0336   6.2477248990e+01   3.2150641196e+01     1.161472    0.8930926  65.58  0.006980385    1.256    0.204
         3 -13.8083    213.8708     16.7640   5.7010965356e+01   3.0727229539e+01     1.349549     1.019268  40.04  0.008305417    1.968    0.492
         4 -11.6043      2.0787     13.8429   1.1023760234e+02   7.1032810186e+01    0.5136392    0.1621247 -46.44  0.002579521    3.121    0.680
         5 -10.2686      1.8701      4.5053   1.0639261272e+02   7.2267111348e+01    0.3485265    0.1178305 -38.06  0.001940689    2.524    0.604
         6 -11.1432     16.6225     25.4445   1.0778490424e+02   6.8213200868e+01    0.2252127    0.1704345  13.59 0.0006164006    1.320    0.242
         7 -11.0719    180.0242    249.1145   1.1228248693e+02  -4.4065890688e+00     0.428325    0.1622677  29.60  0.001615433    3.060    0.673
         8 -12.0225    140.2368    248.6941   1.2041031061e+02   2.1915345723e+00    0.5452532        0.372  58.34   0.00294243    1.569    0.363
         9 -10.7862    102.5044    242.5005   1.2747742594e+02   9.5674290376e+00    0.2331022    0.1618479 -31.99  0.001175817    2.282    0.562
        10 -10.8026    100.9706    249.3311   1.2860821256e+02   8.4394582729e+00    0.2410878    0.2126698 -69.33  0.001201883    1.277    0.217
        11 -10.4770     93.6169    250.2171   1.3020304922e+02   9.4050841521e+00    0.2784632    0.1863773  48.97 0.0007832354    1.268    0.211
        12 -10.5681     90.5278    247.0226   1.3047427321e+02   1.0518944572e+01    0.2224013    0.1550317  63.34 0.0008824674    1.309    0.236
        13  -8.7082     62.7891    250.6074   1.3634151085e+02   1.3834213869e+01    0.1743584   0.09201452  50.88 0.0004164038    1.585    0.369
        14 -11.2918     30.4422    248.5516   1.4223776355e+02   1.8410032502e+01    0.6253552    0.5825211 -22.77  0.004560777    1.793    0.442
        15 -10.6085     39.4265    247.0781   1.4047725533e+02   1.7621346844e+01    0.3910786    0.3121409 -89.61  0.002353796    1.180    0.152
        16 -12.0783     12.3345    237.9819   1.4479942419e+02   2.2618288795e+01      0.62743    0.2795759 -85.72 0.0007167529    1.969    0.492
        17 -10.5651     22.8894    245.6264   1.4340049855e+02   1.9883815200e+01    0.3271926     0.153944  35.15  0.001775358    2.307    0.567
        18 -10.6375     18.1702    243.0472   1.4407743024e+02   2.0940940694e+01    0.2745874    0.1463948  51.04 0.0004429985    1.586    0.370
        19 -10.2744     17.9994    250.1814   1.4456233685e+02   1.9509087336e+01    0.3239779    0.1241096  42.82  0.001724733    2.223    0.550
        20  -9.3343      8.0387    250.5195   1.4629942277e+02   2.0518090077e+01    0.1574063   0.09327602  45.60 0.0006148035    1.584    0.369
        21 -10.6133      1.9221    248.1390   1.4720398892e+02   2.1622699450e+01    0.3973288    0.1468537 -80.32  0.002097225    2.295    0.564
        22  -9.4744    161.6599    249.6709   1.1611846157e+02  -1.5221492908e+00    0.1334922    0.0975798   3.74 0.0007051649    1.738    0.425
        23 -10.7387      5.3267    224.1116   1.4519238992e+02   2.6264874898e+01    0.2061746    0.1351466  79.17 0.0008588918    1.178    0.151
        24 -10.1358     19.9211    234.3278   1.4316855554e+02   2.2569910494e+01    0.1992744    0.1432876 -62.96 0.0009827988    1.600    0.375
        25 -13.1029     10.2954    207.0227   1.4303626972e+02   2.9547467467e+01     0.806026    0.6138963  33.65  0.002729906    1.631    0.387
        26 -10.5228    226.5475    201.9627   9.4694478073e+01  -3.7574811890e+00    0.4473422    0.2576397 -58.28  0.001315809    2.738    0.635
        27 -11.4889     58.6432    192.4380   1.3095902979e+02   2.7455828601e+01    0.4183863    0.2722058 -43.12  0.001588587    1.950    0.487
        28  -9.0678    191.5027    192.0007   9.9744104418e+01   4.2332616772e+00    0.2082989    0.1285727 -67.48 0.0008103115    2.719    0.632
        29  -8.0818    181.5220    192.4647   1.0196602013e+02   6.0067034125e+00    0.1451939    0.1393953   1.78 4.552497e-05    1.007    0.007
        30 -11.5746     64.8578    185.1202   1.2848678514e+02   2.8395821055e+01    0.3131741    0.2716049 -56.11   0.00054102    1.242    0.195
        31 -10.7715     75.2396    173.3875   1.2411742798e+02   2.9812988762e+01    0.2587896    0.2323106 -64.02 0.0003337901    1.111    0.100
        32 -13.1193     61.9345    170.6222   1.2710956094e+02   3.2396196178e+01    0.5771506       0.2891 -45.66  0.001697588    2.289    0.563
        33 -11.7231     82.9745    164.6293   1.2061456907e+02   3.0823164552e+01    0.7090667    0.5978548  67.31  0.003794744    1.209    0.173
        34 -10.2144     46.9246    235.2805   1.3806414316e+02   1.9153883903e+01    0.5595939    0.2246969  69.53  0.002141113    3.537    0.717
        35 -12.4358     67.4924    143.9004   1.2107106141e+02   3.8328525655e+01     0.971599    0.6450575  83.14  0.003302254    2.015    0.504
        36 -11.4971     57.3601    132.0057   1.2173501159e+02   4.2622184738e+01     1.087065    0.3902516 -71.56  0.002788666    5.878    0.830
        37 -11.1353     53.2285    118.0335   1.2016121541e+02   4.6502553560e+01    0.7403504    0.2728229 -67.97  0.002300688    4.092    0.756
        38  -9.8649     96.3642    149.6970   1.1413165573e+02   3.2349014955e+01    0.3141605      0.30157  38.24 0.0008850793    1.116    0.104
        39  -8.9913     99.7669    145.4665   1.1230797157e+02   3.2800630848e+01    0.2756158    0.1878808 -23.59  0.001146764    2.106    0.525
        40 -11.9080     84.8004    148.4118   1.1707022340e+02   3.4598373933e+01    0.3257131    0.2541698 -47.16  0.000502423    1.270    0.213
        41 -12.5001     30.5041    224.5700   1.4039622526e+02   2.3488206066e+01    0.3215612    0.2769867 -66.89 0.0007653048    1.395    0.283
        42  -9.1608     40.0995    228.9777   1.3886455732e+02   2.1377135314e+01    0.2265398    0.1478954  60.82 0.0008760269    1.317    0.241
        43  -9.2820    108.6287    135.4283   1.0762483591e+02   3.3629147494e+01    0.3424766    0.2332608 -13.52  0.001077418    2.403    0.584
        44 -10.3922     95.6989    132.4293   1.1057825642e+02   3.6707264210e+01    0.2826957    0.2371538 -25.26    0.0008957    1.341    0.254
        45 -13.6387     37.2831    216.5892   1.3832872115e+02   2.4476081211e+01    0.9280515    0.7397444  86.14  0.002640291    1.040    0.039
        46  -9.1601    106.0535    122.6866   1.0531435914e+02   3.7140368572e+01    0.1995946    0.1905902  28.06 0.0002789415    1.091    0.083
        47  -9.9104    167.7660    112.8241   8.7162816586e+01   2.6099976515e+01     0.368288    0.2742552 -76.00  0.001068536    1.647    0.393
        48  -9.3869      1.9942    221.7343   1.4565883178e+02   2.7096084594e+01     0.186285    0.1178924  72.69 0.0004891113    1.260    0.206
        49  -8.8231    203.5035    111.5067   7.9737256371e+01   1.8288983259e+01    0.1473662    0.1381027 -59.65 -1.316773e-05    1.045    0.044
        50 -10.7973    243.7211     94.1344   6.9659538436e+01   1.2997953707e+01    0.2450666    0.1591696  48.72  0.001281651    1.880    0.468
        51  -9.3911      8.3292     77.3222   1.2661609732e+02   5.9598568531e+01    0.1294377   0.06740486 -36.05 0.0004336251    1.694    0.410
        52 -10.3586     13.3590     61.0029   1.2071091165e+02   6.2502828641e+01     0.266996   0.09271318 -55.30  0.001236573    2.449    0.592
        53 -11.7418    125.8650    244.4471   1.2283051647e+02   5.3792568502e+00    0.3660665    0.2315875  52.46  0.001909251    1.485    0.327
        54 -11.3940    106.6871    243.3073   1.2670307900e+02   8.7357474929e+00    0.3545826    0.2040138 -53.08  0.001795044    1.973    0.493
        55  -9.4018    176.5122    242.5036   1.1195290016e+02  -2.7096119929e+00     0.132333    0.1167167  25.77  5.51704e-05    1.013    0.013
        56  -9.0013     56.1065    240.8645   1.3675567305e+02   1.6759611814e+01    0.1920835    0.1378637  68.28 0.0003991091    1.163    0.140
