#   1 NUMBER                 Running object number                                     
#   2 MAG_AUTO               Kron-like elliptical aperture magnitude                    [mag]
#   3 X_IMAGE                Object position along x                                    [pixel]
#   4 Y_IMAGE                Object position along y                                    [pixel]
#   5 X_WORLD                Barycenter position along world x axis                     [deg]
#   6 Y_WORLD                Barycenter position along world y axis                     [deg]
#   7 A_WORLD                Profile RMS along major axis (world units)                 [deg]
#   8 B_WORLD                Profile RMS along minor axis (world units)                 [deg]
#   9 THETA_WORLD            Position angle (CCW/world-x)                               [deg]
#  10 FWHM_WORLD             FWHM assuming a gaussian core                              [deg]
#  11 ELONGATION             A_IMAGE/B_IMAGE                                           
#  12 ELLIPTICITY            1 - B_IMAGE/A_IMAGE                                       
         1 -13.3587     66.6703    143.4064   1.2717211600e+02   3.8368911157e+01     3.151314     1.420874 -81.70  0.002900135    5.967    0.832
         2 -13.2494    189.9651     15.4942   6.4333716283e+01   3.5828131472e+01    0.9578262    0.7649907  13.87  0.004916596    1.752    0.429
         3 -14.1502    202.9108     18.9615   6.3653247769e+01   3.2335114331e+01     2.245852     1.256633  40.65   0.01000856    2.510    0.602
         4 -13.7874    207.7848     11.4341   6.1354397456e+01   3.2011121015e+01     2.424401     1.431495  20.82  0.001446189    3.882    0.742
         5 -12.7220      2.8976     15.4474   1.1564145936e+02   7.0366160139e+01     1.340666    0.2830456 -40.18  0.006032004    3.334    0.700
         6 -11.7842      2.2128      4.8926   1.1155197491e+02   7.1863089109e+01     0.495982    0.2684142 -27.18  0.003483335    1.396    0.283
         7 -11.1432     75.8295    229.1303   1.3696875307e+02   1.7551591531e+01    0.3113202    0.1850349  66.26 0.0009186564    1.572    0.364
         8 -10.9238    247.7576    249.7424   1.0710144464e+02  -1.4103657008e+01    0.4368333    0.1679046  33.46  0.002128581    2.333    0.571
         9 -12.9785    137.9300    248.1497   1.2731265023e+02   3.9467068185e+00    0.8755673    0.3777956  47.94  0.004075178    1.979    0.495
        10 -12.0038    101.0096    249.0587   1.3437225445e+02   9.8506533864e+00    0.5510573    0.3540847  73.64  0.003183342    1.599    0.375
        11 -12.9056    104.3043    244.2969   1.3322714056e+02   1.0204652652e+01    0.9699619      0.41551  60.84  0.004050821    2.867    0.651
        12 -13.1360     90.0929    245.9701   1.3605779475e+02   1.2118434175e+01    0.8739009    0.4565401  52.41  0.002362962    1.594    0.373
        13 -11.1382     84.0046    238.4907   1.3640693056e+02   1.4473003968e+01    0.2393418    0.1808531  54.57  0.000668491    1.168    0.144
        14 -14.6124     35.1809    247.2783   1.4580362930e+02   1.9421383323e+01     11.39015     4.159799  29.44   0.03580245    8.666    0.885
        15 -10.0165    228.9576    206.1241   1.0264309207e+02  -5.0218113814e+00    0.2471592    0.1857715 -47.18 0.0005158591    1.574    0.365
        16 -10.0088    191.9869    192.9734   1.0730293051e+02   4.0614157446e+00    0.4719068    0.2397578 -63.00   0.00148355    4.491    0.777
        17 -11.7725     66.4684    193.8465   1.3481012923e+02   2.6501120599e+01    0.4174775    0.2508634 -46.09  0.001590265    2.171    0.539
        18 -11.7958     71.8301    186.4705   1.3267367967e+02   2.7422316935e+01    0.2996931    0.2353467 -53.06 0.0007648278    1.427    0.299
        19  -8.3673    181.4934    192.4417   1.0937046968e+02   6.2200322521e+00    0.1434965    0.1356135  32.42 0.0002286545    1.009    0.009
        20 -11.1573     80.8767    174.6600   1.2888251739e+02   2.8829249560e+01    0.2535198    0.2247813 -75.11 0.0003850241    1.088    0.081
        21 -13.3345     68.2325    172.1378   1.3146453647e+02   3.1284736505e+01    0.5120956    0.2818449 -44.67  0.001717766    2.256    0.557
        22 -10.7594    103.7198    172.6369   1.2314341798e+02   2.5556346599e+01    0.7210383    0.1741299  49.17   0.00185221    5.406    0.815
        23 -12.2487     87.3463    165.8639   1.2590112400e+02   2.9900982285e+01    0.9834958    0.5739292  58.95   0.00238565    1.939    0.484
        24 -10.8502    198.5472    248.7936   1.1587341713e+02  -6.4240312462e+00    0.2527092    0.1931246 -17.56  0.001580885    1.477    0.323
        25 -10.0181    100.1660    150.0061   1.1975902964e+02   3.1546822271e+01    0.2898214    0.2856507 -68.75  0.000783771    1.114    0.103
        26  -9.4784    102.9925    145.9981   1.1821587359e+02   3.2004257783e+01     0.331627    0.1870883 -34.75  0.001282299    2.466    0.595
        27 -12.2308     88.9586    149.1918   1.2246785260e+02   3.3633261515e+01    0.3034905    0.2601711 -40.39 0.0005027675    1.288    0.223
        28 -12.8891     41.4325    226.4540   1.4312917102e+02   2.2755923813e+01    0.4122899    0.3115327 -82.93 0.0009276301    1.210    0.173
        29  -9.6693    110.7885    135.8804   1.1399413573e+02   3.2971460575e+01    0.3470457    0.2245156 -31.04  0.001088033    2.011    0.503
        30 -10.5830     98.3621    132.8087   1.1659354888e+02   3.5955467357e+01    0.2883314    0.2329103 -30.96 0.0004269069    1.409    0.291
        31 -15.0127     48.6401    216.7935   1.4093008617e+02   2.3857892796e+01     2.073343     1.504845  52.69   0.01344488    1.323    0.244
        32  -9.5267    107.7762    122.9513   1.1176459161e+02   3.6549379351e+01    0.2117165    0.1913085 -32.35 0.0003345968    1.155    0.135
        33 -12.6100      4.6628    245.8035   1.5059306424e+02   2.3111566375e+01     1.086607    0.5320863  75.65  0.007043499    1.595    0.373
        34 -10.6768    167.9501    112.9830   9.4260481011e+01   2.5744091253e+01    0.3845094    0.2931506 -79.41 0.0008451356    1.659    0.397
        35 -10.5598     30.1705    235.6356   1.4582195973e+02   2.2267408504e+01    0.2805067    0.1253882  62.92  0.001078542    1.960    0.490
        36  -9.6864    204.2952    111.0814   8.6385638247e+01   1.7570563770e+01    0.4238325    0.2342415  33.98  0.001576804    2.621    0.619
        37 -10.9530      1.7489     88.9122   1.3592915192e+02   5.7002957782e+01     0.329961    0.1161061 -65.03  0.001327004    2.178    0.541
        38  -8.6964    184.6757     77.6453   8.1454100157e+01   2.8431193517e+01    0.1539408    0.1193573  18.35 0.0007046483    1.765    0.433
        39 -13.1056     14.4063    240.3535   1.4874861018e+02   2.3118852877e+01     1.593735    0.5551602  63.88  0.007969721    2.670    0.625
        40 -10.9246    112.7841     44.8671   8.7332096040e+01   5.0510760247e+01    0.5794923    0.3589315  80.04  0.002268084    3.378    0.704
        41 -12.0207     79.0041    232.8128   1.3675253740e+02   1.6341386267e+01    0.5613716    0.3212455  29.75 0.0003218652    2.497    0.599
        42 -10.5805    248.6672    236.4995   1.0466311198e+02  -1.2555396990e+01    0.2002363    0.1518681 -59.03   0.00115534    2.475    0.596
        43 -15.8644      8.1605    204.2701   1.4744323635e+02   3.1030659926e+01     8.888765     1.581194 -71.46   0.02035256    4.005    0.750
        44 -10.8297    248.9922    244.5095   1.0599701645e+02  -1.3629390185e+01    0.2292848     0.146064  -9.63  0.001317421    1.580    0.367
