#   1 NUMBER                 Running object number                                     
#   2 MAG_AUTO               Kron-like elliptical aperture magnitude                    [mag]
#   3 X_IMAGE                Object position along x                                    [pixel]
#   4 Y_IMAGE                Object position along y                                    [pixel]
#   5 X_WORLD                Barycenter position along world x axis                     [deg]
#   6 Y_WORLD                Barycenter position along world y axis                     [deg]
#   7 A_WORLD                Profile RMS along major axis (world units)                 [deg]
#   8 B_WORLD                Profile RMS along minor axis (world units)                 [deg]
#   9 THETA_WORLD            Position angle (CCW/world-x)                               [deg]
#  10 FWHM_WORLD             FWHM assuming a gaussian core                              [deg]
#  11 ELONGATION             A_IMAGE/B_IMAGE                                           
#  12 ELLIPTICITY            1 - B_IMAGE/A_IMAGE                                       
         1 -10.6003     16.1957     66.1221   1.2246866554e+02   6.0947402847e+01     1.285164    0.3976491 -56.63  0.005027229    2.740    0.635
         2 -10.8633     20.4424      7.3256   1.0027181967e+02   6.9914953490e+01     1.063077    0.7894843  53.31  0.006615093    3.175    0.685
         3 -11.1425     23.7175     32.1625   1.0885951331e+02   6.6250142410e+01     1.294749    0.4460815 -33.08  0.003776753    2.825    0.646
         4 -10.4023      9.8467     19.1830   1.1018520397e+02   6.9375435343e+01     1.158536    0.4481283 -14.81  0.003927058    6.512    0.846
         5 -10.0810      4.9410     41.8078   1.2024022792e+02   6.6164758615e+01    0.5799693    0.2859571 -57.58  0.003295557    2.128    0.530
         6  -9.6340      2.0578     14.1325   1.1193492177e+02   7.0680337149e+01    0.3940365    0.1783733 -51.39  0.002175545    2.886    0.654
         7 -10.3865      5.0937      4.7017   1.0646579355e+02   7.1687121395e+01    0.4204182    0.3008849 -10.16  0.001799562    1.037    0.035
         8 -10.6971    134.0463     31.0978   7.3704501544e+01   4.7386241684e+01    0.3598409    0.2702124   6.50  0.002000029    1.678    0.404
         9  -9.8785     63.9155      2.9484   8.1518367431e+01   6.4283819443e+01    0.3943304    0.2788451 -15.74  0.001747656    1.469    0.319
        10 -10.4902     62.9422     21.0674   8.9144568154e+01   6.2648236618e+01    0.8114101    0.2605184 -36.34  0.003498883    3.369    0.703
        11 -10.2012     64.5977     13.4266   8.5550860853e+01   6.3196935149e+01    0.3518561    0.2633495 -19.41  0.001863728    1.383    0.277
        12 -10.3217     69.6444     40.5957   9.4219919326e+01   5.9073195842e+01    0.9230361    0.3914846 -33.28  0.003379521    2.378    0.580
        13 -10.3425     73.7074     17.2900   8.4155324364e+01   6.1243030046e+01     1.028306    0.2533017 -29.32  0.003908423    4.243    0.764
        14  -9.3380     78.3482      3.6236   7.7511648125e+01   6.1665612204e+01    0.4374111     0.237037  -5.45  0.001993704    2.193    0.544
        15  -9.7833     79.2791     24.0739   8.5015617695e+01   5.9517958898e+01     0.571897    0.2645025  27.68  0.002220789    2.651    0.623
        16  -9.1688    102.9397     21.1387   7.7453661855e+01   5.5244961513e+01    0.4401949    0.2045301 -40.23  0.001627877    2.630    0.620
        17  -8.5008    104.0493     15.4720   7.5240910696e+01   5.5574883188e+01    0.3404793    0.1836119  23.66  0.001640587    2.355    0.575
        18 -10.6933     37.3221      9.6507   9.3997120356e+01   6.7651630677e+01    0.7147142    0.2616886 -37.46  0.002504729    3.076    0.675
        19 -10.1480     46.3296     29.8674   9.8687305717e+01   6.3994181800e+01    0.4071544    0.2442494 -44.38  0.001007241    2.060    0.515
        20 -10.2925     51.3026     15.0910   9.0877552140e+01   6.5111215053e+01    0.9919574    0.4805993   7.17  0.004224535    3.622    0.724
        21 -10.1957    154.0649     27.4320   6.8927804278e+01   4.3163257206e+01    0.6476093    0.4812869  70.83  0.003729349    1.222    0.181
        22  -9.3902    133.7842     12.6502   6.8202505943e+01   4.9361549780e+01    0.3193818    0.1984162 -47.98  0.001742589    1.949    0.487
        23  -9.0670    125.2154      5.6668   6.7634120913e+01   5.1886666223e+01      0.45457    0.2439574  14.13  0.002130594    2.946    0.660
        24  -8.4459    120.6631      5.8467   6.8538208042e+01   5.2873093603e+01    0.2647079    0.1464058  54.37  0.001225492    1.458    0.314
        25  -8.8743    132.9340     17.6303   6.9851945570e+01   4.9080023536e+01    0.2879028    0.2106172 -37.41 0.0009827437    1.566    0.362
        26  -8.6428    129.1591     16.7169   7.0289992944e+01   5.0019591851e+01    0.4903385    0.1948362 -45.08  0.002025095    3.336    0.700
        27  -8.7176    125.0643     12.9777   6.9925181451e+01   5.1284902333e+01    0.2148182    0.1837033   1.62 0.0004817932    1.344    0.256
        28  -8.8816    127.0066      9.0015   6.8330258859e+01   5.1207618427e+01    0.2888957    0.1308498  49.57 0.0005502613    1.849    0.459
        29  -8.9445    132.2304      5.4568   6.6330690400e+01   5.0341550676e+01    0.4369829     0.247356  24.59  0.001842352    2.400    0.583
        30  -8.2327    136.2106      1.5871   6.4535417789e+01   4.9761635593e+01    0.2574596   0.09346501  61.72 0.0008020814    2.130    0.531
        31  -9.3877    120.2355     16.3570   7.1954879750e+01   5.2033975060e+01    0.4101344    0.2253504  16.05  0.001858279    2.843    0.648
        32  -9.1777    141.3590     13.3525   6.7091441497e+01   4.7572134381e+01    0.3083203    0.1847498  32.63  0.001593892    2.019    0.505
        33  -8.8438    112.1402     15.5477   7.3419614986e+01   5.3863640363e+01    0.2662655    0.1940422 -43.56 0.0009960344    1.675    0.403
        34  -9.0737    114.3214     10.0185   7.1137213606e+01   5.3897040322e+01    0.3287823    0.1661313  41.14  0.001099174    1.833    0.455
        35  -9.6499     85.2551     13.0484   7.9170281198e+01   5.9544082519e+01    0.3619497    0.2494138 -57.77  0.001443162    2.489    0.598
        36  -7.8205     80.4828     12.5436   8.0319524206e+01   6.0487346264e+01     0.208939      0.15213 -53.56  0.001234078    2.160    0.537
        37  -8.1954    137.5047      9.4922   6.6622521591e+01   4.8804288700e+01    0.1261668    0.1063767  63.45 -0.0001552951    1.019    0.018
        38  -9.1400    104.3660      2.2155   7.0642576169e+01   5.6641840871e+01    0.5288554    0.1236602  52.73  0.002120561    2.896    0.655
        39  -9.0805    102.0441      8.1916   7.3204500661e+01   5.6641746496e+01    0.3143444    0.2371959 -58.21  0.001021389    1.862    0.463
        40  -8.3712    110.3147      7.6920   7.1212972349e+01   5.4952193788e+01    0.1913434    0.1624185 -34.78 0.0006073453    1.412    0.292
        41  -8.8824    110.8264      4.4149   7.0022233817e+01   5.5111061812e+01    0.2309195    0.2064307 -42.71  0.001610439    1.371    0.271
        42  -8.2923     97.7101      5.6858   7.3335541647e+01   5.7736112878e+01    0.2844043    0.1501508  -4.17  0.001315348    2.506    0.601
        43  -8.4021     95.9704      3.0213   7.2801600394e+01   5.8300114697e+01    0.2376955    0.1696999  17.83 0.0003617801    1.441    0.306
        44  -9.2072     87.1975      4.1641   7.5359882155e+01   5.9944633708e+01    0.5116018    0.2730133  34.98  0.002858218    1.687    0.407
        45  -9.1838     96.1969     14.9553   7.6979080117e+01   5.7225939076e+01     0.483801    0.2300773 -13.84  0.001947936    2.740    0.635
        46  -8.7232    115.3911      4.2245   6.9041688172e+01   5.4148937040e+01    0.2158239    0.2008973 -57.62 0.0007352417    1.308    0.236
        47  -7.4939    151.3469      1.7032   6.2297045121e+01   4.6312795026e+01    0.1253592    0.0843654 -77.67  0.000703414    1.676    0.403
        48  -9.4422     41.4098    122.0150   1.2622757642e+02   4.6573764418e+01    0.5325245    0.2529369 -74.44   0.00207111    2.618    0.618
        49  -9.6273    212.6819    249.9668   1.0814470340e+02  -9.4294312532e+00    0.3597018    0.1434065  43.10  0.001595168    2.579    0.612
        50 -10.6032    186.0570    245.0461   1.1254027689e+02  -4.5053752567e+00    0.4856577    0.2540264  22.60  0.002176464    2.354    0.575
        51 -10.4315    198.7242    247.8986   1.1050077075e+02  -6.9802115598e+00    0.4059117    0.3323575  28.36  0.002603171    1.092    0.084
        52  -9.6429     27.3032    123.0830   1.3058239309e+02   4.7680060548e+01    0.4632152    0.2797462  74.79  0.001985645    2.355    0.575
        53  -8.9572    158.0207    122.1269   9.3804046613e+01   2.6165852979e+01    0.3435193    0.2078173  63.40  0.001338782    2.092    0.522
        54 -10.5511    128.4928    100.6406   9.5494869271e+01   3.7271364180e+01     1.038191    0.6427882 -27.93  0.002993081    2.016    0.504
        55  -9.9752    108.5592    114.4260   1.0458330561e+02   3.8340911804e+01      0.58897    0.3765516 -72.45  0.001558166    2.341    0.573
        56 -11.0910    121.0929    110.0313   9.9982606372e+01   3.6825094718e+01     1.415598    0.5709633 -47.88  0.004954214    2.467    0.595
        57 -10.6958    109.2186    101.0383   1.0086128629e+02   4.1152863635e+01     1.047619    0.8214095 -79.53  0.005023537    1.689    0.408
        58 -10.2124    123.5930     91.1699   9.4158631883e+01   4.0241787884e+01    0.5415056     0.485928 -22.06  0.001024291    1.158    0.137
        59  -8.7920    126.1133     83.6981   9.1361672476e+01   4.1145482922e+01    0.5550929     0.342862  11.28  0.001969137    3.264    0.694
        60 -10.0975     91.8623    112.9165   1.0901586430e+02   4.1726022431e+01    0.6001328    0.4246138 -81.21  0.001584165    2.041    0.510
        61  -8.8417     92.2723    103.9526   1.0659045084e+02   4.3663634864e+01    0.7202976     0.409842  14.30  0.002584178    3.226    0.690
        62  -7.9032      1.2657    116.1182   1.3704947562e+02   5.1179927755e+01    0.2532596   0.06497063 -62.83  0.001003898    2.561    0.609
        63  -8.8655    152.6347    115.4722   9.3392569055e+01   2.8807742918e+01    0.2642522    0.2297339 -75.95 0.0009203171    1.247    0.198
        64  -9.9101     14.1992    111.3098   1.3251453244e+02   5.1445044161e+01    0.4170254    0.2463424  84.74  0.001641382    2.310    0.567
        65 -10.1765     78.1044    112.9937   1.1315349982e+02   4.3953955122e+01    0.5488104    0.3361889 -73.18  0.001683199    2.323    0.569
        66  -9.6033     81.1750    101.0783   1.0921538864e+02   4.6152968263e+01    0.6487846     0.384078 -37.39  0.001302984    1.717    0.418
        67  -8.5087    167.2858    114.0222   8.9665946902e+01   2.5783327631e+01    0.2243927    0.1961171 -49.39 0.0004254487    1.122    0.109
        68  -8.8672     65.1263     85.9565   1.1029698485e+02   5.1785123202e+01    0.6026992    0.3285628 -13.15   0.00217363    3.704    0.730
        69  -8.6672     64.0290    101.5281   1.1473737666e+02   4.8593983656e+01    0.2364993    0.2294343  36.37 0.0009850521    1.162    0.139
        70 -10.3504     62.9710     95.8152   1.1363838839e+02   4.9993399183e+01    0.5528171    0.3765128 -84.67  0.001576827    2.502    0.600
        71 -10.3736     66.0301    109.3556   1.1599811206e+02   4.6553045982e+01     1.061656    0.5360636 -51.93  0.002695251    1.768    0.434
        72  -9.5775     59.0482    109.4539   1.1820351468e+02   4.7459537657e+01    0.4871039    0.2463776 -60.34 0.0008197664    1.942    0.485
        73  -7.6380    189.8249    111.7928   8.4411471061e+01   2.1074665593e+01    0.2044496    0.1715282 -78.77 0.0002783977    1.286    0.222
        74  -9.2329    158.8698    111.0529   9.0806241521e+01   2.8326647743e+01    0.5458513     0.199523 -40.64  0.001423517    2.810    0.644
        75  -7.4732    202.6714    111.7317   8.1959645404e+01   1.8189831591e+01    0.1424884    0.1191191  13.79  0.000352005    1.578    0.366
        76  -9.3632     35.6473    110.9761   1.2586207048e+02   4.9734743202e+01    0.2213002    0.1796278  70.58  0.000923063    1.514    0.339
        77  -8.2311    149.7327    110.0223   9.2679874159e+01   3.0617455571e+01    0.2213399    0.1963406 -45.31 0.0003877374    1.121    0.108
        78  -8.2307    145.4588    109.3501   9.3536463527e+01   3.1719301356e+01    0.4685268    0.2805497 -12.25  0.001415056    4.124    0.758
        79  -7.7070    250.5886    109.5097   7.3760778201e+01   8.5955612649e+00    0.1369098    0.1146055 -52.71 -6.596058e-05    1.018    0.018
        80  -9.4749     31.6649    107.5152   1.2642736499e+02   5.0902282617e+01    0.2626075     0.196647 -35.26  0.001572232    1.310    0.236
        81 -10.8656     44.6936    102.4363   1.2118838335e+02   5.0753473823e+01    0.7613043     0.474514  76.92  0.002945781    3.127    0.680
        82  -9.1095     40.0088    106.7237   1.2362305721e+02   5.0276203035e+01    0.2510122    0.1725981 -64.80 0.0006102367    1.375    0.273
        83  -9.0549     14.9254    104.6935   1.3116032014e+02   5.2891012359e+01    0.3515609    0.1674196 -30.22   0.00113666    2.603    0.616
        84 -11.1245     20.5603     98.2851   1.2816692673e+02   5.3907481628e+01     1.735879    0.6145555 -69.17  0.006638107    3.304    0.697
        85 -10.4965     25.7031     77.9684   1.2192876105e+02   5.7838891804e+01    0.6131118    0.4734838  84.70  0.002142178    1.958    0.489
        86 -10.4192     32.0722     64.5123   1.1598972264e+02   5.9926314357e+01     1.208425    0.4929137 -24.78  0.004328829    4.346    0.770
        87 -10.0043     34.5830     90.8936   1.2190972348e+02   5.4326017280e+01    0.5531118    0.2714091 -71.82  0.001843755    3.034    0.670
        88  -9.8915     37.0156     80.8900   1.1862393298e+02   5.6201508615e+01    0.7863075     0.377717 -13.76  0.002896377    4.194    0.762
        89  -9.7094      6.6245    103.9773   1.3361700620e+02   5.3594765793e+01    0.4226055    0.2555313  82.22  0.001706755    2.264    0.558
        90  -8.7326    165.9978    104.2190   8.7451908766e+01   2.8082989766e+01    0.3233446    0.2181104 -45.14 0.0005965553    1.465    0.318
        91  -9.5534    149.7326    103.3728   9.0934986070e+01   3.1997247567e+01    0.4644901    0.3155534 -65.66  0.001105626    1.856    0.461
        92  -9.0797    150.4828     96.2761   8.8864025698e+01   3.3252008149e+01    0.6050976    0.3390372  27.41  0.002095657    3.037    0.671
        93  -7.7300    245.2937    106.3040   7.3834489320e+01   1.0190529108e+01    0.1261505    0.1069924  -8.28 0.0002075096    1.577    0.366
        94  -8.1246     74.0165    102.5593   1.1183084052e+02   4.6936641560e+01     0.327021    0.1778958 -49.76 0.0008541249    1.689    0.408
        95  -9.1448    158.8637    100.7603   8.8134837263e+01   3.0428495528e+01    0.4220232    0.2270736 -52.28 0.0008537198    2.028    0.507
        96  -9.4231     94.3660     97.2169   1.0415051270e+02   4.4749920631e+01     0.319625    0.2516885 -58.89 0.0006483456    1.380    0.276
        97  -8.7516     95.6838     91.3005   1.0210537038e+02   4.5748075307e+01    0.5561661    0.3297029  -9.03  0.001914736    3.607    0.723
        98  -8.9623    239.8310     96.7990   7.2582457206e+01   1.2956616131e+01    0.2665371    0.1842944  46.36 0.0009051607    1.752    0.429
        99  -8.4967    164.4419     94.3911   8.5231382176e+01   3.0376505634e+01    0.2644818    0.2264649 -67.66 0.0005494172    1.217    0.178
       100  -9.9149    138.9249     91.6647   9.0373990969e+01   3.6785304544e+01    0.6946723    0.3588197 -46.09  0.001662745    1.981    0.495
       101  -9.5579    140.6291     82.3711   8.7359425926e+01   3.8161710843e+01    0.6589131    0.3458422 -35.35  0.001344645    2.053    0.513
       102  -9.1801    139.9198     75.5484   8.5586637447e+01   3.9549700136e+01    0.4800778    0.2399287 -38.08  0.001402805    2.077    0.519
       103 -10.2162      4.5103     89.7652   1.3181674980e+02   5.6827979030e+01    0.5769971    0.3109744 -86.34  0.001849626    2.687    0.628
       104  -9.5091      6.3270     78.4491   1.2896670616e+02   5.9107901738e+01    0.7247509    0.3051305 -17.98  0.003217875    3.500    0.714
       105  -9.6614    204.5822    249.8519   1.0967991293e+02  -8.1863584374e+00    0.3413678     0.216443  41.47  0.001932339    1.542    0.351
       106  -9.8887    169.2568    248.1228   1.1638487141e+02  -2.2616885791e+00     0.353913    0.2388492 -12.92   0.00181197    2.147    0.534
       107 -10.1933    160.8797    247.3791   1.1796406209e+02  -7.4493000442e-01    0.3393912    0.3110168 -14.82  0.002206062    1.224    0.183
       108 -10.7650    191.2951    248.3974   1.1203744082e+02  -5.8857646345e+00    0.5025432    0.3755976  54.07  0.002939301    1.631    0.387
       109 -10.8501     22.1140     53.7910   1.1672345480e+02   6.2800904753e+01    0.6885648    0.4336722 -77.90  0.002851978    3.866    0.741
       110 -10.2324     12.2749     45.7374   1.1831976201e+02   6.4992311073e+01     0.861324    0.3604851   6.47  0.004156196    3.154    0.683
       111 -12.0495    241.2725    242.8593   1.0162487977e+02  -1.2511638690e+01     0.241329     0.207294  -7.99 0.0004054558    1.166    0.142
       112  -7.2176     20.4625    244.5036   1.4497213451e+02   2.0604853004e+01    0.1152401   0.08505902  76.78 -3.549539e-07    1.022    0.022
       113  -8.6283      5.8979    236.8569   1.4701004631e+02   2.3692932718e+01    0.1986109    0.1268943 -78.69 0.0005864339    1.369    0.270
       114  -9.6938      6.8182     32.6678   1.1649212761e+02   6.7563290036e+01    0.3041898    0.1755407  -8.78 0.0007904991    1.677    0.404
       115 -10.0584      7.2237     28.3312   1.1481106601e+02   6.8219279128e+01     0.324917    0.2481235  37.74  0.000990857    1.995    0.499
       116  -9.0661    157.7617     90.7008   8.5709700315e+01   3.2644573032e+01    0.3972211    0.1916454 -40.53  0.001536855    2.097    0.523
       117  -9.5643    111.1213     89.7707   9.7174290955e+01   4.3101420712e+01    0.7268712    0.3972486  26.01  0.002735556    2.657    0.624
       118  -9.0445    150.3677     89.1898   8.6969207016e+01   3.4650724896e+01    0.3100888    0.2372793  66.78 0.0006870576    1.409    0.290
       119  -7.4335     78.3917     90.1504   1.0713809287e+02   4.8932836116e+01    0.1962226     0.129349 -57.64 0.0008685248    1.690    0.408
       120 -10.3154     48.0919     84.6892   1.1573824856e+02   5.4224469720e+01    0.6187362    0.4268993 -70.15  0.001632034    1.883    0.469
       121  -9.1598     48.5535     77.3700   1.1359713376e+02   5.5665910014e+01    0.6636808    0.3804978   0.49  0.003057886    2.530    0.605
       122  -8.1425    174.8602     89.1163   8.1694420674e+01   2.8917752483e+01    0.2316392    0.1940635 -76.16 0.0006013471    1.261    0.207
       123  -8.9354    163.7072     87.4819   8.3560819985e+01   3.1853033445e+01    0.4143895    0.1848679 -45.60  0.001241209    2.278    0.561
       124 -10.1723     85.3325     86.6021   1.0393968945e+02   4.8523089810e+01    0.4582594    0.3626109 -85.80 0.0009150842    1.883    0.469
       125  -9.7708    109.8087     63.9040   8.9776927596e+01   4.8098158145e+01    0.5597731    0.3459193 -43.81  0.002614578    1.733    0.423
       126  -9.0632    110.7438     58.3233   8.7762066771e+01   4.8803386666e+01    0.4151683    0.2479798  30.75  0.001341426    1.894    0.472
       127 -10.3631    103.9378     82.6221   9.7151526614e+01   4.5921856618e+01    0.5760806    0.3026192 -51.03 0.0009988736    2.148    0.535
       128  -9.2615    105.1449     71.5100   9.3451308839e+01   4.7738651515e+01    0.7398508    0.3363039 -29.51   0.00272824    2.830    0.647
       129  -9.5803     87.2006     79.0493   1.0113807310e+02   4.9692298483e+01    0.6387858    0.3778681  12.82  0.002193118    2.705    0.630
       130  -8.2916    170.3659     83.4249   8.1112099324e+01   3.1018984701e+01    0.3271847     0.181458 -41.23  0.001184967    1.812    0.448
       131  -8.5134    157.3800     63.2839   7.8295532640e+01   3.7516349293e+01    0.2682127    0.2333002 -76.86 0.0007156074    1.213    0.175
       132  -8.9167    156.8413     69.4550   8.0113492405e+01   3.6644854535e+01    0.5613597    0.2185866 -38.05   0.00206271    2.648    0.622
       133  -8.9413    157.8424     82.6964   8.3530658063e+01   3.4110862643e+01    0.4912218    0.2288527 -32.81  0.001713747    2.524    0.604
       134  -8.7817    157.0055     76.3552   8.1979144950e+01   3.5434015704e+01    0.3806364    0.2201879 -40.57  0.001094734    1.768    0.434
       135  -8.9913    236.1898     82.3489   6.9977312196e+01   1.6183516493e+01    0.1900679     0.159256 -49.75 0.0005020829    1.136    0.119
       136  -9.6347    231.1744     80.3378   7.0220172556e+01   1.7586356461e+01    0.2440245    0.2244354  80.33 0.0003054574    1.168    0.144
       137  -9.0705    150.0095     80.0696   8.4537323608e+01   3.6418255725e+01    0.4906204    0.2207914 -35.36  0.001594129    2.432    0.589
       138  -8.7835    119.1053     80.5334   9.2292581209e+01   4.3238255156e+01    0.3174213    0.2469167 -62.11 0.0006691407    1.544    0.352
       139  -8.2845    119.9266     75.9005   9.0702654799e+01   4.3911433409e+01    0.2660529    0.2172106 -17.75 0.0005831855    1.343    0.256
       140  -9.0580     74.1640     80.1397   1.0564455227e+02   5.1624260919e+01    0.3820869    0.2329468 -60.32   0.00104126    2.169    0.539
       141  -8.3634     75.0103     74.4869   1.0367844331e+02   5.2584530258e+01     0.264635    0.1688068  17.28  0.001070385    1.868    0.465
       142  -8.2083    184.2093     78.2188   7.7124041359e+01   2.8649541322e+01     0.243403    0.1971689 -29.78 0.0008658396    1.396    0.283
       143  -7.8310    174.1294     78.8686   7.9176447857e+01   3.0931939642e+01     0.228854    0.1925892 -76.97 0.0005014064    1.236    0.191
       144  -8.7706    166.1180     78.3141   8.0615750688e+01   3.2934024376e+01    0.3667704    0.2555966 -30.62  0.001532572    1.613    0.380
       145 -10.0060    236.8794     76.3385   6.8597227361e+01   1.7031518239e+01    0.4709651    0.2398734  68.05  0.002171435    2.165    0.538
       146  -9.4915    127.3862     75.2051   8.8558148817e+01   4.2421456243e+01    0.4007536    0.2594061 -55.86 0.0008631462    1.879    0.468
       147  -9.0908    129.5764     68.8140   8.6117878500e+01   4.3041548439e+01     0.617135    0.3143313  28.10  0.002092753    3.473    0.712
       148  -8.5261    130.5052     65.0041   8.4755089793e+01   4.3465323724e+01    0.2964904    0.2328143 -33.68 0.0008576426    1.340    0.253
       149  -9.9217     81.5916     72.5143   1.0093037876e+02   5.1882153465e+01    0.3944618    0.3008765 -61.06  0.001197172    1.697    0.411
       150  -8.9896     83.5808     64.6006   9.7800164594e+01   5.2960194266e+01    0.5298392    0.3165288  -3.18  0.002173591    2.832    0.647
       151 -10.1520     62.6782     60.7333   1.0356084920e+02   5.6948488240e+01    0.8125073    0.2848803  33.35  0.001203371    3.018    0.669
       152 -10.6551     54.9755     70.8494   1.0944021499e+02   5.6150054642e+01    0.7028172    0.4922623  63.43  0.001183034    2.592    0.614
       153  -8.2821    162.6850     73.0226   7.9888910137e+01   3.4660883757e+01    0.2971226    0.2036744 -60.93 0.0007463844    1.680    0.405
       154  -9.4056    115.3299     72.0891   9.0790633698e+01   4.5558968020e+01    0.5288659    0.2837975 -36.44  0.001683467    1.932    0.482
       155  -7.4268    175.4324     72.4853   7.7263451402e+01   3.1712789613e+01    0.1449001    0.1358602 -89.54  0.000169113    1.009    0.009
       156  -8.0345    169.5271     71.3221   7.8078096670e+01   3.3316655761e+01    0.2617903    0.1360477 -43.79 0.0007359586    1.948    0.487
       157  -9.3112    146.9975     69.2387   8.2165268171e+01   3.8994260347e+01    0.3878279    0.2547171 -59.30 0.0009270093    1.867    0.464
       158  -8.2907    147.0390     63.9660   8.0653173254e+01   3.9844514367e+01    0.2988104    0.2241409   7.60 0.0008096272    1.851    0.460
       159  -8.6994    146.5188     58.9595   7.9330014126e+01   4.0749379623e+01    0.3237965     0.226776 -54.50 0.0008895279    1.619    0.382
       160  -8.9443    147.5908     53.9701   7.7670720546e+01   4.1246339671e+01    0.4355321    0.1624827 -35.57  0.001635879    2.830    0.647
       161  -7.6844    240.4983     70.5126   6.6907431015e+01   1.7208530431e+01    0.1337728    0.1131648 -67.53 0.0008105094    1.016    0.015
       162  -9.8999     94.8446     68.1436   9.5431508257e+01   5.0316318891e+01     1.031855    0.2499531 -40.81  0.000873053    4.147    0.759
       163  -8.4380     95.4939     61.0183   9.2964605475e+01   5.1403233719e+01    0.3041409    0.2128975  -2.36  0.001034905    1.782    0.439
       164  -8.4570     98.4768     57.0092   9.0783588684e+01   5.1476167970e+01    0.4402251    0.2868869  33.78  0.002239875    1.514    0.340
       165  -8.8517    232.7431     69.5430   6.7670821269e+01   1.9010269080e+01    0.2415096     0.121704  57.85  0.001126186    2.072    0.517
       166  -7.5484     23.2059     69.1385   1.2060567604e+02   5.9818226336e+01    0.1501227    0.1281727 -57.81  0.000370937    1.298    0.229
       167  -9.2917    121.2773     66.1316   8.7405976455e+01   4.5310755781e+01    0.3783726    0.2534035 -50.50 0.0005960871    1.710    0.415
       168  -8.3423    122.4304     60.8780   8.5504774480e+01   4.5912623927e+01    0.2807988    0.2175958  19.07 0.0008066089    1.470    0.320
       169  -9.6198    141.6522     48.0136   7.7179037704e+01   4.3481612269e+01    0.6334032    0.3758017 -12.78  0.001923763    2.579    0.612
       170  -9.2039    138.2342     64.7502   8.2850729197e+01   4.1756126659e+01    0.6721688    0.2540135 -32.53  0.001630839    3.100    0.677
       171  -9.0295    138.9511     56.9357   8.0391300813e+01   4.2813060092e+01    0.3968653    0.2292784 -51.68 0.0006337487    2.084    0.520
       172  -7.1667    170.6639     65.2902   7.6261128175e+01   3.4029838479e+01    0.1486686     0.107867 -80.19 0.0002363459    1.637    0.389
       173  -9.3920     55.3144     63.0992   1.0693951661e+02   5.7544066096e+01    0.4061727    0.2789872  11.37  0.001518722    1.550    0.355
       174  -8.6827    164.3289     61.0496   7.6319041808e+01   3.6211609188e+01    0.3427382    0.1610442 -41.86  0.001415403    2.179    0.541
       175  -9.2791     87.6028     57.0342   9.4064964659e+01   5.3512095733e+01    0.7876382    0.3372228 -28.53  0.003055054    2.934    0.659
       176  -9.0389     80.0333     46.4578   9.2867442939e+01   5.6481887935e+01    0.4060778     0.229761 -28.23 0.0003582261    1.826    0.452
       177 -10.2294     85.1705     48.0806   9.1804362096e+01   5.5332534973e+01    0.3745041    0.3338532 -86.78  0.001004195    1.636    0.389
       178 -10.2879     89.7455     38.3332   8.7032055344e+01   5.5848614179e+01    0.9478721    0.3214171  36.14  0.003357289    3.572    0.720
       179 -10.0997     72.9691     58.9242   9.9427349287e+01   5.5695195779e+01    0.5237926    0.2719296 -49.34  0.001331943    2.299    0.565
       180  -9.0101     75.3039     50.3512   9.5757091052e+01   5.6699312674e+01    0.4463014    0.2856528   9.02  0.001817431    1.918    0.479
       181  -8.6991    152.7467     59.9268   7.8301473742e+01   3.9137277412e+01     0.274778    0.1761943 -41.71  0.001317355    1.632    0.387
       182  -9.1948    130.0092     56.5668   8.2335062271e+01   4.4902408399e+01    0.5759916    0.2494266 -34.01  0.001454568    2.493    0.599
       183 -10.2361    130.2242     48.1310   7.9717673836e+01   4.6080391845e+01    0.7453995    0.3113883 -24.23  0.002354651    3.442    0.709
       184  -8.7187    132.8187     35.8261   7.5392994278e+01   4.7102508556e+01    0.3023566    0.1970512 -35.76 0.0006300032    1.686    0.407
       185  -9.9133    188.2910    233.9013   1.1026471927e+02  -3.0108508635e+00    0.2982376    0.2388662 -66.79  0.001148733    1.738    0.425
       186  -7.5330    119.1043    229.1297   1.2401825308e+02   9.7946673633e+00    0.1876833    0.1476332  74.17 0.0006274507    1.325    0.245
       187  -9.7313     42.9373     52.9518   1.0826785411e+02   6.0863865633e+01    0.4791362    0.3837247  82.03  0.002102547    2.547    0.607
       188  -9.0908     53.4072     38.4262   9.9215459657e+01   6.1830084237e+01    0.5166832     0.234325 -27.69  0.002369367    2.355    0.575
       189 -10.1095     49.8363     53.9515   1.0598810118e+02   5.9854345270e+01    0.6030897    0.3732283 -59.44  0.002630154    2.526    0.604
       190  -9.6572     56.0463     43.5410   1.0009164358e+02   6.0700276680e+01    0.7400827     0.380671  -1.53  0.002756723    4.168    0.760
       191  -9.6820     60.3094     33.7925   9.4968846673e+01   6.1476902633e+01    0.5405377    0.2405946 -36.55  0.002611186    2.259    0.557
       192  -7.4131      4.3011    223.3256   1.4646266478e+02   2.6641938456e+01    0.1038828   0.07658065 -61.13 0.0002259037    1.637    0.389
       193 -10.0562    153.7319    220.3863   1.1522769512e+02   5.5048664085e+00    0.2381767    0.2336429  47.48 0.0002561595    1.067    0.063
       194  -9.3260    118.3405     54.9162   8.4691578173e+01   4.7719680775e+01    0.4187317     0.281004 -39.49  0.001325471    1.589    0.371
       195  -9.1812    121.0887     46.9393   8.1498572825e+01   4.8275537520e+01    0.3820694    0.2227403 -37.32 0.0004434912    1.841    0.457
       196  -7.1584    157.6230     55.2954   7.6032147843e+01   3.8681870108e+01     0.186618    0.1385258 -23.11   0.00076081    1.605    0.377
       197  -9.1477    105.5890     52.0769   8.7159901275e+01   5.0816362193e+01    0.5635375    0.2618106 -31.98  0.002134077    2.322    0.569
       198  -9.5025    162.9934     53.0085   7.4385424286e+01   3.7738370149e+01    0.3716379    0.2470972 -28.82  0.001837979    1.734    0.423
       199  -8.6760    152.5280     52.6200   7.6284224853e+01   4.0280981512e+01    0.2904232    0.1387197 -35.33  0.001227726    2.235    0.553
       200  -7.7402    226.6629     48.3266   6.3853053589e+01   2.3549358792e+01    0.1422928   0.08535811 -70.59 -0.0001856887    1.725    0.420
       201  -9.7738    149.8429     47.1854   7.5272468833e+01   4.1681856524e+01    0.4596533    0.2056444 -30.77  0.001200319    2.550    0.608
       202  -9.0578    144.2354     36.6331   7.3327156657e+01   4.4374843501e+01     0.284487     0.201468 -69.33 0.0006488914    1.791    0.442
       203  -8.1446    115.2259     38.5198   8.0235954137e+01   5.0663992663e+01    0.3371496    0.2044686 -16.08  0.001315905    2.059    0.514
       204  -8.5505    111.9563     46.8232   8.3751313650e+01   5.0253899791e+01     0.276998    0.2362167 -32.95  0.000521137    1.263    0.208
       205  -7.9627    112.9806     42.5204   8.2092905612e+01   5.0623655962e+01    0.2319961    0.1540553  30.19 0.0009397611    1.592    0.372
       206  -9.4792    157.6947     49.6961   7.4464874140e+01   3.9474686548e+01    0.3828543    0.2376613 -66.89  0.001555176    2.188    0.543
       207  -7.6012     27.2329    215.5609   1.4158581061e+02   2.5933748410e+01    0.1333024    0.1171723  36.76 0.0003458463    1.497    0.332
       208  -9.2606     71.2269     26.3957   8.8430712081e+01   6.0660303193e+01    0.4173229    0.3045808  23.07  0.002626475    1.203    0.169
       209  -6.9929    229.3121    209.6181   9.7838308506e+01  -5.6211385285e+00     0.124129    0.1068014 -76.94 0.0007023195    1.807    0.446
       210  -9.8191     10.5827    207.1804   1.4417467396e+02   2.9509428100e+01    0.4984261    0.2907899  20.67  0.002800351    2.657    0.624
       211  -9.9021     76.0398     31.8962   8.8931018431e+01   5.9161773271e+01    0.3908158    0.2913067  59.37  0.001035463    1.807    0.446
       212  -7.5788    155.3014    206.0127   1.1241731164e+02   8.1416571092e+00    0.1886467    0.1838294 -57.57 0.0003701934    1.084    0.077
       213  -9.0900     84.8234     21.8198   8.2536568448e+01   5.8744504110e+01    0.2489113    0.2063466  -2.38 0.0008523882    1.198    0.165
       214 -10.0706     37.5056     41.9863   1.0666335137e+02   6.3292568531e+01    0.3568362    0.2999026 -84.89  0.001886993    2.379    0.580
       215 -10.5872     35.9054     37.9719   1.0587600317e+02   6.4097915091e+01    0.5847508    0.3171864 -12.28 0.0003688018    2.230    0.552
       216  -9.6563    153.2850     41.1098   7.2891649328e+01   4.1683946687e+01    0.3988276    0.2034671 -42.15    0.0012072    2.105    0.525
       217  -8.4208    153.3655     34.5108   7.1023901999e+01   4.2496113456e+01    0.3152755    0.1817809 -49.15  0.001114119    1.974    0.493
       218  -9.1728    104.9463     41.0750   8.3703344628e+01   5.2491961381e+01    0.3591835    0.2205799 -45.41  0.001168208    1.967    0.492
       219  -8.1050    106.3210     36.3284   8.1754614645e+01   5.2818565664e+01     0.236364    0.1791218  27.98  0.001071327    1.282    0.220
       220  -8.8496    139.2869     39.5472   7.5168844007e+01   4.5156120088e+01    0.4143651    0.2473151 -35.49  0.001763856    1.822    0.451
       221  -7.5099    160.0078     39.9289   7.1350297307e+01   4.0244796577e+01    0.1581433     0.150138  89.19 0.0005488638    1.078    0.072
       222  -8.8488    118.9089     34.8354   7.8167844059e+01   5.0323839428e+01    0.2466327    0.1826908 -34.11 0.0006657757    1.491    0.329
       223  -8.1474     97.3694     31.6560   8.2537907301e+01   5.5206153137e+01    0.3434289    0.1212356 -30.12  0.001021727    3.071    0.674
       224  -9.3011    101.0978     32.7230   8.1903641807e+01   5.4329964206e+01    0.4130105     0.225884 -33.24  0.001280021    1.976    0.494
       225  -7.9921    101.4210     26.7334   7.9761981163e+01   5.4957467925e+01    0.2774543    0.1788186   7.12 0.0009064691    1.949    0.487
       226  -9.2410    191.5483    193.0903   1.0213434792e+02   3.9623286704e+00    0.6415228    0.3555243 -66.63  0.002156774    3.935    0.746
       227  -7.3067     30.5472    174.4515   1.3685171876e+02   3.5051329772e+01    0.1294129    0.1060629 -80.91 5.470118e-05    1.033    0.032
       228  -9.1812    110.3016     33.1056   7.9672558786e+01   5.2379725556e+01    0.3758794    0.2118742 -42.41 0.0008502522    2.099    0.524
       229  -7.6035    110.3083     27.3391   7.7755526520e+01   5.3043071935e+01    0.1983303    0.1226328 -11.43 0.0007494171    2.007    0.502
       230  -9.1985    225.4732     31.7555   6.0474985786e+01   2.6068770918e+01    0.2973386    0.2166105 -43.25  0.001185954    1.425    0.298
       231  -8.1047     45.0575     15.8635   9.3563194762e+01   6.5918088587e+01    0.2661447    0.1250395  23.42   0.00125251    2.271    0.560
       232  -7.3961    229.6895    167.3304   8.9356312431e+01   1.8686476478e+00    0.1371767    0.1099901 -72.22 0.0005914638    1.669    0.401
       233  -8.7424     42.0463     28.1537   9.9708219098e+01   6.4782253503e+01    0.2136083    0.1428513 -16.87 0.0004393597    1.332    0.249
       234  -9.2083    246.9693    165.1614   8.5882501821e+01  -7.6569080819e-01    0.3148898    0.2234135  47.46  0.001353126    1.643    0.391
       235  -9.1920    102.6895    162.0889   1.1684929466e+02   2.8024904289e+01    0.2320807    0.2124666  40.48 0.0002322826    1.161    0.139
       236  -9.1659    247.2713    160.2858   8.4835839007e+01   5.7436071794e-02    0.2376708     0.202569 -38.19 0.0002483732    1.057    0.054
       237  -9.2201     91.4157     26.0941   8.2218122683e+01   5.7018774421e+01    0.3266878    0.2255717 -48.82   0.00123651    1.986    0.497
       238  -8.5581     92.0179     20.9776   8.0220512585e+01   5.7455045415e+01    0.2911695     0.196041  31.72 0.0008836456    1.351    0.260
       239  -8.7865    128.5579     25.6220   7.3149552454e+01   4.9242106130e+01     0.358911     0.242544 -36.62   0.00152675    1.667    0.400
       240  -8.5231    168.8580    158.0936   9.9764773514e+01   1.5862404950e+01    0.2221894    0.2166899 -39.12 0.0003196773    1.021    0.021
       241  -8.8448    247.3795    155.3707   8.3808219021e+01   9.2517531646e-01    0.2517061    0.2105984 -55.87 0.0001937445    1.270    0.213
       242 -10.3636    215.3806    153.4900   8.9066421642e+01   7.2409369468e+00    0.2612802        0.242 -51.90 0.0002702576    1.087    0.080
       243  -7.0192    189.2922    148.6553   9.3189727585e+01   1.3581805150e+01    0.1555697    0.1205138 -78.32 0.0007028316    1.660    0.398
       244  -8.3364    133.6398    145.8812   1.0546256987e+02   2.6029250046e+01    0.4987356    0.1489757 -53.85  0.001356115    3.893    0.743
       245  -7.8683    101.2837    146.9738   1.1417546235e+02   3.1974927129e+01      0.20368    0.1793486 -60.03 0.0002447037    1.082    0.076
       246 -10.0332    238.1510    145.4524   8.3272445528e+01   4.4097424973e+00    0.5055773    0.2674668  37.81  0.002228832    2.323    0.570
       247  -9.4800     66.8947    144.3033   1.2306097752e+02   3.8070398981e+01     0.503693    0.3172523  62.91  0.002301727    2.014    0.503
       248  -9.0985    234.3763    135.6801   8.1817088588e+01   6.9559982361e+00    0.2497815    0.2271868 -52.76 0.0002535713    1.057    0.054
       249  -7.9650    139.8301     22.8053   7.0113716012e+01   4.6979660916e+01    0.1760602     0.143749 -87.90 0.0003830886    1.341    0.254
       250  -8.8665     40.9482     20.9744   9.7289143169e+01   6.5856952651e+01     0.267162     0.143555 -35.90 0.0006030605    1.895    0.472
       251  -8.8975    144.1659     26.1120   7.0286904632e+01   4.5621776931e+01    0.2713043    0.2085227 -27.99  0.001593937    1.495    0.331
       252  -8.9723    118.9121     21.5163   7.3886416043e+01   5.1812589918e+01    0.2354612     0.202096  70.61  0.000588686    1.221    0.181
       253  -7.3995    163.0146    135.4973   9.5906978386e+01   2.2130052470e+01     0.194283    0.1375899  78.87 -0.0001992132    1.994    0.498
       254  -8.5224    111.3558     21.1686   7.5458062844e+01   5.3478598325e+01     0.246395    0.1830263 -13.74  0.001474504    1.523    0.344
       255  -7.5460    220.0845    134.5191   8.4028387049e+01   1.0019559299e+01    0.1983604    0.1462275  52.51 0.0006259161    1.482    0.325
       256  -7.6436    171.1349     16.1628   6.3339608066e+01   4.0372289088e+01    0.1652567    0.1308129 -71.65 0.0002832637    1.276    0.216
       257  -8.2365    112.2330    133.8902   1.0831504127e+02   3.3117398419e+01    0.2893752     0.209324  68.84   0.00119823    1.751    0.429
       258  -9.5491    134.2882    131.6482   1.0196455331e+02   2.9210568565e+01    0.5123922     0.498824  38.00   0.00272014    1.064    0.060
       259  -7.0675    189.4871     15.5443   6.0868726904e+01   3.6159878244e+01    0.1268685    0.1057437  80.31 0.0001275654    1.052    0.049
       260 -10.1518    140.6936    117.9710   9.6942378867e+01   3.0916103307e+01    0.8104903    0.3784704 -49.77  0.002041906    2.191    0.544
       261  -9.9308    139.5503    103.9316   9.3559691719e+01   3.4171576748e+01    0.7385023    0.3665854 -46.50  0.001661702    2.025    0.506
       262  -9.5557    135.1782    122.1334   9.9391974271e+01   3.1184128406e+01     0.649085    0.3388825 -45.96  0.001912224    1.886    0.470
       263  -9.9077    130.3136    118.4566   9.9717436789e+01   3.3039686786e+01    0.4459213    0.3137841 -69.56  0.001125165    1.800    0.444
       264 -10.8667    133.4898    109.4590   9.6562464088e+01   3.4331438275e+01    0.9191235    0.4719654 -44.40  0.002441949    1.931    0.482
       265  -7.2182    167.0363    130.9827   9.3905694775e+01   2.2228706838e+01    0.1820309    0.1781572 -78.82 0.0003304283    1.014    0.013
       266  -9.7035     98.6101    128.6724   1.1086813222e+02   3.6869852316e+01    0.6474898    0.4099595  77.11  0.002420215    2.842    0.648
       267  -8.0759     82.0142    130.3467   1.1597564318e+02   3.9247890234e+01    0.3047387    0.1837528 -83.44  0.001152131    2.763    0.638
       268 -10.2825     70.1565    126.2237   1.1853551454e+02   4.2016276769e+01    0.6884147    0.5709321 -29.37  0.001654909    1.304    0.233
       269  -8.3134    123.2772     40.2920   7.8885425608e+01   4.8682596559e+01    0.4179012    0.2373096   8.87  0.001596199    3.507    0.715
       270 -10.0554     58.2999    124.5812   1.2169871447e+02   4.4005856277e+01    0.6265892    0.3824318  83.42  0.002384176    2.799    0.643
       271  -9.8018    117.0989    125.3904   1.0496717260e+02   3.4166910886e+01    0.6815475    0.4380427  84.92  0.001210608    3.021    0.669
       272  -8.9863    117.4235    119.8038   1.0349355343e+02   3.5385835860e+01    0.2907502    0.2414006  -2.51 0.0009067348    1.481    0.325
