#   1 NUMBER                 Running object number                                     
#   2 MAG_AUTO               Kron-like elliptical aperture magnitude                    [mag]
#   3 X_IMAGE                Object position along x                                    [pixel]
#   4 Y_IMAGE                Object position along y                                    [pixel]
#   5 X_WORLD                Barycenter position along world x axis                     [deg]
#   6 Y_WORLD                Barycenter position along world y axis                     [deg]
#   7 A_WORLD                Profile RMS along major axis (world units)                 [deg]
#   8 B_WORLD                Profile RMS along minor axis (world units)                 [deg]
#   9 THETA_WORLD            Position angle (CCW/world-x)                               [deg]
#  10 FWHM_WORLD             FWHM assuming a gaussian core                              [deg]
#  11 ELONGATION             A_IMAGE/B_IMAGE                                           
#  12 ELLIPTICITY            1 - B_IMAGE/A_IMAGE                                       
         1 -14.0729    160.5778    103.7203   3.5266823818e+01   2.9223568603e+01     4.397376     2.173769 -62.54   0.01389077    3.412    0.707
         2 -15.1080    229.6685     51.3926   1.1331167457e+01   2.2379108274e+01     3.978334     2.858443 -57.23   0.02353427    1.185    0.156
         3  99.0000    137.4954    127.6209   4.6813880513e+01   2.9228695232e+01     9.913785     5.609401 -32.84   0.03711651    2.296    0.564
         4 -14.7664    244.8042     40.0569   7.4762875552e+00   2.0802346543e+01     4.464762     1.678636 -57.54   0.01930742    2.638    0.621
         5 -10.1933    149.6610     30.1510   1.6839283138e+01   4.4049420044e+01    0.3810056     0.217359 -11.10  0.001436546    2.861    0.651
         6 -16.2624    238.2482    103.2547   2.1453503594e+01   1.2263374794e+01     4.640395     4.139909 -14.94   0.02717222    1.378    0.274
         7 -14.8121    216.6363    101.0861   2.4151903690e+01   1.7060977609e+01     2.515746     2.406503 -44.75   0.01513429    1.144    0.126
         8 -10.7931    182.9141      3.3324   5.2326675262e+00   3.8954339857e+01    0.6191419    0.2461067  88.87  0.002495415    2.964    0.663
         9  -8.6904     96.9301      4.7127   1.8809738228e+01   5.8873279196e+01    0.1712049    0.1382857  55.76 0.0002675623    1.084    0.077
        10  -8.9894    113.1700      2.8433   1.4738019110e+01   5.5418336875e+01    0.1783994    0.1558135  79.86 0.0003645105    1.166    0.143
        11 -10.6075    204.4432    202.1085   4.7664560811e+01   4.3724204341e-01    0.3517899    0.2743199 -48.95  0.001454335    1.446    0.308
        12 -10.1997    249.4645    249.0740   4.7544345909e+01  -1.2981313480e+01    0.2499326    0.1690449 -13.69   0.00171436    1.268    0.211
        13  -8.9985    110.9245    203.0048   6.8284189462e+01   1.6673268834e+01     0.198626    0.1879905  73.26 0.0003509748    1.060    0.057
        14 -10.9506    192.9040    194.9631   4.8631427286e+01   3.6992500519e+00    0.9841685    0.4965673 -63.70  0.002970028    5.395    0.815
        15  -8.4128    250.6325    198.2659   3.8605355496e+01  -5.9980213546e+00    0.1640774   0.09936886 -29.19 0.0007794028    1.454    0.312
        16  -8.6615     19.6321    245.1413   9.2025933267e+01   2.0314832676e+01    0.1554171    0.1155663  80.95 0.0005782889    1.129    0.114
        17  -8.3421    112.0185    250.0019   7.4219531931e+01   6.8758982723e+00    0.1438986    0.1224913  52.76            0    1.037    0.036
        18 -12.2961    191.1872    153.7543   4.0632475474e+01   1.2134281631e+01    0.8727351    0.6364406 -57.87  0.003645845    1.499    0.333
        19 -10.5346    191.9432    144.2788   3.8400858331e+01   1.3911010727e+01    0.3021107    0.2684442 -18.37 0.0003311038    1.204    0.170
        20 -12.4948    192.5739    163.5201   4.2433352274e+01   9.8854165923e+00    0.8507622    0.5969385 -49.07  0.001359022    1.429    0.300
        21 -11.3973    200.0710    164.0825   4.1051422484e+01   8.3346767191e+00    0.5428138     0.435721 -65.30  0.001651471    1.489    0.329
        22 -10.6089    185.2040    169.2141   4.5139967446e+01   1.0160998287e+01    0.4668292    0.2752436 -57.96  0.001969522    2.090    0.521
        23  -9.4303    179.8727    164.2842   4.5240317736e+01   1.2220119410e+01    0.2510279    0.2115216 -68.43 0.0006890538    1.357    0.263
        24 -11.1238    178.0928    169.7717   4.6763853458e+01   1.1428476050e+01    0.5268804    0.3631487  31.76  0.002490215    1.557    0.358
        25 -10.3598    175.5013    164.4726   4.6221300793e+01   1.3048866839e+01    0.3740632    0.1433478 -51.04  0.001257502    2.866    0.651
        26  -8.0404     20.7365    165.6865   8.5783162263e+01   3.8113352299e+01    0.1250906    0.0863438 -53.32 0.0001508199    1.540    0.351
        27  -9.0919    215.5284    163.6440   3.8013970183e+01   5.5465484862e+00    0.2744631    0.2011427 -89.42 0.0009860282    2.358    0.576
        28 -13.6291    176.7814     96.5241   3.0039259826e+01   2.6866319437e+01     2.279575     1.227268 -23.24  0.001160222    3.304    0.697
        29  -9.0821    168.6798    156.6801   4.6060960766e+01   1.6093494976e+01    0.1545401    0.1214363  -3.86 0.0002317765    1.667    0.400
        30 -14.0131    193.6260    103.5817   2.8610207253e+01   2.1645693044e+01     2.565253     1.139442  47.46  0.009822737    2.454    0.592
        31  -8.4623     39.6112    155.2433   7.9581663587e+01   3.8774730630e+01    0.1861845    0.1113328 -61.78 0.0004156403    1.493    0.330
        32 -10.6722      4.9023    152.6222   8.8575210167e+01   4.2632788391e+01    0.2502777     0.153553 -85.98 0.0007074888    1.369    0.269
        33  99.0000     67.1609    144.0541   7.0026876302e+01   3.8108300327e+01     4.703643      1.41255 -68.28   0.01247641    4.923    0.797
        34 -13.5308      4.7767    129.2918   8.6207455528e+01   4.8303728839e+01     2.060571     1.523226   4.35   0.01179141    1.775    0.437
        35 -12.9637     49.3120    125.4166   7.2022157211e+01   4.5168405240e+01     1.356945    0.7913676 -50.71  0.002611211    1.592    0.372
        36 -12.7540     34.0710    126.2347   7.6933094861e+01   4.6643008593e+01    0.7829619    0.5195921  38.93  0.002264036    1.656    0.396
        37 -12.8312     41.7967    124.3100   7.4187208788e+01   4.6310155176e+01    0.9039198    0.5516762 -72.74  0.002619901    1.577    0.366
        38 -10.5893    245.4743    185.2504   3.7036000883e+01  -3.1896537687e+00    0.2245727     0.209091 -28.09 0.0002944072    1.212    0.175
        39  -8.9292    202.2195    143.2458   3.6165607875e+01   1.2028297606e+01    0.1933887    0.1667903 -76.01 0.0003286992    1.324    0.245
        40 -10.5365    148.6200    139.0496   4.6770313427e+01   2.4230028539e+01    0.3505343    0.2698344 -44.75  0.001147359    1.299    0.230
        41 -10.3001    189.0603    137.6753   3.7496292830e+01   1.5860011870e+01    0.2074348    0.2003378  51.12 0.0006860768    1.086    0.079
        42 -12.8558    214.8911    180.5631   4.1543443129e+01   2.5361731102e+00     1.876614     1.042243 -49.47  0.003722328    1.951    0.487
        43  -8.1990     91.5498    117.5027   5.7138878724e+01   4.0797288556e+01    0.1509372    0.1443798 -62.16 0.0003471254    1.005    0.005
        44 -11.7910      7.0552    113.5285   8.3539876575e+01   5.1954322078e+01     0.526999    0.3066078 -50.30  0.002936562    1.533    0.348
        45  -8.8177    117.0710    113.4981   4.8703251628e+01   3.6798419931e+01    0.2311213    0.1535627  45.29 0.0004654146    1.521    0.343
        46 -11.0737    150.0533    109.4551   3.9158888330e+01   3.0454862820e+01    0.4412372    0.3598348  27.53  0.001017638    1.450    0.310
        47 -11.3273    125.9870    104.4848   4.3896127089e+01   3.6915523552e+01    0.7592574    0.4131705 -54.56  0.002966614    2.008    0.502
        48 -10.8527    121.7386    102.5956   4.4531328151e+01   3.8247174737e+01    0.3672727    0.3000746  44.15  0.001446856    1.235    0.190
        49 -10.3521    112.8680    104.8214   4.7603154216e+01   3.9628337568e+01    0.3551606    0.2242974 -52.94  0.001533073    1.613    0.380
        50  -8.6637    108.3372    107.4016   4.9590844593e+01   3.9970986792e+01    0.2749574    0.1495151  38.05 0.0007177724    1.946    0.486
        51 -10.2890    143.1822    101.1752   3.8622517020e+01   3.3768921877e+01    0.3334903    0.2619026  64.35 0.0006666341    1.339    0.253
        52  -8.2091    110.4901     98.4868   4.6555748358e+01   4.1514601266e+01    0.1502777    0.1491433 -45.23 -2.613144e-05    1.013    0.013
        53  -8.1963    192.6603    223.3009   5.3738117150e+01  -1.3096845983e+00    0.1233473    0.1026343  64.65 0.0007036782    1.668    0.401
        54  -9.8011    127.2736     88.5041   3.9115802187e+01   3.9980414205e+01    0.3068592    0.2496417 -41.19 0.0006922882    1.252    0.201
        55  -9.5447    229.7464    182.7042   3.9251978394e+01  -3.1899408806e-01    0.2361331    0.1747224  31.83  0.001051772    1.423    0.297
        56  -9.6593    165.8488     84.3710   2.9052871914e+01   3.1743383008e+01    0.3367781    0.1842573 -45.88  0.001335462    1.807    0.447
        57  -8.1500     83.2290     82.6577   5.0425445865e+01   5.0148268528e+01    0.1368993    0.1118866 -75.87 0.0002887179    1.543    0.352
        58  -9.1210    239.5973    221.2803   4.4603776851e+01  -7.9463711361e+00    0.1982945    0.1424928  40.73 0.0009571291    1.658    0.397
        59 -14.1384    227.5246    168.0416   3.6749374913e+01   2.6274160648e+00     3.249874     2.278214  -2.18  0.005052504    1.855    0.461
        60  -8.2075     54.5693    185.5861   7.9529197277e+01   2.9411987115e+01    0.1340553    0.1195145  89.18 0.0002120761    1.079    0.074
        61  -9.8581    134.0688     64.7873   3.0418275086e+01   4.2804419716e+01    0.2612945    0.1899773  39.46 0.0007375777    1.459    0.315
        62  -9.7063    179.5905     64.1216   2.1155891515e+01   3.1939219577e+01    0.2749005    0.2308703  47.19     0.001135    1.338    0.253
        63  -9.3226    188.4027     57.5631   1.8069919535e+01   3.0857957651e+01      0.33185    0.1436261 -29.35  0.001233447    3.012    0.668
        64 -10.2996    184.2360     55.3423   1.8140644586e+01   3.2193661616e+01     0.285317    0.2507825  40.62  0.001626639    1.385    0.278
        65  -8.1214     63.2414     55.9830   4.8906322077e+01   5.8668164997e+01    0.1635789    0.1065518 -40.83 0.0003878928    1.500    0.333
        66 -10.2016    136.8493     52.4575   2.6035902175e+01   4.4117352632e+01    0.2847851    0.2001671  -9.60  0.001334063    2.009    0.502
        67 -10.1554    141.4637     51.5264   2.4766954797e+01   4.3151584478e+01    0.2810186    0.1429583 -34.17   0.00119539    2.126    0.530
        68 -10.7982    177.8407     49.7272   1.7674680151e+01   3.4570375213e+01    0.4548901    0.2670744 -85.32  0.001967901    2.195    0.544
        69 -10.6929    186.6213     48.3708   1.6008761763e+01   3.2651793831e+01    0.3746856    0.3093608  53.31  0.002139005    1.341    0.254
        70 -10.7183    182.6128     47.1916   1.6292699223e+01   3.3783640817e+01    0.4259812    0.2952045 -10.35   0.00174067    2.298    0.565
        71  -9.3738    172.8418     47.6701   1.7917962670e+01   3.6080785972e+01    0.1970847     0.159529  76.85 0.0006529613    1.135    0.119
        72 -11.2045    140.0489     43.8118   2.2721531657e+01   4.4604242865e+01    0.3437327     0.250534  29.67  0.001739353    1.693    0.409
        73  -8.8020    169.9859     41.6741   1.6758835009e+01   3.7614426520e+01    0.2367167   0.07402424  47.04 0.0007051389    4.373    0.771
        74  -9.4671    179.6699     40.9053   1.5098757584e+01   3.5369733449e+01    0.1921487    0.1652437 -68.74  0.000636615    1.098    0.090
        75  -8.7689    204.2296     39.9348   1.1639623452e+01   2.9682979867e+01    0.1808143    0.1520681 -55.98  0.000455594    1.164    0.141
        76 -12.7915    248.1560    110.1189   2.1546235977e+01   9.2012692814e+00    0.3899451    0.2567337 -47.25 0.0004042442    1.283    0.221
        77  -9.2368    193.2631     38.5598   1.2661214019e+01   3.2435183390e+01    0.2033225    0.1223132  70.93 0.0007727981    1.542    0.352
        78  -8.5838    190.2001     36.4245   1.2528017234e+01   3.3445550771e+01    0.1915604    0.1541959 -89.58 0.0006713769    1.092    0.084
        79  -9.5100    197.4791     36.9070   1.1733825071e+01   3.1662879300e+01    0.2258406    0.1713937  71.20 0.0004040089    1.245    0.197
        80  -9.6983    122.0684     35.9058   2.4064090342e+01   4.9919639739e+01    0.2905315    0.2031823 -17.25 0.0008130724    1.738    0.425
        81  -8.2516    226.5057    215.5702   4.5936109994e+01  -5.2373344466e+00    0.1234197    0.1079962  -1.44 0.0001304031    1.072    0.067
        82 -10.1663    221.8536    212.7118   4.6280920005e+01  -4.0953677194e+00    0.2428072    0.2082145  44.62 0.0007375511    1.441    0.306
        83  -9.0293    196.3181     27.3058   9.5711929023e+00   3.3165215210e+01    0.3139368    0.2084966   2.00  0.001446467    3.096    0.677
        84  -7.9935    152.3396    213.2327   6.0487730235e+01   7.3059106264e+00    0.1355066    0.1033601  12.42 0.0002746893    1.543    0.352
        85  -8.9230    183.2190     31.8773   1.2294524701e+01   3.5699490976e+01    0.3210427    0.1401583 -43.85 0.0009927697    2.216    0.549
        86 -14.5133    238.8773     84.1836   1.7296392994e+01   1.5354915217e+01      1.49354     1.126703 -17.12  0.001919856    1.890    0.471
        87  -8.7321    187.6670    210.3427   5.2506821554e+01   1.7691738559e+00    0.1316179     0.108685  76.50 0.0007050813    1.756    0.430
        88  -8.6919    225.0577    207.7667   4.4802571201e+01  -3.7811018622e+00    0.1760504    0.1701896  31.60  0.001179971    1.327    0.246
