#   1 NUMBER                 Running object number                                     
#   2 MAG_AUTO               Kron-like elliptical aperture magnitude                    [mag]
#   3 X_IMAGE                Object position along x                                    [pixel]
#   4 Y_IMAGE                Object position along y                                    [pixel]
#   5 X_WORLD                Barycenter position along world x axis                     [deg]
#   6 Y_WORLD                Barycenter position along world y axis                     [deg]
#   7 A_WORLD                Profile RMS along major axis (world units)                 [deg]
#   8 B_WORLD                Profile RMS along minor axis (world units)                 [deg]
#   9 THETA_WORLD            Position angle (CCW/world-x)                               [deg]
#  10 FWHM_WORLD             FWHM assuming a gaussian core                              [deg]
#  11 ELONGATION             A_IMAGE/B_IMAGE                                           
#  12 ELLIPTICITY            1 - B_IMAGE/A_IMAGE                                       
         1 -16.0083    169.6479     44.4607   2.0987006594e+01   3.7248139687e+01     1.278553     1.111597 -27.01  0.005937302    1.343    0.255
         2 -15.1115    191.5611     12.5648   1.0507681723e+01   3.6296381512e+01    0.9137914    0.6001811  12.26  0.004196001    3.026    0.669
         3 -11.0303    156.0105    239.6939   6.3740394617e+01   5.6767906389e+00      0.15693    0.1176624  10.75 0.0004258079    1.060    0.057
         4 -11.9292    146.9044    249.8258   6.6721011482e+01   5.1675068248e+00    0.2563822    0.1550992  -4.53  0.001571848    1.747    0.427
         5 -13.6434    139.6735    249.3905   6.8096509104e+01   5.9819783518e+00    0.3137116    0.2455598  30.46  0.002273671    1.293    0.227
         6 -20.7879     84.0352    168.8674   7.0992882991e+01   2.8598335427e+01     13.58656     7.392805 -64.09    0.0591414    1.972    0.493
         7 -10.6954     16.1833    199.8449   9.3321972215e+01   2.8902211203e+01    0.1464171    0.1360039  69.59 0.0003561285    1.165    0.141
         8 -10.9569    139.6217    239.4138   6.6956840184e+01   7.4866600479e+00    0.1936809    0.1447155   5.58 0.0004410869    1.155    0.134
         9 -11.8817     28.0237    248.8606   9.2413008673e+01   1.7557236775e+01    0.2537935     0.126027  42.38 0.0009076808    1.482    0.325
        10 -12.5942     42.6958    246.7398   8.8990461680e+01   1.6583117377e+01    0.3735526    0.1233438  40.99  0.001770489    2.146    0.534
        11 -10.8632    189.0912    176.7722   4.8086289440e+01   1.1527093902e+01    0.2191294    0.1512714 -64.04 0.0009422307    2.525    0.604
        12 -10.8125     17.7716    174.7205   9.1623249255e+01   3.4923870685e+01    0.1226272    0.1011119 -50.48 0.0002593311    1.432    0.302
        13 -10.6215    202.0000    170.9273   4.4859718382e+01   1.0765139476e+01    0.1960096     0.058688 -40.91 0.0007983421    2.914    0.657
        14 -10.5724     12.0234    234.0929   9.5588871943e+01   2.1815322678e+01    0.3405859   0.08814991  58.88  0.001337689    3.468    0.712
        15 -12.3161     24.3595    164.4661   8.8898453906e+01   3.7003352091e+01    0.3191105    0.2059064 -57.10  0.001381815    1.694    0.410
        16 -11.0943     28.2067    165.5248   8.7745721793e+01   3.6357110828e+01    0.2263007     0.183729 -55.30 0.0005950227    1.381    0.276
        17 -11.9959    202.0926    164.7970   4.3748254678e+01   1.1711369497e+01    0.2732289    0.2084214  22.42  0.001292599    1.402    0.287
        18 -11.2062    190.8679    163.1301   4.5330172664e+01   1.3515173651e+01    0.1746771    0.1580671 -33.67 0.0004005582    1.195    0.163
        19 -14.5097    235.7562    158.0053   3.7564604407e+01   8.4676321810e+00    0.9326982    0.4069797  34.38  0.005117389    2.857    0.650
        20 -11.5948    224.2934    154.0750   3.8431360571e+01   1.0439993735e+01     0.174775    0.1600026 -11.76 0.0003552204    1.232    0.188
        21 -11.5991    183.2195    152.7668   4.4720843954e+01   1.6383852606e+01    0.2603799     0.240847 -69.88 0.0009746541    1.379    0.275
        22 -12.3694    163.2939    153.0740   4.8569224117e+01   1.9437895802e+01    0.2989244    0.2200301 -56.09  0.001124258    1.530    0.346
        23 -11.1046    169.0355    157.3656   4.8262876938e+01   1.7737776365e+01    0.1763479    0.1632387   4.76 0.0006569775    1.094    0.086
        24 -11.8027     30.3375    139.2063   8.4591883004e+01   4.3315080818e+01    0.3007586    0.2195894  40.89 0.0006716857    1.288    0.224
        25 -11.4393     35.1183    136.6250   8.2539243350e+01   4.3534831304e+01    0.2472848    0.1934432  75.64 0.0005506715    1.238    0.192
        26 -11.0997     19.9773    136.8433   8.8187086955e+01   4.4953957906e+01    0.2218788    0.1827267  61.44 0.0004643571    1.113    0.101
        27 -10.7885    115.9610    244.1488   7.2413395396e+01   9.3331065099e+00    0.1502416    0.1186147  16.53  0.001029514    1.033    0.032
        28 -11.7466    187.6112    130.8876   3.9546055918e+01   1.9484537873e+01    0.3379376    0.2147166 -49.79  0.001256099    1.553    0.356
        29 -10.8737     13.0138    132.6398   9.0461491702e+01   4.6703111622e+01    0.1948713    0.1305562 -11.62 0.0008971255    1.887    0.470
        30 -13.5216    160.5347    128.6087   4.4025634331e+01   2.4593122705e+01    0.4553112    0.3605923 -40.03  0.001945919    1.163    0.140
        31 -12.0608    171.1720    232.8665   5.9984448431e+01   5.0531379184e+00    0.1626348    0.1382193  11.86 0.0009351568    1.226    0.185
        32 -11.9782    178.0750    122.9067   3.9471144055e+01   2.2517086127e+01    0.2133478    0.1856279 -41.72 0.0003079452    1.035    0.034
        33 -11.1261    103.3037    243.8825   7.5116950603e+01   1.0763571200e+01    0.1858354    0.1299658   3.50 0.0005251874    1.461    0.316
        34 -12.6436    167.5855    112.8581   3.9084230768e+01   2.6274749799e+01    0.3931758    0.2883326 -70.50  0.001074267    1.700    0.412
        35 -12.3102    167.1408    238.6042   6.1484989352e+01   4.6631277090e+00    0.2257985    0.1506412 -27.19 0.0005537501    1.451    0.311
        36 -11.1541    157.3966    108.9047   4.0087483474e+01   2.9001110362e+01    0.2162677     0.192912  79.22 0.0004013408    1.239    0.193
        37 -12.3738     24.0681    105.2606   8.2904584095e+01   5.3582075355e+01    0.3224914     0.282519 -34.65 0.0008202055    1.256    0.204
        38 -12.8510     45.2448     99.9523   7.2476351284e+01   5.2626585708e+01    0.3595243    0.2761659  62.37 0.0009518121    1.356    0.263
        39 -12.0196     35.4784     95.2594   7.5920784161e+01   5.5194482158e+01     0.301003    0.2444071 -23.76  0.000575497    1.431    0.301
        40 -11.5556     12.8062     94.0241   8.6677054637e+01   5.7722179484e+01    0.2414217    0.2154007   6.23 0.0006062472    1.226    0.184
        41 -11.6646     30.7983    218.4060   9.0379150170e+01   2.3399802498e+01    0.3095759    0.2064972  14.18  0.001741686    1.570    0.363
        42 -14.0430      2.8999     84.5568   9.0635040798e+01   6.0992166080e+01     1.234767     0.381037 -73.65  0.002111243    2.771    0.639
        43 -13.3438      6.6811     75.6676   8.7432231841e+01   6.3268308436e+01    0.4095032    0.2345407  35.68  0.001224031    1.779    0.438
        44 -12.3713    128.1689     83.0829   3.9492062884e+01   4.0347506110e+01    0.3467368    0.2799995  78.90  0.001077214    1.321    0.243
        45 -15.0328    154.7845     80.7351   3.3326712650e+01   3.4809711395e+01     1.441651    0.8226826 -23.81  0.005645714    2.543    0.607
        46 -14.9576    146.7890     77.7188   3.3982601764e+01   3.7136174671e+01     1.232332    0.8633432 -12.74   0.00443143    2.247    0.555
        47 -11.9532     33.6477    222.0868   8.9856301830e+01   2.2342674395e+01    0.2659189    0.2361141  35.09  0.001242942    1.133    0.118
        48 -13.9039    162.6483     58.6580   2.5902075434e+01   3.6745858094e+01    0.5602127     0.446155 -70.65 0.0006765421    1.177    0.150
        49 -11.6498    187.8670     88.1502   2.9904519022e+01   2.6691248440e+01     0.307894    0.2591739   1.72  0.001218756    1.578    0.366
        50 -10.4827      7.5610    219.6774   9.6252794570e+01   2.5179806523e+01    0.1636519   0.09522092  65.68 0.0008782382    1.539    0.350
        51 -10.9671    240.1293    218.1248   4.6605609202e+01   2.3606431372e-01    0.1563056    0.0985513 -14.23 0.0005610541    1.199    0.166
        52 -13.1505     29.9093     79.2768   7.5215020055e+01   6.0267581589e+01    0.4737499    0.2774692  14.35  0.001316936    1.970    0.492
        53 -13.8514    179.8348    215.3011   5.5933471907e+01   6.6634952337e+00    0.3104595    0.2917276 -77.53  0.002025601    1.771    0.435
        54 -13.4092    183.5077    212.4947   5.4851859484e+01   6.6659468079e+00    0.3018784    0.1838297 -25.58  0.001865055    1.527    0.345
        55 -12.0590    139.2739     70.6711   3.3405026979e+01   4.0136239777e+01    0.2695894    0.1770142  75.22  0.001230514    1.732    0.423
        56 -13.5515    192.5276    206.6225   5.2364694132e+01   6.5130571364e+00    0.5345651    0.1990408 -40.41  0.002649771    2.490    0.598
        57 -13.7819    192.4596    194.9860   5.0547670716e+01   8.2515235311e+00    0.8539338    0.4675933 -59.02  0.003686128    4.193    0.762
        58 -12.0169    203.9637    208.4999   5.0709285816e+01   4.9911432796e+00    0.1957642    0.1349994 -27.83 -0.001014206    1.255    0.203
        59 -13.3796      4.0835     64.2751   8.7268415664e+01   6.6521464123e+01    0.6826015    0.2655463 -23.13  0.002362174    3.440    0.709
        60 -12.6904    172.2065    206.5949   5.6060961646e+01   8.8789868996e+00    0.2623919     0.197654  -2.58  0.001725982    1.186    0.157
        61 -12.5944    103.3338     64.7367   4.0023013931e+01   4.9800481370e+01    0.4837135    0.2749749  67.86 0.0008252852    2.116    0.527
        62 -13.3547     13.3479     60.3948   8.0490612420e+01   6.6956566074e+01    0.3540874    0.2506366 -69.46 0.0007696896    1.352    0.260
        63 -12.6905     24.1464     45.9191   6.8718449439e+01   6.9533359122e+01    0.2859491    0.2559026   8.03 0.0004419132    1.129    0.114
        64 -15.1130    159.1041     64.1977   2.8000855585e+01   3.6669326157e+01    0.9806704    0.8993366  69.00  0.004253545    1.210    0.174
        65 -12.9286     11.4918    206.3332   9.4828826196e+01   2.7804558571e+01    0.5073546    0.2611919  15.70    0.0022829    2.019    0.505
        66 -10.9066     97.1262     35.3487   3.0440539196e+01   5.6460664213e+01    0.2079929    0.1741585  78.97 0.0005876039    1.124    0.110
        67 -11.7964     23.9662    202.3238   9.1333947211e+01   2.7630564710e+01    0.3124663    0.2319548  89.29  0.001516435    1.393    0.282
        68 -10.5352     24.0000    198.0018   9.1099054728e+01   2.8635763471e+01    0.1733532   0.09082116 -82.65 0.0006173491    2.006    0.502
        69 -12.1799    168.2883    207.0748   5.6884200697e+01   9.2740887721e+00    0.2258682    0.1726744  11.86 0.0004313443    1.157    0.136
