#   1 NUMBER                 Running object number                                     
#   2 MAG_AUTO               Kron-like elliptical aperture magnitude                    [mag]
#   3 X_IMAGE                Object position along x                                    [pixel]
#   4 Y_IMAGE                Object position along y                                    [pixel]
#   5 X_WORLD                Barycenter position along world x axis                     [deg]
#   6 Y_WORLD                Barycenter position along world y axis                     [deg]
#   7 A_WORLD                Profile RMS along major axis (world units)                 [deg]
#   8 B_WORLD                Profile RMS along minor axis (world units)                 [deg]
#   9 THETA_WORLD            Position angle (CCW/world-x)                               [deg]
#  10 FWHM_WORLD             FWHM assuming a gaussian core                              [deg]
#  11 ELONGATION             A_IMAGE/B_IMAGE                                           
#  12 ELLIPTICITY            1 - B_IMAGE/A_IMAGE                                       
         1 -10.9749    245.6583     47.3298   7.3369811280e+01   1.9677231818e+01    0.1374106     0.084978 -50.66 0.0004894867    1.745    0.427
         2  -9.9389    212.1675    219.4095   1.1486537810e+02   4.5637530287e+00    0.1515027   0.08625385  39.54  0.000947475    1.702    0.412
         3 -10.4617    170.7573    214.7488   1.2140822651e+02   1.0790902806e+01    0.1867808    0.0749396  44.26 0.0008984236    2.461    0.594
         4 -10.6935    149.8108    206.2083   1.2416528455e+02   1.4916768725e+01    0.1857684    0.1185723  65.09 0.0009532043    2.843    0.648
         5  -9.4192    231.0301    201.0000   1.0890688128e+02   3.9714106524e+00    0.1788698   0.05346379  38.56 0.0008008834    2.932    0.659
         6 -10.1975    203.1429    198.3985   1.1316522140e+02   8.1930985867e+00       0.1647   0.09576484  42.87 0.0009487665    1.796    0.443
         7 -10.0802    167.6676    198.3268   1.1962897462e+02   1.3428425801e+01    0.1124421     0.089433  58.24 0.0007051388    1.713    0.416
         8 -11.3128    186.2888    195.3972   1.1569983987e+02   1.1050688014e+01    0.2140759    0.1346826  40.27  0.001066933    1.502    0.334
         9 -10.2835    206.2234    191.3928   1.1147362215e+02   8.5913593345e+00    0.1626083   0.09878737  42.14 0.0009454833    1.708    0.414
        10 -10.3025    171.6511    191.3284   1.1779367601e+02   1.3810224120e+01      0.11492   0.09262761  60.39 0.0007049027    1.761    0.432
        11 -10.1057    211.3448    189.6995   1.1029801768e+02   8.0395412759e+00    0.1032195   0.09307037  48.27 0.0005186484    1.680    0.405
        12 -11.1737    166.5810    187.7793   1.1820909210e+02   1.5095235337e+01    0.1507027    0.1190866 -51.76 0.0009472711    1.677    0.404
        13 -10.8808    142.4682    186.9599   1.2290328977e+02   1.8908078725e+01    0.1547051     0.110222 -84.21 0.0008096225    2.555    0.609
        14 -11.0107    157.7862    186.5873   1.1975243948e+02   1.6627026819e+01    0.1780304    0.1014687  44.59 0.0008780644    1.696    0.410
        15 -10.5533    177.6792    185.3252   1.1567194155e+02   1.3729671596e+01     0.112409   0.09615561  61.79 0.0007046812    1.681    0.405
        16  -9.6001    225.3460    184.6685   1.0705720861e+02   6.5744024502e+00   0.09921933   0.09693024  49.98 0.0007049851    1.761    0.432
        17 -10.3523    211.2204    184.4139   1.0940769847e+02   8.6996935135e+00    0.1605111    0.1025576  41.25 0.0009479033    1.629    0.386
        18 -10.5762    134.3727    184.1863   1.2417018872e+02   2.0578979515e+01    0.1584648    0.1191439 -65.08  0.000952044    1.734    0.423
        19 -10.5069    121.6674    183.3257   1.2673432965e+02   2.2609613159e+01    0.1250637   0.08833917  62.38 0.0007051148    1.711    0.415
        20  -9.7489    243.9919    182.5003   1.0367590391e+02   4.1456338697e+00    0.1727884   0.07562385  21.15 0.0008106419    2.608    0.617
        21 -10.3264    205.0200    182.1621   1.1009983016e+02   9.9223283001e+00    0.1801221    0.1391253  57.12   0.00107574    2.056    0.514
        22 -10.3305    199.3096    182.6819   1.1121085183e+02   1.0733507062e+01    0.1054673   0.09794083  58.04  0.000573604    1.639    0.390
        23 -11.0349    145.5772    180.7730   1.2132081670e+02   1.9425217219e+01    0.1569089    0.1228119 -60.89 0.0009512807    1.664    0.399
        24 -10.5360    175.6714    180.3311   1.1521908100e+02   1.4757857824e+01    0.1152515   0.09826468  65.08 0.0007051599    1.714    0.417
        25 -11.4179    190.1869    177.9855   1.1205818827e+02   1.2787736796e+01    0.1729533    0.1305294  48.01  0.001010892    1.600    0.375
        26 -11.7531    164.0509    178.0127   1.1711146768e+02   1.6949921867e+01    0.1895942    0.1549491  66.22  0.001138345    1.751    0.429
        27 -10.5406    158.6602    176.3126   1.1791313888e+02   1.8073971075e+01     0.121332   0.09727608  63.45 0.0007046352    1.696    0.410
        28 -11.3206    152.9959    175.0068   1.1885622153e+02   1.9187127163e+01    0.1579696    0.1367264  23.63  0.001013957    1.001    0.001
        29 -10.5470    174.3081    174.6312   1.1450073150e+02   1.5811768680e+01    0.1166496    0.1016897  76.00 0.0007035601    1.759    0.432
        30 -10.5480    192.6519    173.3159   1.1076388423e+02   1.3037602512e+01     0.113279    0.1010462  66.42 0.0007047692    1.725    0.420
        31 -10.8927    164.4162    173.2266   1.1622209655e+02   1.7628249158e+01    0.1621987    0.1230049 -50.94  0.000950612    1.670    0.401
        32 -10.1381    118.5092    171.4938   1.2571776874e+02   2.5169847660e+01    0.1261369    0.1125184  41.57 0.0008103781    1.032    0.031
        33 -11.2589    158.4318    170.2310   1.1692221696e+02   1.9075834661e+01    0.1645236    0.1251159 -53.49 0.0009523197    1.665    0.399
        34 -10.6751    128.7714    169.0032   1.2305557272e+02   2.4044456580e+01    0.1615553    0.1070552 -49.80  0.000885727    1.678    0.404
        35 -11.3867    165.1483    168.1747   1.1518492662e+02   1.8298015578e+01     0.168814    0.1537348  53.15 0.0008600457    1.340    0.254
        36 -11.2849    179.7712    167.1925   1.1209445032e+02   1.6022614987e+01    0.1902817     0.145953  83.85  0.000947582    2.762    0.638
        37 -11.9613    138.9851    164.8006   1.2011672531e+02   2.3159924885e+01    0.2885412    0.1902071 -69.61  0.001417706    2.408    0.585
        38 -10.3518    187.6770    164.3217   1.1003262050e+02   1.5127454899e+01    0.1154845    0.1050041  75.90 0.0006551541    1.678    0.404
        39 -11.0437    172.0000    163.9863   1.1303738099e+02   1.7809446492e+01    0.1968254   0.07273532 -40.14 0.0007963161    2.900    0.655
        40 -11.2195    146.4029    164.2008   1.1840315913e+02   2.2050600948e+01    0.1711578    0.1263458 -57.54 0.0009517497    1.700    0.412
        41 -10.8646    207.9572    161.4636   1.0574313604e+02   1.2158661745e+01    0.1547099    0.1124379  62.06  0.000807338    2.392    0.582
        42 -11.3556    182.8381    162.8421   1.1068300769e+02   1.6157100964e+01    0.1643014    0.1573484  37.99 0.0007084837    1.326    0.246
        43 -10.4580    167.6682    157.3290   1.1265940759e+02   1.9600155146e+01    0.1248068    0.1067908  75.94 0.0007051776    1.717    0.418
        44 -11.1799    153.4197    162.2381   1.1655340687e+02   2.1216929085e+01    0.1687932    0.1272665 -54.11 0.0009477892    1.637    0.389
        45 -10.7870    172.0000    155.9377   1.1150573972e+02   1.9073484149e+01    0.2046895   0.07394613 -39.76 0.0007650428    2.919    0.657
        46 -11.4528    158.4951    154.5266   1.1403726129e+02   2.1647918369e+01    0.2219972    0.1280022 -53.09   0.00103378    2.275    0.560
        47 -11.0422    176.3685    152.1465   1.0987449404e+02   1.8910015513e+01    0.1817471    0.1220741 -45.92 0.0009477534    1.764    0.433
        48 -11.1581    170.4224    151.2541   1.1090346457e+02   2.0100441762e+01    0.1763825    0.1271315 -46.61 0.0009494303    1.630    0.387
        49 -11.2551    163.4257    151.2377   1.1235383918e+02   2.1337003687e+01    0.1777813    0.1283498 -50.03 0.0009482348    1.669    0.401
        50 -10.2392    122.6012    150.8225   1.2140468774e+02   2.8395043912e+01    0.1815738    0.1289349 -64.31 0.0009190651    1.702    0.412
        51 -11.3496    171.1725    145.1657   1.0950955367e+02   2.0957086195e+01    0.1752695    0.1695489  79.80  0.001080299    1.344    0.256
        52 -10.8959    195.5123    144.5141   1.0457948277e+02   1.6676092240e+01    0.1343044    0.1160014   6.52 0.0001684154    1.024    0.024
        53 -11.3355    148.4301    143.6997   1.1409774356e+02   2.5300843394e+01     0.247777    0.1332464 -47.89  0.001125757    2.055    0.513
        54 -10.4537    138.5097    143.5116   1.1631398869e+02   2.7087863117e+01    0.1354735    0.1268873  26.37  0.000434372    1.032    0.031
        55 -11.2181    172.3317    137.6678   1.0768046173e+02   2.1977038555e+01    0.2509288      0.16969  79.25 0.0009490025    3.842    0.740
        56 -10.1778    200.4898    137.4908   1.0214730082e+02   1.6809489906e+01    0.1354512     0.117018   3.63 4.947802e-05    1.024    0.024
        57 -10.3251    149.2834    136.6297   1.1244234098e+02   2.6422660333e+01    0.1341384    0.1122675 -86.94 0.0006063926    1.701    0.412
        58 -10.2503    155.4815    135.4984   1.1081519574e+02   2.5482572095e+01    0.1386449    0.1285972  13.86 0.0001027095    1.028    0.027
        59 -10.5317    182.5345    134.5006   1.0491834433e+02   2.0584366025e+01    0.1379648     0.123267   5.69 0.0005286631    1.028    0.027
        60 -10.6305    155.4917    145.4986   1.1290297607e+02   2.3722194201e+01     0.135753    0.1245222  18.56  9.04284e-05    1.033    0.032
        61 -10.2443    173.5103    129.4961   1.0562354947e+02   2.3108375407e+01    0.1416974    0.1259305   6.54 0.0008105175    1.019    0.019
        62  -9.7533    157.6729    120.3467   1.0689503177e+02   2.7766975306e+01    0.1408538    0.1170867 -83.73 0.0007049995    1.751    0.429
