#   1 NUMBER                 Running object number                                     
#   2 MAG_AUTO               Kron-like elliptical aperture magnitude                    [mag]
#   3 X_IMAGE                Object position along x                                    [pixel]
#   4 Y_IMAGE                Object position along y                                    [pixel]
#   5 X_WORLD                Barycenter position along world x axis                     [deg]
#   6 Y_WORLD                Barycenter position along world y axis                     [deg]
#   7 A_WORLD                Profile RMS along major axis (world units)                 [deg]
#   8 B_WORLD                Profile RMS along minor axis (world units)                 [deg]
#   9 THETA_WORLD            Position angle (CCW/world-x)                               [deg]
#  10 FWHM_WORLD             FWHM assuming a gaussian core                              [deg]
#  11 ELONGATION             A_IMAGE/B_IMAGE                                           
#  12 ELLIPTICITY            1 - B_IMAGE/A_IMAGE                                       
         1 -14.1185    211.9539     41.2716   3.1151749208e+01   2.7046338660e+01     1.874037    0.6833982  78.67   0.00658077    4.181    0.761
         2 -13.7615    187.9753     24.8951   2.9044715411e+01   3.4483267744e+01     1.626578    0.4462671 -51.08  0.004765731    4.606    0.783
         3 -13.9226    187.9633     12.8444   2.5496412610e+01   3.5748415673e+01     1.523722     0.570897 -41.89  0.006284679    2.277    0.561
         4 -13.5321    120.5575     26.4186   3.9701362313e+01   5.1937734942e+01     1.193625    0.7648897  38.19  0.005286865    1.772    0.436
         5 -14.7857    146.5494     30.0166   3.6142738681e+01   4.4514966924e+01     1.638388    0.7186303  68.13  0.006247642    2.272    0.560
         6 -13.9057    141.4489     21.7908   3.3977619354e+01   4.6884430022e+01     1.328078    0.4317196  70.80  0.003027812    3.185    0.686
         7 -13.7094    131.9854     32.5598   3.9745877163e+01   4.8060455711e+01    0.8853502    0.6690415 -52.65  0.003114493    1.369    0.270
         8 -13.8146      3.1110     10.2615   9.3238768521e+01   7.7538168155e+01     1.022721    0.6012554 -62.29  0.005664165    1.496    0.331
         9 -13.3425      7.9871      2.6158   8.4218048838e+01   7.8907052431e+01    0.7593445    0.3506856  37.66  0.003600171    2.549    0.608
        10 -16.0965     14.8184     19.5992   8.6335685009e+01   7.4664804960e+01     2.278374     1.070274 -40.66  0.009750915    2.025    0.506
        11 -14.7873     24.8221     13.6446   7.4927982421e+01   7.4917680867e+01    0.9722573    0.6069699  36.34  0.005124978    1.699    0.411
        12 -13.6289    223.5038      7.9537   2.1673219783e+01   2.8029304408e+01    0.9773148    0.3863018 -15.76   0.00405622    3.050    0.672
        13 -13.4362    218.8247     15.9815   2.4000389499e+01   2.8272386975e+01    0.4820652    0.3812139  40.39  0.002962136    1.588    0.370
        14 -13.7946    214.9077     10.0711   2.2732731458e+01   2.9708428976e+01    0.7507363    0.4179242 -30.86  0.002581881    1.563    0.360
        15 -13.3494     86.3598     14.8867   4.3181682242e+01   6.2384861535e+01    0.8542962     0.488615 -55.98  0.003506414    2.353    0.575
        16 -15.3164     98.9142     11.2346   3.7849420920e+01   5.9572564060e+01     1.787316    0.9638292  66.99  0.005178512    1.782    0.439
        17 -12.0268     59.1677     16.2744   5.4572160002e+01   6.8544986983e+01    0.3401197    0.3053801  43.24   0.00196281    1.106    0.096
        18 -12.0517     46.6000     12.9164   5.9193023489e+01   7.1605846848e+01    0.2967422    0.2910249 -36.40  0.001736695    1.161    0.139
        19 -13.9799     41.7610      4.2599   5.6135674376e+01   7.3892346506e+01    0.7134705    0.5937095  20.38  0.003623903    1.149    0.129
        20 -11.2542    123.4122     11.2957   3.2826015183e+01   5.2949583650e+01    0.1963004    0.1325454 -37.91 0.0006399414    1.504    0.335
        21 -12.8476    152.9929      8.8351   2.7677421528e+01   4.5152328175e+01    0.3213089    0.2960396  69.18  0.001054055    1.107    0.097
        22 -12.4803     69.8454     16.0850   4.9718670639e+01   6.6215042966e+01    0.4239296    0.3412057 -70.22  0.001843292    1.592    0.372
        23 -10.4885    133.4883      8.5274   3.0091005248e+01   5.0471441092e+01    0.1450638    0.1344942  85.69 4.636782e-05    1.009    0.009
        24 -10.8017     59.4675      7.5063   4.8932846477e+01   6.9763754163e+01    0.1398945    0.1274941  23.87 -4.839626e-05    1.028    0.027
        25 -12.4902    120.1774      3.6203   3.0074480691e+01   5.4581978207e+01    0.4735482    0.2370069  84.19  0.001902136    2.155    0.536
        26 -11.4445    117.0295      1.5020   2.9643229963e+01   5.5633348845e+01    0.3481649    0.1740867  80.01  0.001427481    2.016    0.504
        27 -13.8549    216.3910     28.3778   2.7381719149e+01   2.7524049374e+01     1.147146    0.2179445 -37.98  0.004000232    3.388    0.705
        28 -14.7791    166.5014     28.5737   3.2687251168e+01   3.9457762469e+01     1.231554     1.008984 -88.71  0.004868669    1.214    0.177
        29 -11.3683    169.6557      1.6051   2.3583970151e+01   4.1419120979e+01    0.2759311    0.1157005  70.93  0.001145258    2.217    0.549
        30 -11.3583     81.8184      1.4761   3.7102071691e+01   6.5061976076e+01     0.451998    0.1176342  62.74  0.001455492    3.251    0.692
        31 -11.6605     61.2484      1.4894   4.4128136186e+01   7.0108104013e+01    0.3688143    0.1290355  58.53  0.001360513    2.719    0.632
        32 -12.0870    243.1851    170.9862   5.5607343405e+01   5.2436764404e+00     0.164369     0.121278 -43.22  0.001087616    2.011    0.503
        33 -13.1667    107.4067    246.5683   9.1018955339e+01   1.3338378700e+01    0.5679978    0.3975673  62.88  0.003984883    1.806    0.446
        34 -13.7874     97.9398    239.4119   9.2313585567e+01   1.5499513154e+01    0.7547015    0.3549068  31.97   0.00437907    1.564    0.361
        35 -14.2458     91.4809    231.7577   9.3009302046e+01   1.7443929324e+01    0.5117691    0.4739639  17.44  0.004032416    1.274    0.215
        36 -12.4767     60.4886    246.0274   1.0037116287e+02   1.8723171381e+01    0.3343898    0.2346136  68.58  0.002491022    1.520    0.342
        37 -12.3612     51.2005    248.5460   1.0235517967e+02   1.9298424876e+01    0.3080153     0.289153 -34.09  0.002643463    1.550    0.355
        38 -12.6900      2.8380    248.7156   1.1175801981e+02   2.3698548103e+01    0.3883861    0.2352398  68.08  0.003013315    1.465    0.318
        39 -13.4177      9.4663    245.6640   1.1044419585e+02   2.3637858998e+01    0.6175658     0.271726  51.69  0.003435913    1.565    0.361
        40 -12.2753    124.2159    167.2043   7.7839407488e+01   2.4158821137e+01    0.5072964    0.3570887 -79.13  0.002547685    2.171    0.539
        41 -10.5845    192.3352    164.3446   6.2775734379e+01   1.3454771726e+01    0.1348856   0.08690742   4.35 0.0007049656    1.767    0.434
        42 -11.1269    206.3167    162.6625   5.9963691532e+01   1.1507528273e+01     0.107439    0.1007264 -71.17 0.0007048328    1.700    0.412
        43 -12.2308     25.2177    158.9099   1.0364296212e+02   3.9086040168e+01    0.3526331    0.2312054  13.54  0.001956956    1.778    0.437
        44 -11.7548     76.8675    156.8693   8.8696086228e+01   3.3580218691e+01    0.3519136    0.2119686  29.60  0.001287458    1.581    0.367
        45 -12.9418     73.2802    153.3643   8.9249235120e+01   3.4867172988e+01    0.6484676     0.400296  28.67  0.002745432    1.573    0.364
        46 -11.6131    213.3385    155.6772   5.7455533374e+01   1.1365490534e+01    0.1081332   0.09992711 -67.80 0.0007050812    1.718    0.418
        47 -12.8622    246.5370    150.3316   5.1375971091e+01   7.1570677749e+00    0.4093379    0.3235382 -43.84  0.002815241    1.755    0.430
        48 -11.2462    103.0482    150.4306   8.0482945651e+01   3.1001009161e+01     0.267934    0.1915086 -35.37  0.001350265    1.700    0.412
        49 -12.5087      7.2409    146.2121   1.0819765103e+02   4.3461220831e+01    0.5624829     0.335976 -62.96  0.003122271    1.806    0.446
        50 -11.8605     60.3155    147.5181   9.2302286564e+01   3.7941482196e+01    0.4044257    0.2488665   2.09   0.00175814    2.583    0.613
        51 -12.5401    246.8822    137.6283   4.8901509044e+01   8.6006642184e+00    0.2939859    0.2333653  19.54  0.002083301    1.257    0.204
        52 -12.0487     45.1097    133.9108   9.5416546746e+01   4.3040190033e+01    0.3686818      0.20949  81.97  0.001580129    1.985    0.496
        53 -11.6599    135.0028    125.9588   6.7274216786e+01   3.0329004824e+01    0.2287564    0.2133414  26.91 0.0006021818    1.021    0.021
        54 -13.3521    108.4887    123.7161   7.3888490561e+01   3.5879106629e+01    0.7636974    0.6751275  26.25  0.004134919    1.149    0.130
        55 -13.3647    111.5282    116.4650   7.1410654568e+01   3.6902681303e+01     0.507449    0.3281226  49.38  0.001792505    1.544    0.352
        56 -14.4684    106.3227    106.2092   7.0501135095e+01   4.0192637587e+01     2.067419     1.160787 -37.71  0.008348105    2.117    0.528
        57 -13.4043     95.7760    110.7255   7.4820907465e+01   4.1172426150e+01    0.7145085    0.5522931 -67.62  0.002612047    1.414    0.293
        58 -11.9661      4.3106    119.7782   1.0794440371e+02   5.0031982489e+01     0.535399    0.1807206  13.15  0.002127309    3.405    0.706
        59 -11.9610     78.4408    110.4675   8.0426676484e+01   4.4254548523e+01    0.3858391    0.2747879  80.39  0.001619036    1.749    0.428
        60 -11.5112     86.5881    114.9853   7.8685519224e+01   4.1802721827e+01    0.3315542    0.2122457  25.56  0.001056819    1.760    0.432
        61 -12.1198     81.8811    115.1299   8.0247522852e+01   4.2560384457e+01    0.3688726    0.2773942  59.68  0.001796467    1.392    0.282
        62 -12.6370     42.3381     90.7847   9.0079859249e+01   5.4327527680e+01    0.3401858    0.2673663  83.84 0.0004676448    1.306    0.234
        63 -12.3807     36.7500     93.0319   9.2811633912e+01   5.4355404518e+01     0.511427    0.3008063  13.01  0.001518686    2.050    0.512
        64 -14.8059     15.6189    108.1076   1.0309945007e+02   5.2262524352e+01     1.823777     1.094943  83.60  0.009309209    1.578    0.366
        65 -14.2506     22.6926     95.1248   9.8963441904e+01   5.5094318247e+01     1.219213    0.8980287  26.46  0.005884116    1.427    0.299
        66 -13.1431     29.5679     89.4215   9.5270528166e+01   5.5997219016e+01     1.063164    0.4603777  63.48  0.003801254    3.233    0.691
        67 -13.3170      2.2684     97.4589   1.0748679529e+02   5.5761796971e+01    0.7186087    0.2913577 -87.95  0.003113904    2.236    0.553
        68 -12.8448    247.8095    113.5004   4.3932407126e+01   1.1354136754e+01    0.2418012    0.1451587 -26.60  0.001437609    1.376    0.273
        69 -11.7884     35.4228     86.6990   9.2282614995e+01   5.6139499111e+01    0.2755138    0.2524901 -16.76 0.0006883702    1.225    0.184
        70 -11.5093     62.2405    110.6134   8.6096805690e+01   4.6695245922e+01    0.2029919    0.1405836  18.55 0.0009525284    1.675    0.403
        71 -10.9760    121.9051    112.6790   6.7615928349e+01   3.5668930822e+01    0.2116988    0.1902624  44.61 0.0005828064    1.071    0.067
        72 -10.8439     42.0328    107.2098   9.2965670541e+01   5.0117280795e+01    0.1918106    0.1120094  26.06 0.0008809515    1.767    0.434
        73 -12.2049    136.1672    103.0026   6.1442289542e+01   3.4672173664e+01    0.5486274    0.2610137  47.94  0.001510617    2.078    0.519
        74 -12.0319    121.1610    101.4091   6.4987552404e+01   3.8203388098e+01    0.3074939    0.2093283 -33.29  0.001316241    1.663    0.399
        75 -11.6827     47.2322     99.8988   8.9762758125e+01   5.1396903180e+01    0.4473833    0.2614812  52.74  0.002016781    1.801    0.445
        76 -11.7839     52.2844     97.9099   8.7413338770e+01   5.1272806641e+01    0.3612128    0.2429831 -18.94  0.001607563    2.141    0.533
        77 -12.1441     49.2447     93.7793   8.7815510753e+01   5.2722306608e+01    0.5090525    0.3074813  59.93  0.002134819    1.908    0.476
        78 -11.8538     60.9953     97.8365   8.4028337410e+01   5.0092905548e+01    0.4222212    0.2646672  60.97  0.001856185    1.868    0.465
        79 -11.3195    163.8460     98.1434   5.3842391869e+01   2.9542894782e+01     0.216652    0.1964107 -58.98 0.0005861711    1.207    0.172
        80 -12.5199    135.7965     94.9756   5.9392013002e+01   3.6337119175e+01    0.3974518    0.3123747  40.56  0.001962916    1.266    0.210
        81 -10.8445    125.6284     92.3113   6.1299107299e+01   3.9124737726e+01    0.1600557    0.1221652  86.41 0.0007033976    1.776    0.437
        82 -12.1044    188.0198     84.4993   4.5774909972e+01   2.6484416302e+01    0.5094079     0.197424  40.67  0.001778709    3.348    0.701
        83 -13.8106    163.9672     72.0024   4.6593471126e+01   3.3925113415e+01     1.350824     1.002387  64.35  0.006697081    1.433    0.302
        84 -11.6552    158.1867     83.6142   5.1078616390e+01   3.3338522913e+01    0.3145694    0.2198145  49.27 0.0006596505    1.438    0.305
        85 -12.9037    162.1885     79.6918   4.9154343801e+01   3.3077673489e+01    0.7020071    0.4042324  34.28  0.002321394    2.196    0.545
        86 -14.0807    169.6775     77.0707   4.6975118335e+01   3.1767163935e+01     1.043519    0.5179293  49.34  0.004133391    2.047    0.511
        87 -13.3188     65.3758     52.2766   6.9014229288e+01   6.0383349426e+01     1.277787     0.746649 -35.85  0.005415949    1.948    0.487
        88 -13.3850     54.2204     68.1324   7.9474985290e+01   5.8524467621e+01     1.837699    0.8419158  31.29   0.00724483    2.271    0.560
        89 -12.9685     54.6402     82.2515   8.3052395364e+01   5.4942790001e+01    0.5828617    0.4107929 -64.59  0.001785458    1.394    0.283
        90 -14.0314     61.0921     75.8878   7.8656823942e+01   5.5568913930e+01    0.6959184    0.4996728 -41.38   0.00122209    1.480    0.324
        91 -13.1791     71.3740     75.0044   7.4152096804e+01   5.4068347380e+01    0.6354758    0.4200968  11.36  0.002433465    2.254    0.556
        92 -12.2521     77.1533     73.3040   7.1349887020e+01   5.3417922851e+01    0.5941153    0.3488037 -30.88  0.001695256    2.377    0.579
        93 -12.0682     47.5352     81.6905   8.5976979178e+01   5.6040143885e+01    0.3323776    0.2526214  86.40  0.001371207    1.446    0.308
        94 -11.5874    250.0000     80.9843   3.6740155208e+01   1.4887001032e+01    0.2083149   0.05696924 -28.97 0.0008080835    2.982    0.665
        95 -12.6198    135.7603     79.9205   5.5078655542e+01   3.9245505314e+01    0.6806324    0.3444816  49.28  0.002286946    1.944    0.486
        96 -11.9842    113.7050     80.2792   6.1128553717e+01   4.4258902246e+01    0.3800875    0.3431293 -45.41 0.0006321294    1.129    0.114
        97 -12.1476    237.3678     80.3781   3.7978274904e+01   1.7179956723e+01    0.2744157    0.1283955  66.82  0.001266463    3.026    0.670
        98 -10.2346     69.3333     80.2828   7.6487815196e+01   5.3150666810e+01    0.1495921    0.1183431 -14.09 0.0004417801    1.615    0.381
        99 -11.3819     41.5181     76.4858   8.7490452613e+01   5.8110633537e+01    0.2746369    0.1383425 -70.16 0.0008629861    2.016    0.504
       100 -12.6141    211.3049     77.7726   4.0576964321e+01   2.2538682105e+01    0.4002694    0.2956576 -71.42  0.002166128    1.762    0.433
       101 -14.8889      6.4250     71.2505   1.0351445022e+02   6.2324360541e+01     1.072944    0.7772816 -64.20  0.004775404    1.249    0.199
       102 -14.1229      4.8980     63.5072   1.0342314367e+02   6.4387504513e+01     0.667052    0.6231574  18.40  0.003629962    1.203    0.168
       103 -11.5399     26.4500     75.2708   9.4327087577e+01   5.9961864752e+01    0.4354265    0.2101142  73.30  0.001635101    2.977    0.664
       104 -13.3117    199.2945     69.8620   4.0210993218e+01   2.6158693989e+01    0.6763067    0.3802616  48.08  0.002985395    1.930    0.482
       105 -12.5925    134.2955     66.4369   5.1220496202e+01   4.2073475693e+01    0.6121592    0.3966111  44.32  0.002205692    1.585    0.369
       106 -11.8192    214.7583     71.5933   3.8592075977e+01   2.2658556926e+01    0.1708467     0.129142  81.29 0.0009532043    1.646    0.392
       107 -11.5648     31.9754     65.0255   8.9472053237e+01   6.2087575746e+01    0.3295483    0.1860212 -59.98   0.00153702    1.608    0.378
       108 -11.9266     30.7575     60.9999   8.9138016511e+01   6.3233647585e+01    0.3353236    0.2201686 -67.70  0.001678227    1.440    0.306
       109 -13.2747     87.4549     65.2682   6.4815773802e+01   5.3177164088e+01     1.056468    0.6927624   8.37  0.003921401    2.831    0.647
       110 -12.2109    199.9092     61.6584   3.7956011989e+01   2.7144124973e+01    0.2399714    0.1862819 -16.26  0.001239241    1.338    0.253
       111 -13.6291    177.7478     57.0709   3.9848782145e+01   3.2896233544e+01    0.9525993     0.538914 -43.40  0.003722469    1.699    0.411
       112 -12.8874     79.0018     60.4854   6.6329454372e+01   5.5953532266e+01    0.6875552    0.4847531 -55.37  0.003204758    1.490    0.329
       113 -12.8667     82.3136     54.5177   6.2821429023e+01   5.6541746543e+01    0.5302894    0.5013941  25.71  0.002392807    1.079    0.073
       114 -11.9566     24.7143     59.2090   9.1969312059e+01   6.4249651866e+01    0.4858585    0.2848328 -65.40  0.001872085    1.547    0.354
       115 -13.1696     91.5622     57.9960   6.0734579915e+01   5.3820591600e+01    0.5431293    0.5166587 -67.29  0.002642012    1.083    0.077
       116 -11.0085    111.6071     59.2015   5.4751594134e+01   4.8933707436e+01    0.2796841    0.2034896 -36.29 0.0008095184    1.422    0.297
       117 -14.5963    120.3829     54.6844   5.0698067610e+01   4.7603406632e+01     1.040562    0.7019726  50.46  0.002121579    1.450    0.310
       118 -11.4545     17.8404     55.5319   9.5011083382e+01   6.5723242370e+01    0.3245377    0.1803202 -73.73  0.001549672    1.685    0.406
       119 -13.7805    102.6850     50.3571   5.4136832930e+01   5.2728182789e+01     1.173103      0.68668 -60.17  0.002770589    2.372    0.578
       120 -13.0505     97.7961     50.5864   5.5785493312e+01   5.3849177485e+01    0.4450869    0.3707166 -71.07  0.001450515    1.382    0.276
       121 -11.8852     37.1594     52.6688   8.3350777107e+01   6.4609777095e+01    0.5344406    0.2871323 -24.98  0.002066947    2.855    0.650
       122 -11.7534    136.2703     49.6304   4.5085202846e+01   4.4412528805e+01    0.2829804     0.263985  27.89 0.0006753552    1.153    0.133
       123 -10.7806     23.5591     50.2216   9.0433200416e+01   6.6617413034e+01    0.1904423    0.1113729 -53.72  0.000412443    1.536    0.349
       124 -13.2549    157.3490     44.1344   3.9152477495e+01   3.9799726359e+01    0.9150552    0.4528282  45.53  0.003613816    2.268    0.559
       125 -12.3448     28.3881    245.3602   1.0674634289e+02   2.2018234206e+01    0.3718076    0.1756109  35.49  0.002413748    1.460    0.315
       126 -11.9234    170.3266    241.6693   7.8521246538e+01   6.3290809341e+00    0.1012737   0.07306288  44.07 0.0007051056    1.708    0.415
       127 -11.7947    246.5118    235.2929   6.5171218180e+01  -1.6147852073e+00    0.1898057    0.1172874  12.25  0.001502717    1.135    0.119
       128 -12.7184     24.6027    217.3770   1.0657081898e+02   2.7136596063e+01    0.4705019    0.2471151  41.28  0.002961827    1.365    0.267
       129 -12.5445     14.0971    222.5614   1.0898945704e+02   2.7138290276e+01    0.3816333    0.2516792  58.88  0.001661315    1.211    0.174
       130 -13.7714     26.2111    226.5623   1.0655521103e+02   2.5354852777e+01    0.6347905    0.3664216 -54.41  0.003989016    2.496    0.599
       131 -14.3914    122.0703     36.8388   4.3550769109e+01   5.0073239786e+01     1.348002    0.5743295  49.14  0.004920429    2.327    0.570
       132 -13.6144     20.4958    224.2804   1.0768675758e+02   2.6274178130e+01    0.4256884    0.4207605 -14.20  0.002661454    1.447    0.309
       133 -12.3183    109.6905     42.0482   4.8783916724e+01   5.2449229816e+01    0.5419066    0.2297071  51.55  0.001441387    2.238    0.553
       134 -12.4314     75.8413     37.2951   5.8157203663e+01   6.1333313240e+01    0.4158601    0.2690011  45.42 0.0009142305    1.517    0.341
       135 -11.7310     70.4382     36.2994   5.9967671164e+01   6.2675592491e+01    0.3322325    0.2765049  60.95  0.001175032    1.313    0.238
       136 -12.5480    242.3770     36.2429   2.7267951479e+01   2.1336265991e+01    0.4809563    0.2500355  77.85  0.002331361    2.336    0.572
       137 -11.9683     34.9981     34.7889   7.8148666937e+01   6.9091848742e+01     0.407328    0.2240285   8.99  0.001663548    2.660    0.624
       138 -12.9184     45.8472     33.5208   7.1018212417e+01   6.7804944092e+01    0.7327284    0.5132069  37.18  0.003754871    1.456    0.313
       139 -14.0435     65.0963    223.4574   9.8024899625e+01   2.1895294730e+01    0.9831811    0.5060548  43.23  0.005842702    1.459    0.315
       140 -13.0970     59.4845    212.9893   9.8554889089e+01   2.4373639362e+01    0.3127991    0.2288514 -61.27  0.001268748    1.712    0.416
       141 -14.0037     63.9562    214.3494   9.7639608228e+01   2.3621579372e+01    0.5684761     0.306445  48.14  0.003319292    1.512    0.339
       142 -12.5223     94.4681    218.4656   9.1193036069e+01   1.9223932789e+01    0.2286589     0.169485  36.56  0.001479674    1.039    0.037
       143 -12.0818    223.1705     20.8491   2.4935159512e+01   2.6845925448e+01    0.5217797    0.2758334  88.16  0.002637367    2.169    0.539
       144 -12.5488    249.3721    216.5892   6.2077192958e+01  -2.0664473885e-01    0.2068926    0.1526746   4.35  0.001492981    1.159    0.137
       145 -12.6912    237.6452    214.4873   6.3509293542e+01   1.2924714341e+00    0.2901983    0.1899798 -39.82  0.001988989    2.374    0.579
       146 -12.1946      3.9032    211.9006   1.1092420730e+02   2.9910525802e+01    0.3847099     0.136531  82.12  0.001982413    2.810    0.644
       147 -12.2384     63.2760     25.3407   5.7734191904e+01   6.6171859520e+01    0.5482311    0.3732533   7.78  0.002391601    2.124    0.529
       148 -11.5466     30.7547     25.6729   7.6871187592e+01   7.1650505367e+01     0.318102    0.2111916   7.07    0.0015903    1.796    0.443
       149 -11.3221     36.1696     23.6084   7.2120897488e+01   7.1350481203e+01    0.3127424    0.1955188 -47.50  0.001565756    1.538    0.350
       150 -13.1794      3.8553     43.5840   1.0125404364e+02   6.9497240598e+01    0.5102262    0.3741349 -18.92  0.002984171    1.465    0.318
       151 -11.2311     51.5882     20.7881   6.1143402211e+01   6.9303149911e+01    0.2634486    0.1912653  41.88 0.0008117666    1.370    0.270
       152 -12.4343     46.8389     20.4726   6.3663528776e+01   7.0233575955e+01    0.4084851    0.2920419  19.32  0.002030153    1.577    0.366
       153 -12.1698     72.4855    207.4962   9.5160623986e+01   2.3861023725e+01    0.3552693    0.2590784  83.74  0.002070058    1.593    0.372
       154 -12.1970     41.0253    206.4886   1.0238068332e+02   2.7566235412e+01    0.2275696    0.1337538  65.09  0.001370624    1.603    0.376
       155 -12.1491     57.3573    203.0607   9.8345385763e+01   2.6458291657e+01    0.4629002    0.2098141  80.08  0.002092645    3.206    0.688
       156 -10.1656     75.6546     31.6731   5.5580914444e+01   6.2389996323e+01    0.1554394    0.1141228  14.46 0.0007050405    1.747    0.428
       157 -11.1583    185.4966    203.5109   7.0606560428e+01   9.0854369577e+00    0.1186268   0.09236527  15.43 0.0008105419    1.015    0.015
       158 -13.2586     16.2150    196.6443   1.0773360477e+02   3.1818831289e+01     0.508207    0.2875175 -67.12  0.003056278    2.068    0.517
       159 -14.1370     22.1929    166.5841   1.0492329371e+02   3.7623230849e+01     1.216545    0.3936085  57.76  0.004976579    2.890    0.654
       160 -13.6003     29.8029    169.4464   1.0302304742e+02   3.6293780737e+01    0.8273223    0.7636985 -34.41  0.005651625    1.397    0.284
       161 -13.8772     22.2486    181.0948   1.0563086814e+02   3.4472304690e+01    0.8135983    0.3855416 -60.95  0.004196058    2.464    0.594
       162 -15.4014      7.8966    183.6688   1.0931988378e+02   3.5130744260e+01     1.224452     1.035909  87.81  0.008916635    1.267    0.210
       163 -15.4969     15.2542    174.8062   1.0715182701e+02   3.6413407386e+01     2.216355    0.8104481  52.83   0.01056721    2.182    0.542
       164 -12.8642    248.4233    197.0742   5.9212752365e+01   1.8085758082e+00    0.4403383    0.2462384 -30.19  0.002977651    1.788    0.441
       165 -13.3534     40.0307    194.7891   1.0194393760e+02   2.9945856421e+01    0.4158548    0.1968629  68.93  0.002100222    2.247    0.555
       166 -12.2155     11.7644     43.6814   9.6151122212e+01   6.9101812445e+01    0.4440954    0.2386024 -21.08   0.00207467    2.196    0.545
       167 -10.9037    200.6687    192.3074   6.6111340868e+01   8.4344758453e+00    0.1019243   0.09141767  46.18 0.0005146925    1.664    0.399
       168 -13.2726     55.3922     27.2326   6.2638072568e+01   6.7398271823e+01    0.6832073    0.3869266  46.53  0.002564394    1.811    0.448
       169 -12.5655    249.5105    182.5325   5.6674854662e+01   3.1871103087e+00    0.2863331   0.08626284 -33.59   0.00137408    3.101    0.678
       170 -11.8362     49.0738    182.1104   9.8819845299e+01   3.1576007552e+01    0.2871118    0.1848574 -72.03  0.001659976    1.704    0.413
       171 -11.5114    198.9908    181.7598   6.4656591407e+01   1.0039280983e+01    0.1607262   0.08808151  33.91 0.0007475892    1.636    0.389
