#   1 NUMBER                 Running object number                                     
#   2 MAG_AUTO               Kron-like elliptical aperture magnitude                    [mag]
#   3 X_IMAGE                Object position along x                                    [pixel]
#   4 Y_IMAGE                Object position along y                                    [pixel]
#   5 X_WORLD                Barycenter position along world x axis                     [deg]
#   6 Y_WORLD                Barycenter position along world y axis                     [deg]
#   7 A_WORLD                Profile RMS along major axis (world units)                 [deg]
#   8 B_WORLD                Profile RMS along minor axis (world units)                 [deg]
#   9 THETA_WORLD            Position angle (CCW/world-x)                               [deg]
#  10 FWHM_WORLD             FWHM assuming a gaussian core                              [deg]
#  11 ELONGATION             A_IMAGE/B_IMAGE                                           
#  12 ELLIPTICITY            1 - B_IMAGE/A_IMAGE                                       
         1 -14.1233    164.7988     45.5129   7.8373812649e+01   3.8672295437e+01      1.79648     1.039614  27.67  0.005852992    2.620    0.618
         2 -14.1770    178.0879     30.4146   7.1430324549e+01   3.7212246669e+01       1.0109    0.9109465   3.13   0.00389768    1.289    0.224
         3 -13.4228    181.9102     23.5872   6.8818754431e+01   3.7030194703e+01    0.5994416    0.4918596  73.22  0.001125558    1.131    0.116
         4 -11.6728    189.6798     14.9828   6.5298652130e+01   3.5965540484e+01    0.1956855    0.1794582 -59.60 0.0007372128    1.105    0.095
         5 -12.1522    212.3968    182.2495   1.0396630110e+02   3.7008267836e+00    0.3694286    0.2578069  10.34  0.001112218    1.652    0.395
         6  -9.5061    196.7379    250.3405   1.1814084402e+02  -3.1707811651e+00    0.1023508    0.0844993  59.51 0.0003637341    1.591    0.371
         7 -19.6267     46.6412    161.7130   1.3728326229e+02   3.6799799798e+01     19.11349     5.430291 -72.63   0.06931029    3.553    0.719
         8  -9.8876      1.0000    250.1010   1.5172810299e+02   2.4066857687e+01    0.1370711   0.04352246 -82.53 0.0002936508    2.757    0.637
         9 -11.5338    198.7035    178.0824   1.0577056277e+02   6.9755026052e+00    0.3269783    0.2822345 -61.51  0.001062415    1.462    0.316
        10 -10.4517    120.3086    205.3411   1.2648885215e+02   1.6613273958e+01    0.1216681    0.1040868  -0.03 0.0007043848    1.690    0.408
        11 -11.8025    137.6360    170.6225   1.1724951276e+02   2.0403328980e+01    0.2795843     0.245171  72.01 0.0009643574    1.139    0.122
        12 -10.3166    225.3144    166.6860   9.8453690548e+01   3.7266848988e+00    0.1267373    0.1109987 -78.14 0.0002933525    1.641    0.390
        13 -11.7927    104.6727    201.8311   1.2927577143e+02   1.9886510065e+01    0.3032799    0.1962018  47.75  0.001677409    1.343    0.255
        14 -12.0423    111.0720    197.4774   1.2735451511e+02   1.9698728822e+01    0.5399413    0.2778502  25.39  0.002071111    3.498    0.714
        15 -10.8301    115.6068    193.2295   1.2579254804e+02   1.9782279787e+01    0.2123204    0.1639692 -40.70 0.0007340388    1.667    0.400
        16 -10.5427      6.4980    161.5046   1.4636549361e+02   4.0767823387e+01    0.1355993    0.1148723   7.27  0.000573947    1.805    0.446
        17 -11.4996    102.0032    158.2089   1.2341445449e+02   2.9631845987e+01    0.2890883    0.2661867 -86.61 0.0004859242    1.060    0.056
        18 -11.9096    103.6866    153.9883   1.2226322493e+02   3.0298593924e+01    0.4540343     0.318936  64.21  0.001420027    1.494    0.331
        19 -11.6179    164.0914    156.8704   1.0863448125e+02   1.7880063703e+01    0.3133307    0.2186884 -40.02 0.0009364033    1.527    0.345
        20 -11.6239    133.7473    144.7647   1.1308084455e+02   2.6696320249e+01     1.038477    0.2597029 -54.81  0.002499448    5.835    0.829
        21 -11.3609    174.4886    149.1844   1.0471872225e+02   1.7194785008e+01    0.2888987    0.2109013  44.90  0.000802029    1.323    0.244
        22 -10.3230     90.0162    147.7328   1.2458438560e+02   3.4034366402e+01    0.1934709    0.1701723  64.16 0.0002861961    1.097    0.089
        23 -10.6351      6.5513    145.9186   1.4517165820e+02   4.4202633176e+01    0.1610086    0.1448875 -82.28  0.001223444    1.258    0.205
        24 -12.0997    111.9771    140.9528   1.1769682414e+02   3.1785185796e+01    0.4637819    0.3024929 -35.06  0.002053445    1.993    0.498
        25 -12.5489    101.2936    141.3775   1.2052049405e+02   3.3613995700e+01    0.2676616    0.2488896  55.42  0.000390387    1.111    0.100
        26 -11.5445     14.8515    136.4372   1.4230529584e+02   4.5704410259e+01    0.2060082    0.1844093  84.05 0.0004218627    1.187    0.158
        27 -11.9515    106.1887    129.2470   1.1674784829e+02   3.5550577822e+01    0.5771962      0.33407 -58.19  0.002278209    1.726    0.421
        28 -11.3109    117.9860    130.6955   1.1396822439e+02   3.2983245417e+01    0.3242134    0.2928504 -16.90 0.0009962601    1.322    0.244
        29 -11.2981    160.3039    128.0048   1.0296856164e+02   2.4591984807e+01    0.2274363    0.2077481 -49.08  0.001175851    1.109    0.098
        30 -13.2566    197.0726    197.1490   1.0967006639e+02   4.1843988830e+00    0.7089608    0.4853081  47.75   0.00249668    1.440    0.306
        31 -10.0053    141.1770    126.3774   1.0710946027e+02   2.9163173994e+01    0.2124006    0.1424528  57.05 0.0001693881    1.588    0.370
        32 -11.5987    135.3418    122.3276   1.0757539471e+02   3.1302112078e+01    0.5675431    0.1379914 -51.50   0.00136966    5.204    0.808
        33 -10.9303     82.8475    120.9145   1.2138634825e+02   4.1491032263e+01    0.2151166     0.184695 -44.51 0.0005639911    1.230    0.187
        34 -10.5095    112.4552    119.8151   1.1293084919e+02   3.6541234811e+01    0.2587492    0.2080281  46.06 0.0003022462    1.267    0.211
        35 -11.8897    189.1080    187.4125   1.0944403128e+02   7.2496523968e+00    0.5672379     0.378119 -55.91  0.002315373    1.971    0.493
        36 -11.4074    168.3728    113.3555   9.7464800217e+01   2.5720870965e+01    0.4133303    0.3032734 -82.85 0.0009950402    1.918    0.479
        37 -11.1679    180.7336    194.4353   1.1238304472e+02   7.6482538597e+00    0.3774064    0.2634872 -81.66  0.001725376    2.702    0.630
        38 -10.5768    205.3847    110.1268   8.9128261576e+01   1.7612912759e+01    0.2576456    0.2064247  39.43 0.0006813009    1.310    0.237
        39 -11.2925    183.8247    215.5963   1.1533765140e+02   3.7000430944e+00    0.1900836    0.1057762  48.93 0.0009521798    1.726    0.421
        40 -10.7577    165.9777    208.6196   1.1769790211e+02   7.9792182157e+00    0.3082892    0.1875094  53.34  0.001571859    1.656    0.396
        41 -10.2046     85.3177     77.0344   1.0948655316e+02   5.1049046010e+01    0.1969765    0.1743704 -45.81 0.0004299243    1.069    0.064
        42 -10.7397    162.3348     61.3092   8.3832668753e+01   3.6879170473e+01    0.1595975    0.1181144  25.09 0.0004223297    1.676    0.403
        43 -10.4125    158.4468    194.2218   1.1687645096e+02   1.1861132472e+01    0.1752128    0.1328877 -67.05 0.0008199761    1.638    0.389
        44 -10.7876    168.1549    248.1498   1.2292006718e+02   1.6262708504e+00    0.1583552    0.1203817  54.36 0.0004134761    1.323    0.244
        45 -11.1820    158.4668    246.9577   1.2451689755e+02   3.3459091371e+00    0.1476536    0.1008648  89.97 0.0008096368    2.582    0.613
        46 -13.6296     10.8208    206.2406   1.4824134669e+02   3.1093905622e+01    0.4597779    0.2867518  36.15  0.003171606    1.835    0.455
        47 -11.7260    207.8695    185.8894   1.0552173089e+02   3.9690762709e+00    0.3277149    0.2611082  20.02 0.0009640933    1.189    0.159
        48 -12.1644     21.1666     36.9076   1.2125104289e+02   6.7224977831e+01    0.3612064    0.1779258  19.98  0.001982582    2.353    0.575
