#   1 NUMBER                 Running object number                                     
#   2 MAG_AUTO               Kron-like elliptical aperture magnitude                    [mag]
#   3 X_IMAGE                Object position along x                                    [pixel]
#   4 Y_IMAGE                Object position along y                                    [pixel]
#   5 X_WORLD                Barycenter position along world x axis                     [deg]
#   6 Y_WORLD                Barycenter position along world y axis                     [deg]
#   7 A_WORLD                Profile RMS along major axis (world units)                 [deg]
#   8 B_WORLD                Profile RMS along minor axis (world units)                 [deg]
#   9 THETA_WORLD            Position angle (CCW/world-x)                               [deg]
#  10 FWHM_WORLD             FWHM assuming a gaussian core                              [deg]
#  11 ELONGATION             A_IMAGE/B_IMAGE                                           
#  12 ELLIPTICITY            1 - B_IMAGE/A_IMAGE                                       
         1 -14.5734     19.5369     61.1642   6.8955699312e+01   6.4056360337e+01     1.693771     1.427502  38.24  0.007870141    1.351    0.260
         2 -14.7744    105.0187     81.2584   3.9921303746e+01   4.5990143345e+01     2.084684     1.697624  77.32  0.009776161    1.447    0.309
         3 -13.6092    250.2073     30.5609   1.7887214306e+00   2.0432953175e+01      1.58463    0.2266631 -30.90  0.004348903    6.978    0.857
         4 -14.8635    244.3181      9.4267   3.5771278415e+02   2.3991080757e+01     1.858467     1.297287   2.28   0.01065037    2.608    0.617
         5 -14.4655    241.0849     50.6894   6.8470335067e+00   1.9668405893e+01     1.374149    0.6813163 -61.38  0.006117105    2.170    0.539
         6 -15.3613     14.3884     11.1927   5.3240832295e+01   7.4952996122e+01     2.800283     1.404779  26.16   0.01503628    1.984    0.496
         7 -14.4127     86.5740      6.2117   1.5824856428e+01   6.2315779528e+01      1.83272     1.024864  50.87  0.009081424    1.553    0.356
         8 -14.0880     73.5276     24.0834   2.8542990290e+01   6.3207074609e+01     1.559844    0.9350501  38.97  0.007415551    1.618    0.382
         9 -14.2315     73.0694     11.0876   2.2270597607e+01   6.4934536326e+01     1.670482    0.9679174  15.39  0.007504749    2.403    0.584
        10 -13.0090     98.6590     15.1154   1.6794350048e+01   5.8480755366e+01    0.4974411    0.3018938  68.83  0.002391908    1.632    0.387
        11 -13.0534      3.9945     19.5408   6.5144577733e+01   7.4262959966e+01    0.9015369    0.3099277 -49.54  0.004242091    2.233    0.552
        12 -13.8088    233.5439     38.7500   4.8469884679e+00   2.2732766903e+01    0.8968084    0.5393988  85.21  0.004989408    1.800    0.444
        13 -14.0559    241.6752    235.8195   4.2942439886e+01  -6.4433991914e+00     1.245215    0.5475759  11.77  0.006067018    3.074    0.675
        14 -14.1588    241.9895    248.1846   4.4727058615e+01  -7.8402354264e+00     1.375262    0.3955315  33.56  0.006850178    3.125    0.680
        15 -13.3750    214.2462    249.1716   4.9478662768e+01  -4.8464961487e+00    0.6631395     0.434337  23.37  0.003967986    1.240    0.194
        16 -13.8667    222.3700    243.1168   4.7218534422e+01  -5.0876147469e+00     0.618936    0.4207471  -7.36   0.00365106    1.266    0.210
        17 -15.3188    139.9199    246.6052   6.3120178611e+01   5.1223963364e+00     2.223651    0.6484146  36.33  0.009429467    2.626    0.619
        18 -14.9703    109.0925    246.1751   6.9374117095e+01   9.4149406467e+00     1.278648     0.687297  40.33  0.006096714    1.455    0.313
        19 -14.1808     82.2555    247.6779   7.5068808144e+01   1.2715546374e+01    0.7931932    0.4385811  44.00  0.003143745    1.393    0.282
        20 -13.8992     72.6247    246.1926   7.6941338586e+01   1.4201201685e+01    0.6487916    0.4037088 -74.46  0.004020973    1.923    0.480
        21 -11.7357     62.5020    248.5475   7.9192163580e+01   1.5032397044e+01     0.364968    0.2439162 -65.59  0.002387736    1.826    0.452
        22 -12.2031     64.4079    242.2043   7.8350089528e+01   1.5942283315e+01    0.3259643    0.2018604  62.83  0.001420372    1.525    0.344
        23 -13.0165     63.5018    236.5780   7.8124506332e+01   1.7096626198e+01    0.6082782     0.314958  68.56  0.002511559    2.189    0.543
        24 -16.7180     12.4039    145.0839   8.3793610854e+01   4.3286863233e+01     2.905535     2.008774 -84.20   0.01658575    1.260    0.206
        25 -13.9447     42.0390    154.6613   7.5940639866e+01   3.8012578720e+01     1.477434    0.8363135 -73.41  0.007077798    1.674    0.403
        26 -13.9747     45.3986    218.5349   8.0767035181e+01   2.2835976206e+01     1.644995     0.603117  76.46  0.005684175    4.783    0.791
        27 -14.1642     29.6837    177.5500   8.1534800420e+01   3.3714396447e+01     1.211155     1.007986   9.84  0.007419033    1.538    0.350
        28 -13.7194     33.4925    209.1927   8.2839243023e+01   2.6139903057e+01    0.6762604    0.4031398  66.86  0.002303379    1.492    0.330
        29 -14.4732     27.2723    209.4258   8.4271491666e+01   2.6750932279e+01     2.332432    0.6877488 -85.88  0.008675878    4.109    0.757
        30 -15.1720     46.2157    241.8449   8.2097806027e+01   1.8174624172e+01     1.310439    0.5915926  68.02  0.006696347    2.385    0.581
        31 -13.9213      4.9898    176.7210   8.7803659932e+01   3.6170934229e+01     0.966264    0.3647911  78.98  0.004107178    2.611    0.617
        32 -13.9770     24.7750    227.0032   8.5755653064e+01   2.3381125179e+01     1.572196      0.35016  51.50   0.00632775    3.268    0.694
        33 -15.1890      6.3206    202.2084   8.8645790247e+01   3.0317672117e+01     2.212463     0.771692  73.53  0.009685326    2.834    0.647
        34 -13.0929     18.2873    245.9720   8.7893602664e+01   2.0412095722e+01    0.6728294    0.5532516  33.58    0.0050925    1.386    0.279
        35 -11.4619     11.2385    242.0862   8.9123600754e+01   2.1823006984e+01    0.3148485     0.175607  85.60  0.002036998    1.693    0.409
        36 -14.0545      5.6246    228.2714   8.9767808626e+01   2.4996360507e+01     1.220628    0.4112217  74.04  0.005708513    2.889    0.654
        37 -14.5490     32.8350    246.9189   8.5075580932e+01   1.8727047794e+01    0.8409234     0.342955  71.19  0.004166483    2.636    0.621
        38 -11.8607     24.3462    236.8644   8.6308985729e+01   2.1501636611e+01    0.3261615    0.1474552  44.67  0.001312569    1.604    0.376
        39 -11.6680     86.6797    208.4022   7.0307383961e+01   1.9588053593e+01    0.4095915    0.2991261  55.57   0.00149296    1.259    0.206
        40 -13.0960     42.5688    197.9641   7.9900076863e+01   2.7583934124e+01    0.8089523    0.3412397  60.33  0.002932731    2.440    0.590
        41 -10.3338     33.4186    196.2070   8.1983719276e+01   2.8998203604e+01    0.1886173    0.1160837 -82.36 0.0008276739    1.579    0.367
        42 -11.5385     33.2920    189.9936   8.1564681550e+01   3.0423164985e+01    0.3827034    0.2283805  87.71  0.001230458    1.616    0.381
        43 -12.6290     16.1989    189.4396   8.5720387391e+01   3.2261748575e+01    0.5105162    0.2298368  66.80  0.001889967    2.065    0.516
        44 -11.8162     58.4750    185.8798   7.4820190011e+01   2.8403043291e+01     0.535962    0.3050015  53.95  0.001937699    1.629    0.386
        45 -11.2444     53.4175    182.0724   7.5739223642e+01   2.9934619811e+01    0.4542502    0.2299667 -74.81  0.001776935    2.024    0.506
        46 -11.3755    233.2462    174.6365   3.3980576888e+01   2.5777214120e+00    0.2520165    0.1734914 -15.07  0.001156758    1.336    0.252
        47 -13.5254     84.4733    143.9206   6.1690395017e+01   3.4853371934e+01      1.21926    0.8569736  38.01  0.005610386    1.394    0.282
        48 -13.9238     98.5872    147.9238   5.8332482987e+01   3.1478770916e+01      1.24401    0.8566962 -82.43  0.005552245    1.820    0.451
        49 -14.5132     98.0704    131.2595   5.5138049818e+01   3.5644829173e+01      1.42324     1.152961 -36.93   0.00537114    1.376    0.273
        50 -13.9596    104.8711    119.7098   5.0501971019e+01   3.7169980067e+01     0.940962    0.7109638  12.57  0.004217131    1.748    0.428
        51 -13.3664     52.8943    134.8695   6.9961945202e+01   4.1793612563e+01     1.342677    0.6479263 -57.44  0.005657875    1.962    0.490
        52 -12.4011    155.5585    137.4812   4.1336839391e+01   2.2836871651e+01     0.459531    0.3902958 -89.44   0.00233506    1.461    0.315
        53 -12.6260     86.6071    130.1143   5.8379077597e+01   3.7959812836e+01    0.9025934    0.4521521 -46.91  0.003513548    2.122    0.529
        54 -11.9656     36.1295    109.3106   7.1630802002e+01   5.0426937572e+01     1.747032    0.9967988  71.40  0.007469728    2.253    0.556
        55 -13.4953     49.6714    117.3747   6.8142640128e+01   4.6765571471e+01    0.9796802    0.6488312  74.02  0.004255609    1.782    0.439
        56 -14.3239     51.2485    108.3802   6.5881001080e+01   4.8907355411e+01     1.643196      1.24556 -67.44  0.007199279    1.248    0.199
        57 -11.5307    250.1635    117.3368   2.0154263768e+01   8.4871150811e+00    0.2244471    0.1463148 -28.60  0.001104506    1.336    0.251
        58 -11.7359    249.8294    112.0729   1.9109073591e+01   9.3193487715e+00    0.2926264     0.148532 -29.32  0.001344035    1.807    0.447
        59 -12.4862     41.9008     57.6548   5.6736158155e+01   6.2536098717e+01     1.397029    0.3701859  40.17  0.004427882    4.226    0.763
        60 -11.9530     23.6624     82.0573   7.1677313093e+01   5.8606707623e+01     1.289716    0.7828729 -83.68  0.006225739    1.806    0.446
        61 -13.0556     25.7447     43.1847   6.0170065141e+01   6.7573284355e+01    0.8431177    0.4935373 -46.24  0.003369403    1.512    0.339
        62 -14.1989      3.7080    102.4278   8.2838462415e+01   5.4760233307e+01     1.655236    0.5085499 -83.59  0.005883166    3.289    0.696
        63 -12.8552      2.6217    241.5429   9.0770721331e+01   2.2732742496e+01    0.5058828    0.1940936  84.05  0.002729147    2.496    0.599
        64 -11.7067      3.0531     64.0628   7.7896290804e+01   6.4384240972e+01      0.83514    0.2518265 -64.97   0.00343113    2.472    0.595
        65 -13.4659     15.3079     99.3206   7.8020588259e+01   5.4841012416e+01     1.422722    0.8434849 -83.72  0.006489153    1.609    0.378
        66 -11.9926     11.1412     84.4087   7.7538838624e+01   5.8920913590e+01    0.4462509     0.314947   1.85   0.00182894    1.667    0.400
        67 -14.3326    113.5684    100.5065   4.2994981992e+01   3.9881251388e+01     1.493318     1.131343   7.26  0.006278146    1.874    0.466
        68 -11.9861    159.5473    100.8227   3.1438718109e+01   2.9447407713e+01    0.5320632    0.4586128 -44.23  0.002745711    1.133    0.118
        69 -11.7554    154.1544     96.0000   3.1330206509e+01   3.1639644543e+01    0.5192105    0.3444812 -64.91  0.002189022    1.910    0.476
        70 -13.9783    172.5304     87.2477   2.5171422911e+01   2.9004790017e+01     1.336834     1.072725 -12.96  0.005990759    1.528    0.345
        71 -13.9861    104.6361     68.3972   3.5860583897e+01   4.8732770511e+01    0.9424383    0.5899339  44.79   0.00412411    1.584    0.369
        72 -12.3265    154.0380    237.0892   5.9090040930e+01   4.6130711558e+00    0.3026026    0.2214645   8.07  0.001898174    1.396    0.284
        73 -12.9958     92.2128     71.9289   4.1051106105e+01   5.0723893811e+01    0.8601156    0.6584919  -8.64  0.003972926    1.730    0.422
        74 -10.9088     49.7661     85.0625   6.1208965274e+01   5.5030899295e+01    0.6603444    0.4814141 -38.02  0.003097668    1.416    0.294
        75 -12.7972     41.8755     85.9448   6.4702192992e+01   5.5796598478e+01    0.8694825    0.5185977 -47.10  0.003478168    1.601    0.375
        76 -12.5302     41.9916     78.7097   6.2875173280e+01   5.7577253071e+01    0.7787737    0.4023037 -48.65  0.003446391    1.793    0.442
        77 -13.2399    228.6390     82.9786   1.5438172436e+01   1.7535297417e+01    0.6314787      0.41528 -46.42  0.002445816    1.324    0.245
        78 -13.3058    228.9409     75.6119   1.3719395515e+01   1.8579045851e+01    0.5955343    0.4437794 -46.13  0.002457889    1.142    0.124
        79 -12.9378    159.9388     74.1560   2.3974271248e+01   3.4348510116e+01    0.7481863    0.6535853  75.60  0.003529929    1.154    0.133
        80 -13.2370    174.6652     60.9363   1.7540654595e+01   3.2958346720e+01     1.103865    0.6690757 -31.07  0.005021357    1.729    0.422
        81 -12.9458     86.6275     59.2993   3.8568026191e+01   5.4469090096e+01    0.6868184    0.4082941 -29.70  0.002890207    2.002    0.501
        82 -11.3417     69.9759     57.5262   4.4191878448e+01   5.8122890527e+01    0.3465213    0.3058055  -3.11  0.001902411    1.185    0.156
        83 -12.3926     95.3250    233.6012   7.1020469538e+01   1.3481134055e+01     0.649236    0.2689158  53.91  0.002774952    2.807    0.644
        84 -12.4004     90.8464    229.1378   7.1550024218e+01   1.4919151379e+01    0.5053453    0.3537105  62.83  0.002517887    1.469    0.319
        85 -12.6624     74.8577    214.1581   7.3674345927e+01   2.0038545888e+01      2.43589      1.02039 -84.93    0.0088006    4.364    0.771
        86 -13.1871     80.2394     59.9608   4.1118157885e+01   5.5649628472e+01    0.8182962    0.5782127 -49.92   0.00394629    1.476    0.323
        87 -12.1805     43.2140     44.4117   5.1240792215e+01   6.5185754154e+01    0.6238475    0.4119868 -45.45  0.003080863    1.444    0.307
        88 -12.8260     77.0331     35.9763   3.2692955836e+01   6.0673465316e+01    0.6924546    0.4700423  23.71  0.003323332    1.734    0.423
        89 -12.6658     89.6917     34.1621   2.7562413104e+01   5.8158542148e+01    0.7634153    0.4991252  70.22  0.003071453    1.899    0.473
        90 -15.2443     55.3774    198.2291   7.6802328819e+01   2.5987326871e+01     2.050134    0.6614102  51.46  0.007674478    3.048    0.672
        91 -13.9923     70.5773    227.0595   7.5824994491e+01   1.8022375780e+01     1.035653     0.433665  59.72  0.004427278    2.862    0.651
        92 -15.1171     59.6138    217.0403   7.7439089485e+01   2.1426678411e+01     1.486414    0.7451091  82.73    0.0058904    2.559    0.609
        93 -14.3317    179.7420    248.7056   5.5631402456e+01  -5.1769071063e-01     2.396103     0.335998  35.02  0.007431979    5.591    0.821
        94 -13.1367    101.2663    224.9267   6.8807574188e+01   1.4251210137e+01     0.942715    0.3563939  50.94  0.003740002    2.978    0.664
        95 -12.5685     39.8308    225.1231   8.2428676156e+01   2.2132943370e+01    0.5356455    0.2713587  86.60  0.002339964    2.128    0.530
