#   1 NUMBER                 Running object number                                     
#   2 MAG_AUTO               Kron-like elliptical aperture magnitude                    [mag]
#   3 X_IMAGE                Object position along x                                    [pixel]
#   4 Y_IMAGE                Object position along y                                    [pixel]
#   5 X_WORLD                Barycenter position along world x axis                     [deg]
#   6 Y_WORLD                Barycenter position along world y axis                     [deg]
#   7 A_WORLD                Profile RMS along major axis (world units)                 [deg]
#   8 B_WORLD                Profile RMS along minor axis (world units)                 [deg]
#   9 THETA_WORLD            Position angle (CCW/world-x)                               [deg]
#  10 FWHM_WORLD             FWHM assuming a gaussian core                              [deg]
#  11 ELONGATION             A_IMAGE/B_IMAGE                                           
#  12 ELLIPTICITY            1 - B_IMAGE/A_IMAGE                                       
         1 -14.9230     68.2254    144.1385   1.1137631740e+02   3.7440860283e+01     3.713252     1.596304  63.34  0.005481072    3.752    0.733
         2 -14.3228    195.5906     35.0944   5.2050766370e+01   3.1747382750e+01     1.323385     1.091209  12.01  0.006295379    1.427    0.299
         3 -14.4836    206.1955     23.0739   4.7154670484e+01   3.0473845145e+01     1.176577    0.8815492  17.59  0.003665033    1.698    0.411
         4 -13.5158     66.1205     34.8580   8.3271077808e+01   6.2452430636e+01    0.8189707    0.5158131 -37.09  0.002034743    1.420    0.296
         5 -13.8298     65.8686     14.8703   7.3714025942e+01   6.5679984771e+01    0.7211125    0.6527528  33.88  0.003548167    1.260    0.206
         6 -11.0301    230.4637      1.4755   3.9034335731e+01   2.6752318021e+01    0.3875178    0.1239468  76.36  0.001353768    3.154    0.683
         7 -11.0449    212.0137    217.4906   9.2724096428e+01   1.9369658199e-01    0.2195415    0.1491673  -2.55  0.001360464    1.605    0.377
         8 -15.9477    188.2990    245.3507   1.0078378080e+02   4.8729374750e-01     3.158782     1.580716  48.94   0.01611156    2.038    0.509
         9  -9.9274     96.7177    192.8572   1.1130459848e+02   2.2862580718e+01    0.1911114    0.1380515 -16.28 0.0009572563    2.809    0.644
        10 -15.4928    142.8402    246.8578   1.0873886530e+02   7.0268407566e+00     1.005287    0.7771409  23.48  0.004070611    1.425    0.298
        11 -12.6427     72.2649    178.4527   1.1482430992e+02   2.9288564105e+01    0.4392383    0.2939822 -37.48  0.001542613    2.428    0.588
        12 -12.3327     76.2960    173.2849   1.1333327615e+02   2.9825475790e+01    0.2920653    0.2718259 -47.30 0.0009007829    1.399    0.285
        13 -10.5532     99.6075    180.8606   1.0917194883e+02   2.4796660680e+01    0.2059261    0.1686084  40.91 0.0006216724    1.254    0.203
        14  -9.2946    149.6426    180.3286   9.8417457149e+01   1.6411743398e+01    0.1388862    0.1010839  72.34  0.000704402    1.785    0.440
        15 -15.5698    134.9643    230.9186   1.0836101299e+02   1.0467223622e+01     1.242135     1.119981 -11.41  0.006650121    1.471    0.320
        16 -17.7386      6.9936    239.1618   1.3102416038e+02   2.5233766309e+01     8.601325     1.882611 -80.51   0.03354968    4.160    0.760
        17 -14.2357     58.0972    129.0678   1.1176170341e+02   4.2308480366e+01     1.413105    0.6177884 -78.03    0.0055683    2.738    0.635
        18 -13.8507     72.8770    159.3066   1.1234856262e+02   3.3350641164e+01    0.5830948    0.4850696 -50.42  0.001806686    1.434    0.303
        19 -12.0230    241.9237    229.4028   8.9652297577e+01  -5.5352982868e+00    0.4684275    0.3515987  -8.71  0.002731521    1.293    0.227
        20 -10.1082    164.3677    170.7298   9.3661724743e+01   1.5420860094e+01    0.2285222    0.1640223 -57.39  0.000867047    1.680    0.405
        21 -10.9388    194.2906    167.3745   8.7041663532e+01   1.0316347599e+01    0.2749522    0.2619672  30.83 0.0009076854    1.147    0.128
        22 -13.1221     91.0238    156.4857   1.0762850791e+02   3.1308590468e+01    0.5833308    0.4492159 -28.80  0.002208784    1.888    0.470
        23 -12.0827    133.8775    144.0229   9.5147718422e+01   2.6502829728e+01     1.003018    0.2493847 -53.29  0.002669156    5.100    0.804
        24 -10.7807    156.0494    200.4531   1.0034407703e+02   1.1833156120e+01    0.3112374    0.1831672 -67.29  0.001460909    2.854    0.650
        25 -10.7508    174.8743    149.0936   8.7135599482e+01   1.7281878080e+01    0.2172796    0.2024253  84.32 0.0006289399    1.254    0.203
        26 -13.0428    193.5182    193.2036   9.2000308544e+01   6.4777190261e+00    0.7701566    0.4461616 -50.35  0.003878176    2.355    0.575
        27 -11.6853     43.5430    148.4703   1.1807447150e+02   3.9468122065e+01     0.235421    0.1960887 -77.92 0.0009365155    1.145    0.126
        28 -11.4519     96.8412    148.0806   1.0485538370e+02   3.2257628862e+01    0.2220155    0.1760386  76.99 0.0006262717    1.275    0.216
        29 -11.6544     87.0695    145.8640   1.0690554154e+02   3.4311462017e+01    0.3525632    0.2480663  74.51   0.00182824    1.538    0.350
        30 -15.1528     10.6099    206.6216   1.2918483290e+02   3.0623949737e+01    0.5762173    0.5234838  87.49  0.002603451    1.473    0.321
        31 -12.2454    104.4604    140.7095   1.0164069020e+02   3.2639333326e+01    0.5730798    0.3385652 -32.87  0.002347912    2.654    0.623
        32 -12.4269     91.7983    141.4228   1.0496171007e+02   3.4584117784e+01    0.2722963    0.2496096 -62.47 0.0003895063    1.147    0.128
        33  -9.7674    141.4755    198.0741   1.0286705444e+02   1.4704023872e+01    0.1668015    0.1278892 -56.10 0.0004006002    1.509    0.337
        34 -11.1530     33.3243    132.3123   1.1881514707e+02   4.4287924481e+01    0.2121079    0.1581212 -74.24 0.0009007396    1.145    0.126
        35 -11.2866    112.8524    131.1715   9.7615659404e+01   3.3295856960e+01     0.320338    0.2748694   3.41  0.001328039    1.508    0.337
        36 -10.9337    105.9509    130.7199   9.9293163738e+01   3.4647033086e+01     0.344258    0.2881417 -83.34  0.001394347    1.224    0.183
        37 -12.9191    118.7652    126.7528   9.5151721812e+01   3.3178064508e+01    0.7885787    0.4077711 -46.09  0.003255965    1.954    0.488
        38 -11.3554    100.0325    127.6903   1.0021622722e+02   3.6380748704e+01    0.3819573    0.2454962 -42.88  0.001109594    1.711    0.415
        39 -12.5390     44.2607    127.6308   1.1530612869e+02   4.4267974680e+01    0.4732011    0.2676027  84.44  0.001716468    1.944    0.486
        40 -11.7318    135.6686    127.5358   9.1124729276e+01   2.9658107010e+01    0.4335776    0.1445226 -47.20  0.001408985    3.001    0.667
        41 -11.0312    125.8689    127.7056   9.3574920948e+01   3.1587031380e+01    0.2910901    0.1955749 -78.92 0.0009330517    2.121    0.529
        42 -10.2254    108.8772    119.9238   9.6189185299e+01   3.6586932337e+01    0.2156852    0.2052958 -85.30 0.0004170107    1.016    0.016
        43 -10.4129    167.8990    112.6750   7.9980357802e+01   2.5716152012e+01    0.3480152    0.2539138 -79.53   0.00148413    2.047    0.512
        44 -14.1125     84.5836    163.8031   1.1021608220e+02   3.0677537265e+01     1.533611    0.5261245  52.12 0.0004499789    3.285    0.696
        45 -12.6396    119.4506    110.1052   9.1020058917e+01   3.6772811397e+01    0.5281784    0.3966376  87.97  0.002421332    1.754    0.430
        46 -10.0319    205.6761    110.2297   7.1818923681e+01   1.7579191259e+01     0.242815    0.2133016  34.26 0.0006097138    1.168    0.144
        47 -16.0335    109.8678    230.3076   1.1285712892e+02   1.4299362207e+01     4.230299     2.137308  28.42   0.02097596    2.712    0.631
        48 -10.9430    134.5789    105.2699   8.5840471118e+01   3.4676309510e+01    0.3155058    0.1457734 -48.57  0.001150918    2.177    0.541
        49 -10.2274     95.3082    105.4982   9.6547334771e+01   4.2375100978e+01    0.2399872    0.2111439 -68.15 0.0002838921    1.085    0.078
        50 -10.7023     86.5551     99.4786   9.7639370961e+01   4.5278642159e+01    0.3031695    0.2348439  73.93  0.001172441    1.536    0.349
        51 -10.2625     41.7297     91.9895   1.1017613697e+02   5.3125354017e+01    0.1886682    0.1491369 -65.56 0.0004193845    1.054    0.051
        52 -12.7040     31.9367     84.7212   1.1205329969e+02   5.5815577206e+01    0.7605627    0.4564514  67.91  0.002954219    2.202    0.546
        53 -13.7413     36.0052     73.3154   1.0814897614e+02   5.8140782236e+01    0.9757643    0.6862717 -19.62    0.0038516    1.808    0.447
        54 -12.9040     37.0445     65.6200   1.0583941229e+02   5.9826763789e+01    0.6872799    0.5412615  23.43  0.003396903    1.527    0.345
        55 -10.2583     61.9539     68.8249   9.7369477375e+01   5.6134489806e+01    0.2403721    0.1916486  61.77  0.000961095    1.570    0.363
        56 -10.4199     13.3941     59.9006   1.1388510656e+02   6.3045520970e+01    0.1746261    0.1603953  88.96 0.0004386868    1.248    0.199
        57 -11.5198    154.3872     57.1545   6.6316010076e+01   3.9280539206e+01    0.4453928    0.3065078 -76.59   0.00170691    2.086    0.521
        58 -10.7938    156.8725     51.2123   6.3779324009e+01   3.9599939027e+01    0.3245399     0.258433 -78.12 0.0009559498    1.503    0.335
        59 -13.8121    186.2944     42.5439   5.5702128164e+01   3.3181556831e+01    0.9832559    0.6779975  12.63  0.002695389    1.956    0.489
        60 -11.9263    242.4286    222.9888   8.8554094772e+01  -4.9511415839e+00    0.5869049    0.2767719  14.73  0.002843481    2.818    0.645
        61 -12.0445    196.5276    230.5275   9.7360142969e+01   1.0045289100e+00    0.2280633    0.1828841  45.17 0.0009975706    1.344    0.256
        62 -16.7199     53.4277    202.3018   1.2095661805e+02   2.6890687547e+01     5.136272     2.500803 -74.66    0.0292779    1.997    0.499
        63  -9.5923    107.8093    203.4109   1.1031111954e+02   1.9194710861e+01    0.1580976    0.1069424  35.91 0.0003589844    1.480    0.324
        64  -9.8922    146.3999     20.2764   5.4653969207e+01   4.6557001249e+01    0.2393799    0.1731261 -81.88 0.0006455595    1.675    0.403
        65  -9.5228     96.0061    201.0102   1.1239696327e+02   2.1414914662e+01    0.1476633    0.1218989  62.37 0.0003562623    1.004    0.004
        66 -11.3956     59.7505     41.9556   8.8809130653e+01   6.2125828214e+01    0.3212671    0.2702252 -46.90 0.0009383044    1.196    0.164
