#   1 NUMBER                 Running object number                                     
#   2 MAG_AUTO               Kron-like elliptical aperture magnitude                    [mag]
#   3 X_IMAGE                Object position along x                                    [pixel]
#   4 Y_IMAGE                Object position along y                                    [pixel]
#   5 X_WORLD                Barycenter position along world x axis                     [deg]
#   6 Y_WORLD                Barycenter position along world y axis                     [deg]
#   7 A_WORLD                Profile RMS along major axis (world units)                 [deg]
#   8 B_WORLD                Profile RMS along minor axis (world units)                 [deg]
#   9 THETA_WORLD            Position angle (CCW/world-x)                               [deg]
#  10 FWHM_WORLD             FWHM assuming a gaussian core                              [deg]
#  11 ELONGATION             A_IMAGE/B_IMAGE                                           
#  12 ELLIPTICITY            1 - B_IMAGE/A_IMAGE                                       
         1 -11.8040     25.7180     36.3826   1.0688999114e+02   6.4269065439e+01    0.3475543    0.3332275  72.29  0.002547505    1.923    0.480
         2 -12.6911    129.6535     24.3477   7.1539386432e+01   4.7872094226e+01    0.4162538    0.3390402 -60.15  0.000999122    1.519    0.342
         3 -11.8320     84.9492     21.3828   8.0901449240e+01   5.7350515076e+01    0.4563597    0.3602619 -77.48  0.001204192    2.299    0.565
         4 -11.6298      3.9667     18.5418   1.0961875957e+02   6.8792518434e+01    0.3620801    0.2323557  -5.23  0.002194683    1.263    0.208
         5 -11.0418      9.8139     15.7823   1.0587616638e+02   6.8663150058e+01    0.2498146    0.1517312  -7.49  0.000723714    1.367    0.269
         6 -11.4285     20.8530     17.4575   1.0171495381e+02   6.7364280736e+01    0.4259764    0.4110311 -43.72  0.003308353    2.003    0.501
         7  -9.7524     15.1838     14.1738   1.0282967453e+02   6.8355799706e+01    0.1673763    0.1193355 -27.76 0.0008044795    1.397    0.284
         8 -10.8513     34.6645     16.2896   9.5579789881e+01   6.5888569345e+01    0.3465581    0.1817309 -16.13  0.001635553    1.880    0.468
         9 -11.5898    107.8667     17.2145   7.3840929412e+01   5.3210993246e+01    0.3212008     0.184527  47.35 0.0004005611    1.437    0.304
        10 -10.8287     88.4894      6.6998   7.4798775920e+01   5.7989110572e+01    0.4424756    0.2333097  71.16 0.0009020898    3.124    0.680
        11 -11.4242     76.0837     15.0977   8.1105195504e+01   5.9587013421e+01    0.4666095    0.2415419  -4.81  0.001965045    2.446    0.591
        12 -12.1578     81.0931      6.6430   7.6644086184e+01   5.9400906263e+01    0.3775887    0.2412491 -17.32 0.0004632427    1.700    0.412
        13 -10.9736     70.4641     14.8126   8.2637906227e+01   6.0608637315e+01    0.4037677    0.1954276 -11.21  0.002015779    2.514    0.602
        14 -10.7551     55.3370     12.9565   8.6705365858e+01   6.3293539520e+01    0.2879825    0.1984081 -18.24 0.0009281964    1.443    0.307
        15 -10.2878     60.1317     10.6886   8.4241821019e+01   6.2740374833e+01    0.3327353    0.1776749  54.81  0.001485986    2.414    0.586
        16 -10.6390     30.6194     13.3394   9.5973382909e+01   6.6729839960e+01    0.2005998    0.1113666 -22.76 0.0008750504    1.627    0.385
        17 -10.3697     99.8593     12.8556   7.4213321681e+01   5.5234371209e+01    0.2084798    0.1730412  31.55 0.0008701591    1.054    0.052
        18 -10.0135    175.9302     11.8409   6.1003837223e+01   3.8698476565e+01    0.1839391      0.14634  53.31 0.0005429185    1.254    0.203
        19 -10.4934    118.1493     11.8356   7.0004922812e+01   5.1517303736e+01    0.2157905     0.204284 -87.37 0.0009183456    1.260    0.207
        20  -9.8665    116.6845      8.3138   6.9205191341e+01   5.2118515327e+01    0.1930073    0.1356762  53.66  0.001194944    1.172    0.147
        21 -10.7049    115.5629      4.1488   6.8135689763e+01   5.2679060091e+01     0.304152    0.1908978  -1.49 0.0009760456    1.972    0.493
        22  -9.4671    186.1141     10.8307   5.9566367869e+01   3.6525385723e+01    0.1580064    0.1250818  55.29 0.0004539251    1.285    0.222
        23  -9.9307    108.4820     10.5929   7.1574711259e+01   5.3658030575e+01    0.2155011    0.1661453  55.80  0.000813812    1.171    0.146
        24  -9.5792     51.0134     10.9933   8.7388568868e+01   6.4154276797e+01     0.188372    0.1076699  15.73 0.0006564985    1.689    0.408
        25 -11.7829     74.3733      6.7268   7.8480040617e+01   6.0629336692e+01    0.3518242     0.219587  -9.00 0.0005056547    1.692    0.409
        26 -10.7932      4.0801      8.0601   1.0532526536e+02   7.0144009414e+01     0.539106    0.1243887  27.86 0.0009762388    4.179    0.761
        27 -13.3980     29.7541      3.0858   9.1950661646e+01   6.7911416699e+01    0.8064309    0.2954741  24.66  0.002955142    3.171    0.685
        28  -9.6795    122.2931      8.3508   6.8160393585e+01   5.0915915574e+01    0.1284766   0.07738457  34.23 0.0005881928    1.676    0.403
        29 -12.5041     13.9264      2.6687   9.8461012541e+01   6.9813361219e+01    0.5852541    0.2981728  31.43  0.002079886    1.907    0.476
        30  -9.5803    182.5733      7.4894   5.9207957837e+01   3.7622986344e+01    0.1193597   0.09998304  81.69 8.474751e-05    1.013    0.013
        31  -9.9935    145.7542      7.0500   6.3894080031e+01   4.5875733085e+01    0.2551859    0.1403381 -85.18    0.0011809    2.719    0.632
        32  -9.6616    229.0182      5.5301   5.4366548724e+01   2.7887529864e+01    0.1615448   0.09391029  79.17 0.0003758618    1.485    0.327
        33  -9.5438    132.3947      5.2567   6.5496569206e+01   4.8967932716e+01    0.1315544   0.07119516  43.57 0.0006962825    1.697    0.411
        34  -9.8379     59.8710      5.5159   8.2283056979e+01   6.3242414726e+01     0.220027   0.08871464  43.52  0.001140631    2.025    0.506
        35  -9.2425    172.9918      4.7632   5.9684538484e+01   3.9993869392e+01    0.1538218   0.08511404  69.19 0.0002332696    1.506    0.336
        36 -10.0162    139.2050      1.8034   6.3457057727e+01   4.7739278305e+01    0.1730927    0.1415452  73.21  0.000522176    1.133    0.117
        37  -9.2112    166.6460      1.2692   5.9610449724e+01   4.1698830235e+01    0.1208963   0.08005727 -79.55  0.000410946    1.633    0.387
        38 -10.0272    155.7697      6.6880   6.2360409565e+01   4.3672816479e+01    0.2180615    0.1636447  14.78  0.001155543    1.728    0.421
        39 -10.8197    123.0877    221.4386   1.2088997420e+02   1.1455003127e+01    0.3529714     0.252588  50.97  0.001691779    1.368    0.269
        40 -10.4451    246.9302    250.0800   1.0081008047e+02  -1.2847709789e+01    0.2566769    0.1604602  13.01  0.001252668    1.456    0.313
        41 -10.6958    250.3992    245.5376   9.9410813691e+01  -1.2686190324e+01    0.4158313    0.1352208 -32.79  0.001817929    2.982    0.665
        42 -11.3732    234.1677    240.1506   1.0139713029e+02  -9.7583609357e+00    0.2708674    0.1409778 -21.88  0.001301475    2.062    0.515
        43 -12.4930    236.5571    246.6549   1.0209111049e+02  -1.1008312141e+01    0.6400168    0.2995037  23.72  0.003165227    2.195    0.544
        44 -12.1787     16.1208    238.3334   1.4430501496e+02   2.2535432925e+01    0.9414728    0.2635765  35.14  0.004311771    3.472    0.712
        45 -12.3365      6.6279    244.3411   1.4633639359e+02   2.2312921182e+01    0.6007085    0.3808111 -88.64  0.003154861    1.287    0.223
        46 -10.5841    141.6975    220.9267   1.1676026085e+02   8.4121465090e+00    0.3105004     0.191799  23.26  0.001438062    1.908    0.476
        47  -9.5273    250.5555    219.2443   9.4666163434e+01  -8.9620408643e+00    0.1691569    0.1008285 -23.31 0.0004347036    1.533    0.348
        48 -11.3358    235.0007    216.8091   9.7010181953e+01  -6.3517488073e+00     0.351377    0.1870696 -33.87  0.001788395    1.746    0.427
        49  -9.8443    174.0446    219.7908   1.0964139130e+02   3.0482160554e+00      0.18853    0.1032856  38.13 0.0007708328    1.710    0.415
        50  -9.8546    191.5088    217.0523   1.0552144089e+02   5.6195459122e-01    0.2375473    0.1780471 -42.82   0.00106933    1.431    0.301
        51  -9.7425    194.5354    215.4861   1.0461461078e+02   3.2870418873e-01    0.1378447    0.1215414   4.48 -1.907494e-05    1.014    0.014
        52 -10.9445      9.9261    217.0763   1.4386751070e+02   2.7492718123e+01    0.2769768    0.1617642  65.94 0.0008214783    1.577    0.366
        53  -9.6611     37.9745    217.5091   1.3846159247e+02   2.4471095740e+01    0.1686465    0.1131585  39.93 0.0005118531    1.548    0.354
        54 -10.1414    201.1351    215.9173   1.0336089987e+02  -8.5262161950e-01    0.2258649    0.1520092   0.24  0.001117369    1.781    0.439
        55 -10.5323     31.1320    215.7738   1.3966278661e+02   2.5609078253e+01    0.2218012    0.1670855  39.79  0.001451242    1.452    0.311
        56  -9.4846    137.1517    215.6378   1.1688036537e+02   1.0253072597e+01    0.2032169    0.1252713  27.99 0.0009405311    1.750    0.429
        57  -9.7461    170.3139    213.3167   1.0926920813e+02   4.9090709621e+00    0.1433934    0.1054379  -1.52 0.0004769396    1.645    0.392
        58  -9.7006     13.2241    221.7993   1.4361345832e+02   2.6188889137e+01    0.1469292    0.1146901 -69.31 0.0006138269    1.310    0.237
        59 -11.0445     20.9058    211.9741   1.4134239933e+02   2.7501365305e+01    0.3353404    0.1794957  70.32   0.00114548    1.929    0.482
        60 -10.8226    241.0619    211.3079   9.4871813578e+01  -6.3815792738e+00     0.232789    0.2109737  88.70  0.001444357    1.859    0.462
        61  -9.3592     76.3561    212.2863   1.2981399214e+02   2.0682645873e+01    0.1249838    0.1035839 -19.50 0.0007022399    1.673    0.402
        62  -9.3339      2.2896    212.3232   1.4493995607e+02   2.9189531901e+01     0.106166    0.0747456 -56.22 0.0004182221    1.608    0.378
        63 -11.9160      4.1989    206.6948   1.4415438971e+02   3.0213016315e+01    0.5261606    0.2547386  85.99  0.002823724    2.020    0.505
        64  -9.4958    184.4519    208.5221   1.0539376063e+02   3.3305143155e+00    0.1413765    0.1259928   3.77 0.0001317991    1.043    0.041
        65 -10.1813    208.9730    212.0895   1.0108272478e+02  -1.4865844994e+00    0.2062153    0.1784693  -0.61 0.0004620124    1.016    0.016
        66 -11.1427     18.7992    202.8039   1.4094541951e+02   2.9700119127e+01    0.3464334    0.2239789 -72.26 0.0006451842    1.317    0.241
        67 -10.0347    175.1660    202.6534   1.0624776271e+02   6.0972789117e+00    0.2226493    0.1987296 -53.33 0.0005859989    1.271    0.213
        68  -9.6165    223.5900    201.8219   9.6280029466e+01  -2.1139579713e+00    0.1805517    0.1205236 -47.43 0.0006197133    1.701    0.412
        69  -9.0556    218.2674    201.6498   9.7262933096e+01  -1.2132128374e+00    0.1242342    0.1084301 -66.11 0.0003560997    1.621    0.383
        70  -9.6229     34.6517    201.0269   1.3748256850e+02   2.8453215624e+01    0.1701245    0.1362275 -80.09 0.0004270665    1.081    0.075
        71  -9.7004    227.1401    196.8636   9.4641259641e+01  -1.8414308674e+00    0.1931288    0.1439932  -5.75 0.0007641166    1.358    0.264
        72  -9.5760    203.1468    196.1194   9.9150144256e+01   2.3478453756e+00    0.1771757     0.172097 -67.77 0.0006573984    1.294    0.227
        73 -10.8728    215.4028    193.6510   9.6239093752e+01   6.7616871873e-01    0.3793334    0.1254204 -41.08  0.001376945    2.891    0.654
        74  -9.9143    232.3027    191.3133   9.2589145198e+01  -1.7276468347e+00    0.1379042   0.09543213  -5.75 0.0003104946    1.614    0.380
        75 -10.0308    187.0000    190.9625   1.0144258983e+02   6.2176855998e+00    0.2372348   0.07990094 -43.64 0.0008044167    2.956    0.662
        76  -9.1182    205.5164    190.5344   9.7559169930e+01   2.9600587199e+00    0.1410443    0.1276524  -7.21 0.0008094296    1.010    0.010
        77  -9.2323      1.5309    188.4395   1.4319665109e+02   3.4396757867e+01    0.1161895   0.09148747 -83.73 0.0001851078    1.022    0.022
        78  -9.4293    243.3119    187.3313   8.9827788119e+01  -2.8094284383e+00    0.1375108   0.09283307  -7.25 0.0007043597    1.674    0.403
        79  -9.4748     61.7670    185.0107   1.2942550410e+02   2.8867736717e+01    0.1833737    0.1032671 -64.29 0.0008825032    1.644    0.392
        80 -11.4071     15.8219    182.5007   1.3961327357e+02   3.4502856984e+01    0.3912971    0.2114234  88.13  0.002043898    1.922    0.480
        81 -10.0173    167.0029    183.4919   1.0425643399e+02   1.1455714260e+01    0.2022286    0.1278679  62.87 0.0008084898    2.402    0.584
        82  -9.7862      1.9844    180.3172   1.4238450377e+02   3.6158059234e+01    0.1574161    0.1328624  85.42 0.0006459937    1.113    0.101
        83 -10.8556    244.4220    178.2094   8.7817920427e+01  -1.4429362925e+00    0.2716542    0.1638937 -20.88   0.00101533    1.797    0.443
        84 -10.8344    224.4306    178.3943   9.1434850163e+01   1.8614766128e+00    0.2746009    0.2494302  48.24 0.0005157345    1.324    0.245
        85  -9.0201     36.3882    178.4858   1.3451414638e+02   3.3402626164e+01    0.1280766    0.1069266 -77.87 0.0002193628    1.026    0.025
        86 -10.1841    200.3642    176.7861   9.5771117873e+01   6.4889027231e+00    0.2057867    0.1272303 -31.43 0.0006041898    1.635    0.388
        87  -9.6485     70.0413    177.5435   1.2632295850e+02   2.9505710413e+01    0.1859151    0.1365991  32.31 0.0004847998    1.491    0.329
        88  -9.6913     74.8795    171.1104   1.2408338289e+02   3.0345636106e+01    0.2156186    0.1611456 -29.47    0.0010182    1.646    0.393
        89 -10.7958     12.8274    170.3309   1.3899969330e+02   3.7529971467e+01    0.3284914    0.1411547  88.14  0.001311409    3.334    0.700
        90  -9.7145    209.8780    166.1658   9.1640608040e+01   6.7431166937e+00    0.2000887    0.1628823  -3.07  0.000533372    1.317    0.240
        91 -10.7021     41.2740    165.5757   1.3162492884e+02   3.5895330545e+01    0.2404518    0.1473357 -78.72 0.0006558421    1.645    0.392
        92 -11.0981     36.9902    158.0345   1.3161667071e+02   3.8127690496e+01    0.2766455    0.1667784 -64.22  0.001466137    1.419    0.295
        93 -10.4209     36.3189    166.2966   1.3294422106e+02   3.6255319867e+01    0.2519281    0.2149996 -71.63 0.0008348456    1.014    0.014
        94 -10.6164     35.6931    162.6886   1.3260263676e+02   3.7167305682e+01    0.2564888     0.195236 -30.01  0.001093223    1.606    0.377
        95  -9.6805     67.1499    165.1313   1.2504010859e+02   3.2839507395e+01    0.1928352    0.1575298  77.29 0.0007527224    1.332    0.249
        96 -10.7956     51.4598    164.5281   1.2892585500e+02   3.4979509064e+01    0.4502358    0.2029489 -42.76  0.001846115    2.626    0.619
        97 -11.3291     44.3779    162.3721   1.3038597774e+02   3.6308083258e+01    0.3023704    0.1983652 -57.61  0.001281355    1.343    0.255
        98 -10.6133     48.5144    159.6524   1.2892301868e+02   3.6481089527e+01    0.3112161    0.1966282  31.54  0.001630426    1.777    0.437
        99  -9.3924    200.4525    162.5652   9.2723472588e+01   9.2266456918e+00    0.1442127    0.1361432 -23.61 0.0002065152    1.041    0.040
       100 -10.5228    247.4759    158.4861   8.3310413019e+01   1.4467057322e+00     0.134137    0.1158565 -32.58 0.0001526788    1.046    0.044
       101 -11.2990     22.5492    155.8363   1.3494153073e+02   4.0033363460e+01    0.3852338    0.3273512 -65.72  0.002556901    1.055    0.052
       102  -9.4472    216.9189    155.0000   8.7908006864e+01   7.5258806498e+00    0.2258336   0.08188596  45.28 0.0002699724    2.973    0.664
       103  -9.1866    197.9915    154.3311   9.1413941063e+01   1.1318424341e+01    0.2339378    0.1224389  65.17 0.0007051738    4.409    0.773
       104  -9.1150    151.6743    153.3358   1.0130890397e+02   2.0900235210e+01    0.1559309    0.1241697  89.02 0.0007051457    1.719    0.418
       105 -10.2567     11.2894    153.1402   1.3738299037e+02   4.1596003956e+01    0.2841566    0.1542004  30.97  0.001577565    2.150    0.535
       106 -10.3206    178.1615    151.4364   9.4891733711e+01   1.5898405329e+01    0.2805995    0.2145424 -48.48 0.0005899222    1.323    0.244
       107  -9.1933    147.5005    156.5031   1.0300696604e+02   2.1045283792e+01    0.1512813    0.1486983 -20.03 -4.310504e-05    1.020    0.019
       108 -10.5807     17.5278    146.7553   1.3499546009e+02   4.2569846380e+01    0.2719741    0.1608559 -29.09 0.0009647751    2.228    0.551
       109 -10.2464    207.0230    146.0229   8.7804960676e+01   1.1141096389e+01    0.2227374    0.2095891 -24.74 0.0007042395    1.015    0.014
       110 -10.2954     11.2853    146.6969   1.3657687233e+02   4.3076751544e+01    0.2276385   0.09025674  34.52  0.001085953    2.803    0.643
       111 -10.3988      2.9763    143.7605   1.3830145321e+02   4.4344840149e+01    0.2382124    0.1125944 -57.04  0.001272206    1.670    0.401
       112 -11.0705     21.5597    135.8195   1.3235527463e+02   4.4763720355e+01    0.2982053    0.2359401  56.25   0.00173895    1.490    0.329
       113 -10.0170    236.7026    138.8878   8.0997846963e+01   6.7805566877e+00    0.1942039    0.1602523 -39.95 0.0008568589    1.082    0.076
       114 -10.6292     15.8139    139.8246   1.3448181785e+02   4.4307069996e+01    0.2264858    0.1005894  11.21 0.0009946555    3.467    0.712
       115  -9.7944     55.1946    136.2037   1.2307730978e+02   4.1233134974e+01     0.254658    0.1749962  73.96 0.0003360347    2.073    0.518
       116 -11.0852      2.9324    136.7213   1.3743114948e+02   4.5944936187e+01    0.3880095    0.1691582 -58.84  0.002015699    1.730    0.422
       117 -11.4673      9.1830    136.7259   1.3579847363e+02   4.5515319951e+01    0.2212742    0.1715877 -51.09 0.0002073331    1.177    0.150
       118  -9.5920    137.8529    135.3878   1.0047859362e+02   2.7620102577e+01    0.2243533    0.1443732  30.38  0.000949661    1.750    0.429
       119 -10.3094    107.0833    133.2540   1.0795656513e+02   3.4032250976e+01    0.2608172    0.2400284 -24.32  0.001188514    1.077    0.071
       120 -11.2015     36.9147    129.8745   1.2708827243e+02   4.4731739666e+01    0.4962674    0.2501841 -53.17  0.002426588    1.644    0.392
       121 -10.7966     74.4602    129.6587   1.1624834256e+02   4.0188782023e+01      0.30268    0.2537905  25.44  0.001678126    1.289    0.224
       122  -9.3305    243.3943    128.5017   7.7748430614e+01   7.3778370319e+00    0.1353712    0.1159412 -41.22 0.0001285451    1.025    0.024
       123  -9.0486    233.6970    127.7222   7.9105174560e+01   9.3233832069e+00    0.1306983    0.1051701  -1.52 0.0002551137    1.545    0.353
       124 -10.1762     82.0238    125.2367   1.1308324848e+02   4.0066783634e+01    0.2360013    0.1906926 -44.83 0.0006267024    1.148    0.129
       125 -11.0879      2.1929    124.8247   1.3602293315e+02   4.8673282135e+01    0.3722388     0.146949 -59.58  0.001212812    1.844    0.458
       126  -9.7114     30.2442    124.9617   1.2812498279e+02   4.6500869896e+01    0.1826033    0.1397063 -60.12 0.0005618664    1.120    0.108
       127 -10.2380    226.2085    124.3845   7.9601831048e+01   1.1364125266e+01    0.1836998    0.1344027  65.55 0.0009437659    1.649    0.394
       128  -9.4930    219.5323    124.5007   8.0748671334e+01   1.2667293232e+01    0.1413474    0.1297607 -41.67 0.0008098042    1.003    0.003
       129 -11.3142     10.5567    122.6796   1.3337704698e+02   4.8605009862e+01    0.2455107    0.1920143  70.69  0.001571978    1.554    0.357
       130 -10.0462     21.0180    121.4849   1.3018801572e+02   4.8087991427e+01    0.2401587     0.127201   7.78  0.001179798    2.611    0.617
       131 -10.1222     33.3943    118.9710   1.2609576026e+02   4.7571482579e+01    0.2007709    0.1617984 -29.31 0.0006107982    1.251    0.201
       132 -11.7555     23.5933    107.4823   1.2685021239e+02   5.1007148243e+01      0.39472    0.2831391  69.48  0.001426491    2.031    0.508
       133 -10.7040      2.9135    105.2869   1.3279603965e+02   5.2945307239e+01    0.2694193    0.1502893 -65.29   0.00110238    1.493    0.330
       134 -10.1398      6.6829    107.5423   1.3203999560e+02   5.2223854252e+01    0.2206622    0.1902341 -75.95  0.000765153    1.236    0.191
       135 -12.2842     18.0438    115.5086   1.3002356354e+02   4.9667350884e+01    0.5170727    0.2884507 -48.57  0.002851306    1.470    0.320
       136 -11.9782     16.5049    109.2309   1.2936032369e+02   5.1177830339e+01    0.3838705    0.3672172  38.82  0.002214477    1.293    0.227
       137 -10.3439     10.9162    109.1828   1.3104637548e+02   5.1586283272e+01    0.3571482    0.1704881 -42.42  0.001130751    1.846    0.458
       138 -10.2256    249.5326    118.4843   7.4754995191e+01   7.9712947533e+00    0.1328933    0.1144801 -46.43 0.0001999407    1.019    0.019
       139 -10.6387     86.0871    116.3805   1.0979818656e+02   4.1406985636e+01    0.2585816    0.1991276 -52.27  0.000318932    1.283    0.221
       140 -11.2604     51.0667    116.8315   1.2035158398e+02   4.6185998396e+01    0.2309395    0.1818365 -50.59            0    1.120    0.107
       141  -9.1685    166.3228    115.7129   8.8968254898e+01   2.5653274284e+01    0.1498359    0.1206988 -85.39 0.0003068929    1.602    0.376
       142 -11.6050     36.0115    110.3989   1.2359359199e+02   4.9242271683e+01    0.5240496     0.221376 -54.42  0.002381093    1.938    0.484
       143  -8.9969    212.5387    112.5037   7.9247758259e+01   1.6262373566e+01     0.140946    0.1321008 -41.86 0.0004002836    1.031    0.030
       144  -9.0381    223.3477    111.7274   7.7284504292e+01   1.4177730412e+01    0.1384855    0.1047604 -76.52 0.0004757923    1.625    0.385
       145 -10.4738     55.8082    109.6672   1.1730030387e+02   4.7212882761e+01    0.2500136    0.1662734   2.08  0.001159803    1.910    0.477
       146 -10.7213    248.9929    111.9974   7.3493701371e+01   9.1597245489e+00    0.2076279    0.1751415 -49.50 0.0005691253    1.043    0.041
       147  -8.9613    133.2950    107.6790   9.4634327044e+01   3.4380813296e+01    0.1484515    0.1217651 -82.79 0.0004255408    1.614    0.380
       148 -11.3295    243.5648    104.6280   7.2724205252e+01   1.1406890521e+01    0.2259902    0.1803913 -23.53 0.0005734058    1.410    0.291
       149 -10.2673    223.2735    103.9664   7.5579780173e+01   1.5538356023e+01     0.214773    0.1992192  81.54 0.0004813576    1.133    0.117
       150 -10.6535     74.3742    102.4091   1.0977669562e+02   4.6244799863e+01    0.3073208    0.2552876 -86.56  0.001644398    1.692    0.409
       151 -10.5777    247.9524    102.4869   7.1676801885e+01   1.0927797164e+01    0.1824071    0.1295755  59.02 0.0007907301    1.583    0.368
       152 -10.0482    119.6358    101.6477   9.6542047475e+01   3.8390569554e+01    0.2349445    0.1754918  -0.15   0.00109365    1.684    0.406
       153 -10.0683     35.9767    101.5938   1.2170965194e+02   5.1174520551e+01    0.3219949    0.1726896  33.40  0.001635607    2.131    0.531
       154 -10.1283     27.6271    101.1517   1.2428737079e+02   5.2045161626e+01       0.2489    0.1404838 -34.17 0.0009344248    1.724    0.420
       155  -9.6828     30.2390     98.0179   1.2276554487e+02   5.2485682581e+01    0.1766558    0.1367081 -44.65 0.0002882966    1.066    0.062
       156 -11.4976      3.3718    100.3986   1.3181019026e+02   5.3973604576e+01    0.2535274    0.2496265 -23.88 0.0005875767    1.268    0.211
       157  -8.8670    145.0000     99.9859   8.9744868331e+01   3.3373702301e+01    0.2472592   0.08469328 -40.40 0.0008007962    2.931    0.659
       158 -10.6447     63.0478     98.9653   1.1242054858e+02   4.8582192498e+01    0.4765014    0.2368343  21.30  0.002021899    2.529    0.605
       159  -9.6986     84.9988     99.0182   1.0564724755e+02   4.5283883200e+01    0.2328507    0.1623666 -16.63  0.001118049    1.674    0.403
       160  -9.2856     81.3132     99.2683   1.0682856834e+02   4.5828448937e+01    0.1412614    0.1043078  -9.33 0.0003486905    1.548    0.354
       161  -9.5317     50.4435     99.1640   1.1649316566e+02   5.0133949501e+01    0.1814283    0.1217147 -62.97 0.0006337304    1.677    0.404
       162 -11.6669     20.2280     97.1428   1.2582485587e+02   5.3519577836e+01    0.3141849    0.2118681 -57.82  0.001200249    1.291    0.226
       163  -9.9376     94.8989     96.6629   1.0206772535e+02   4.4072666697e+01    0.2010412    0.1296036  48.11 0.0006824785    1.759    0.431
       164 -10.5231      1.6969     93.5984   1.3110566538e+02   5.5516664495e+01    0.3650577    0.1074258 -58.20  0.001641118    2.359    0.576
       165  -9.5727     67.8838     93.0358   1.0932558990e+02   4.9135751958e+01    0.2366453    0.1388711   6.65  0.001004279    2.509    0.601
       166 -10.8047     95.0685     91.0546   1.0044944757e+02   4.5146550798e+01    0.4445746    0.2590218   4.16  0.001540854    3.414    0.707
       167  -9.8772     31.5097     91.9347   1.2096017263e+02   5.3654485638e+01    0.1988262    0.1063408 -52.01  0.001025491    1.573    0.364
       168 -11.3083     25.6862     91.6322   1.2283033940e+02   5.4237876885e+01    0.2848745    0.1973831 -32.68 0.0003895214    1.286    0.222
       169 -10.4338     22.9073     87.0775   1.2271960728e+02   5.5416117424e+01    0.2767818    0.1508629 -40.86  0.001147579    1.519    0.342
       170 -12.2148     11.2163     91.0141   1.2750000865e+02   5.5471581779e+01    0.3861322    0.2220373  15.29  0.002239622    2.041    0.510
       171 -10.7606      4.4448     86.3555   1.2879677217e+02   5.6868405097e+01    0.3297689    0.2657725 -71.21  0.002273015    1.367    0.269
       172 -10.2883    157.9574     90.2115   8.4231252323e+01   3.2288957102e+01    0.2624356    0.2171507 -37.19  0.001373625    1.226    0.184
       173  -9.6040    105.3125     91.3683   9.7599854339e+01   4.3197139081e+01    0.1541005    0.1099552  -4.03 0.0007036905    1.770    0.435
       174 -10.2878    171.4888     90.5029   8.1507921801e+01   2.9181868049e+01    0.1436854    0.1404228 -86.54 -2.094524e-06    1.023    0.022
       175 -11.5446     48.3299     86.1194   1.1386275808e+02   5.3079154010e+01    0.5699086    0.4332071  70.49  0.003025843    2.279    0.561
       176 -10.0121     40.0579     80.8742   1.1528021299e+02   5.5049587273e+01    0.2333305    0.2006217  75.92  0.001428237    1.783    0.439
       177 -10.8309    112.7586     85.8770   9.3977225118e+01   4.2774550940e+01    0.3963538    0.2860938 -55.93  0.001927975    1.699    0.412
       178 -10.5159     67.0815     85.2814   1.0744125343e+02   5.0794881860e+01    0.2497801    0.1660604 -33.01  0.001304429    1.401    0.286
       179 -10.3797     16.1644     83.9712   1.2430733296e+02   5.6578802333e+01    0.2345995    0.1606768  23.97  0.001010171    1.707    0.414
       180  -9.8572    117.8815     83.5504   9.1940128066e+01   4.2161271917e+01    0.2160809    0.1379011  43.55  0.001008888    1.535    0.349
       181  -9.5001     88.0272     83.3592   1.0032690202e+02   4.7845324639e+01    0.1876327    0.1735239   7.27 0.0005206317    1.069    0.064
       182  -9.6773    184.0161     82.0217   7.7002122012e+01   2.7777446941e+01    0.2051381    0.1694854  14.92 0.0004695613    1.524    0.344
       183 -10.9257     74.5964     81.1131   1.0383094518e+02   5.0467929905e+01    0.2404098    0.2106722  13.64 0.0004271345    1.120    0.107
       184  -8.9740    146.6082     81.3082   8.4320644479e+01   3.6376620566e+01    0.1506797    0.1150036 -85.58 0.0007010437    1.824    0.452
       185  -9.5326     30.0040     81.5236   1.1893321136e+02   5.5923057917e+01    0.1681488    0.1189844  16.93  0.001007383    1.541    0.351
       186 -11.6864     21.8458     80.3474   1.2148409610e+02   5.6869448390e+01    0.4191672    0.2951922   2.71  0.001624091    1.530    0.346
       187 -10.5949     21.3180     76.7275   1.2077405146e+02   5.7631380679e+01    0.1964546    0.1716699  26.63 0.0007993446    1.424    0.298
       188 -10.8404     11.8056     79.3999   1.2477083894e+02   5.7814097213e+01    0.3600132     0.175524 -45.62 0.0006838116    1.569    0.363
       189 -10.3686      2.4742     72.5494   1.2650457217e+02   5.9761985300e+01    0.2353721    0.1341784 -43.70 0.0008397127    1.319    0.242
       190 -11.5037      3.5377     78.7822   1.2751542330e+02   5.8463414973e+01    0.3782068    0.2923254  23.71 0.0009802373    1.599    0.375
       191 -11.1464      7.1630     74.0276   1.2516723307e+02   5.9187996364e+01    0.3392107    0.2015919  11.17  0.001459329    1.903    0.475
       192 -10.7057    150.2290     77.4207   8.2459855999e+01   3.6213771327e+01    0.2856814    0.2325599 -40.17 0.0006523099    1.270    0.212
       193 -11.6224     58.5666     74.8347   1.0723446004e+02   5.3968314889e+01      0.45157    0.3549895  65.86  0.001637948    2.147    0.534
       194 -11.0977     62.7071     72.3851   1.0510976744e+02   5.3843552649e+01    0.3606624    0.3264057  84.94  0.001988643    1.681    0.405
       195  -9.6845    121.9344     76.3164   8.8793312475e+01   4.2577773664e+01    0.2050271    0.1787023  38.53 0.0008458666    1.106    0.096
       196  -9.9908    108.6651     75.6536   9.2095548827e+01   4.5394641738e+01    0.2309485     0.163243   9.46  0.001108869    1.730    0.422
       197 -11.5865     44.8091     75.2384   1.1207687841e+02   5.5613420914e+01    0.2156363    0.1869214 -22.28 0.0002671123    1.072    0.067
       198 -11.1965     37.8525     69.6497   1.1293825066e+02   5.7433864964e+01    0.5097988    0.4216618  65.24  0.003094427    2.018    0.504
       199 -11.1666     27.2520     70.2742   1.1694647839e+02   5.8365776080e+01    0.2755808    0.1971664 -44.57  0.000337106    1.236    0.191
       200 -11.0932     31.0169     66.2336   1.1443482280e+02   5.8763767891e+01      0.30878    0.1699802 -49.24 0.0006535309    1.684    0.406
       201 -10.2509    157.9748     72.2874   7.9447781207e+01   3.5284429859e+01    0.2216003    0.2016667 -27.59 0.0002934992    1.157    0.135
       202 -10.3160    160.5316     69.5346   7.8200398547e+01   3.5129878119e+01    0.3152906    0.2083392  62.51  0.001530042    1.549    0.355
       203 -11.4516    102.5427     72.8865   9.2959194997e+01   4.7058573027e+01    0.2754614    0.2326036   3.40 0.0003231869    1.167    0.143
       204 -10.3390    102.4834     68.4770   9.1630317336e+01   4.7801716116e+01    0.2590487    0.1765012 -24.41 0.0009435625    1.535    0.348
       205 -10.2368     16.8736     72.6031   1.2132678406e+02   5.8788538369e+01    0.2175881    0.1507663 -52.86 0.0006768022    1.334    0.250
       206 -10.1495    152.1506     71.2813   8.0372909003e+01   3.6766765539e+01    0.2780885     0.177963 -15.73  0.001234841    2.119    0.528
       207 -10.1009    137.3668     72.2308   8.3880085723e+01   3.9926082017e+01    0.1913757    0.1312185 -45.09 0.0003258043    1.577    0.366
       208 -11.5089     76.5823     71.2821   1.0024327351e+02   5.1936373214e+01    0.5050943    0.2924915  46.59  0.001702447    2.040    0.510
       209 -11.4842     49.8795     69.0731   1.0850089858e+02   5.6149956719e+01    0.4034127    0.2535555 -16.21   0.00214032    1.704    0.413
       210 -10.7732    143.6945     69.6688   8.1736448097e+01   3.8925281152e+01     0.334776    0.2192142 -86.32   0.00125481    2.848    0.649
       211 -11.0648     94.5358     67.2327   9.3511863454e+01   4.9508358571e+01    0.3802952    0.2980303 -41.62  0.001494222    1.392    0.282
       212 -10.4402     99.3906     65.0263   9.1431329951e+01   4.8951692966e+01    0.3116534     0.199022 -24.60 0.0009919133    1.662    0.398
       213 -11.3222     68.6073     67.2718   1.0157541057e+02   5.3880002118e+01    0.2989816     0.202664 -29.71  0.001015694    1.379    0.275
       214  -9.5087    123.3058     68.6253   8.6190270775e+01   4.3545728056e+01    0.1410211    0.1124062 -74.69 0.0007030286    1.769    0.435
       215 -10.8879     19.3272     61.6722   1.1749089991e+02   6.0652216359e+01     0.408975    0.2943671  63.21  0.002248849    2.927    0.658
       216 -11.0747     16.6566     67.9414   1.2020190242e+02   5.9699007185e+01    0.2104644    0.1991414   0.26 0.0009138392    1.331    0.249
       217 -11.0651     20.1842     65.6490   1.1827739065e+02   5.9848451857e+01    0.3728432    0.2168325  21.01  0.002177187    1.870    0.465
       218  -9.9795      6.4738     67.9599   1.2396352571e+02   6.0409803111e+01     0.185523    0.1305943 -22.51 0.0005288825    1.273    0.214
       219 -11.3047      3.0033     64.1038   1.2429899631e+02   6.1356349484e+01    0.3115806    0.2407016 -58.74  0.001364401    1.385    0.278
       220  -9.2315    180.4904     67.5795   7.4021965239e+01   3.0854853324e+01    0.1372816    0.1281857  82.10   0.00010673    1.026    0.025
       221 -10.6516     77.2859     64.1059   9.7769170795e+01   5.3039874413e+01    0.3465528    0.2703439 -36.99  0.002013957    1.327    0.246
       222  -9.7622    146.4784     66.0401   8.0120943958e+01   3.8858386667e+01    0.1946093    0.1391103 -35.26 1.809832e-05    1.469    0.319
       223 -10.7299    138.9931     65.9244   8.1716777967e+01   4.0552103822e+01    0.2094453    0.1955308  37.13 0.0003746238    1.009    0.009
       224  -9.5687    217.9565     62.4812   6.7181312899e+01   2.3252764426e+01     0.193144     0.157049 -46.93 -3.240661e-05    1.196    0.164
       225  -9.7446    209.9120     63.3111   6.8453270383e+01   2.4877849908e+01    0.1775241    0.1542796  78.37 0.0002905364    1.105    0.095
       226 -11.1837     58.0460     61.4564   1.0329121147e+02   5.6405005158e+01    0.4627879    0.1669788 -37.50   0.00151383    2.642    0.621
       227 -11.6392     64.9350     59.7874   1.0040770394e+02   5.5687976220e+01     0.769612    0.2628776  31.81  0.002932126    3.251    0.692
       228 -10.4117     51.6194     62.6776   1.0592036597e+02   5.7059136328e+01    0.2806606     0.175412 -13.96  0.001152831    1.729    0.422
       229 -11.8211     10.5548     62.2209   1.2096658822e+02   6.1219725376e+01    0.3258874     0.261137  56.43 0.0009059528    2.051    0.513
       230 -11.7437      5.3213     52.3908   1.2029437984e+02   6.3354468097e+01    0.5494059    0.2543588 -51.67  0.002507829    1.850    0.460
       231 -11.1222     83.7066     61.5704   9.4955596594e+01   5.2363978595e+01     0.327145    0.2321968  42.84  0.001792988    1.470    0.320
       232 -10.3820     86.3666     57.4464   9.2815027456e+01   5.2537763682e+01     0.312511    0.2469504 -26.11     0.001832    1.253    0.202
       233 -11.2698     86.7374     52.2030   9.0985183351e+01   5.3249842887e+01    0.4094363    0.3242507  86.75  0.002140635    2.338    0.572
       234 -11.4856     29.9805     60.7194   1.1319824261e+02   5.9862392487e+01    0.6006864    0.2337684  17.44  0.002389609    3.295    0.696
       235 -12.3804     38.0567     51.0928   1.0712272540e+02   6.0646536932e+01    0.6707619    0.4331265 -19.61  0.002604176    1.400    0.286
       236 -10.6546     44.9866     57.0491   1.0650212187e+02   5.8847342798e+01    0.3391546    0.2473926   5.95  0.001295689    1.294    0.227
       237 -10.9569     45.1261     50.7563   1.0438071781e+02   5.9857437450e+01     0.448072    0.1880989 -32.26   0.00207189    2.325    0.570
       238 -11.6931    123.3613     56.3123   8.2501894729e+01   4.5383664180e+01    0.3092881    0.2616341  20.44 0.0009353383    1.176    0.150
       239 -11.7018    127.8366     51.4546   8.0005074013e+01   4.5089388057e+01    0.2877854    0.2558399  15.48 0.0004183648    1.132    0.117
       240 -11.1105    129.5659     47.4839   7.8435862465e+01   4.5236973830e+01     0.258865    0.2139981  15.07 0.0006901107    1.289    0.224
       241 -10.6280    118.2616     54.5233   8.3190553101e+01   4.6720403444e+01    0.3988551    0.2030356  29.01  0.001597568    2.645    0.622
       242 -10.5706    100.8930     55.7729   8.8093656492e+01   5.0072417431e+01    0.4140782     0.157721  46.55  0.001653609    2.475    0.596
       243 -10.6586     75.1960     56.0484   9.5819042618e+01   5.4668837515e+01    0.2017307    0.1700229  18.62 0.0003200097    1.101    0.092
       244  -9.7449     62.1632     54.7011   9.9670987651e+01   5.6914529960e+01    0.1885818    0.1588814  40.12 0.0009020981    1.456    0.313
       245 -10.9342     12.6583     51.7548   1.1719651991e+02   6.2946261210e+01     0.243914    0.1814745 -32.49 0.0009214167    1.077    0.071
       246  -9.3136    209.8589     52.6218   6.6063993995e+01   2.6394889584e+01    0.1730736    0.1136727  81.06 0.0003454127    1.591    0.371
       247 -11.2361    154.6785     49.3796   7.3886385990e+01   3.9348736767e+01    0.6517715    0.3874924 -79.39  0.002589635    3.178    0.685
       248 -10.9008     71.0614     50.9613   9.5450768799e+01   5.6111906870e+01    0.3053806    0.2208024  45.85 0.0005904548    1.616    0.381
       249 -10.0940     77.0658     50.8365   9.3488548915e+01   5.5138785976e+01     0.182477    0.1700302  20.03 0.0004927186    1.230    0.187
       250 -10.2927     51.6115     50.4168   1.0191418369e+02   5.9071423954e+01    0.2837626    0.1777254  -5.55  0.001538927    1.740    0.425
       251  -9.5666    147.1957     48.7508   7.5140847962e+01   4.1134916552e+01    0.1845021    0.1466254  33.20 0.0004562208    1.306    0.234
       252 -10.5263     95.2352     48.7147   8.7381139137e+01   5.2162555929e+01    0.2950285    0.1763666  13.19  0.001352449    2.251    0.556
       253  -9.8973    114.2258     48.2680   8.2247747378e+01   4.8420541435e+01    0.2488678    0.1502748  47.65  0.001252407    1.509    0.337
       254  -9.8635     25.9621     48.0148   1.1076470692e+02   6.2425879350e+01    0.1733138    0.1361929 -20.01 0.0003237202    1.047    0.045
       255 -10.2427     61.8777     46.9666   9.7141462804e+01   5.8130786291e+01    0.2094323    0.1745179 -45.31  0.001051646    1.585    0.369
       256 -11.3770     12.3875     43.7136   1.1482387126e+02   6.4327450311e+01     0.362835    0.2059886  -4.46  0.001620762    1.800    0.444
       257 -10.6745      4.4260     46.8551   1.1904997363e+02   6.4376958359e+01    0.3019987    0.1550244 -20.86  0.001757783    1.852    0.460
       258 -10.4950      7.0329     41.1221   1.1621120837e+02   6.5157446300e+01    0.2245026    0.1195724 -40.66 0.0006951259    1.479    0.324
       259 -10.6386    142.6132     45.6430   7.5168827834e+01   4.2570396107e+01    0.3024004    0.2259713 -83.88  0.001099155    1.774    0.436
       260 -10.1144    104.0368     46.4586   8.4261598004e+01   5.0743630838e+01    0.2066063    0.1190048  46.13 0.0008219396    1.586    0.370
       261  -8.9983    233.2933     45.3161   6.1740332981e+01   2.2384744720e+01    0.1097467   0.09609236  31.33   0.00041798    1.600    0.375
       262  -9.9263    163.5694     45.4735   7.1254222856e+01   3.7815734189e+01    0.1321322    0.1212238  59.65 -1.041951e-05    1.032    0.031
       263 -10.6126     85.9447     45.0344   8.8824243297e+01   5.4393768742e+01    0.1949588    0.1674654  15.77 0.0004025692    1.016    0.016
       264 -10.0452     51.1621     44.8488   1.0015826219e+02   5.9977288596e+01    0.1735327    0.1526219  -3.26 0.0004657235    1.192    0.161
       265  -9.4840      1.3754     44.7020   1.1966128970e+02   6.4940855848e+01    0.1522866   0.07593899 -40.59 0.0003485389    1.496    0.332
       266 -10.4959    114.8123     57.1557   8.4856538466e+01   4.7066969153e+01    0.2429843    0.1721888  45.15 0.0004061571    1.316    0.240
       267 -10.2523    121.8512     42.9357   7.8792393595e+01   4.7489142936e+01    0.3527956     0.151397 -42.42  0.001466985    2.792    0.642
       268 -10.5898     80.6428     44.1917   9.0125278659e+01   5.5455091621e+01    0.1760263    0.1121843 -18.75 0.0005988582    1.627    0.385
       269 -11.0002     66.9454     40.9589   9.3339260470e+01   5.8190626282e+01    0.4949924    0.2627189   4.77  0.002072577    3.121    0.680
       270 -10.2346     70.7072     35.0906   9.0029817664e+01   5.8339792476e+01    0.1760154    0.1414432  -6.65  0.000845439    1.147    0.128
       271 -10.2598    110.6672     41.8586   8.1104577705e+01   4.9982359288e+01    0.2367296    0.1782599  56.50 0.0005129611    1.367    0.269
       272 -10.8320     18.5375     32.1071   1.0831300651e+02   6.5605596637e+01    0.3135424    0.2176127 -31.64  0.002172162    1.278    0.217
       273 -10.1874     28.9670     40.9948   1.0721205357e+02   6.3235672949e+01    0.2093673    0.1328817   3.54            0    1.511    0.338
       274 -12.3222     20.7783     37.7761   1.0939459038e+02   6.4544847971e+01    0.3777854    0.3179316 -65.03  0.001845694    2.135    0.532
       275 -10.3088    181.1923    248.2095   1.1297225920e+02  -3.0377433028e+00    0.2712835    0.0903376 -38.31  0.001035092    3.549    0.718
       276 -11.9929    100.5683     28.8935   7.9395865575e+01   5.3541316727e+01    0.5911567    0.3009178  27.20 0.0008359029    2.361    0.576
       277 -10.9222    105.1411     34.1538   7.9989015633e+01   5.2034435129e+01    0.2981968    0.2272459 -46.27 0.0002554691    1.659    0.397
       278 -10.9553    101.6749     36.9426   8.1776980484e+01   5.2408596150e+01    0.2529292    0.1804298  39.89 0.0005819541    1.230    0.187
       279 -11.4960     97.0806     36.9621   8.2985233928e+01   5.3315049097e+01    0.2756612    0.2393808 -47.94 0.0003619679    1.484    0.326
       280 -11.3734     89.5673     39.4079   8.5871358916e+01   5.4455220074e+01    0.3169328    0.2077336 -36.95  0.001381282    1.717    0.418
       281 -11.1784     52.6828     39.3979   9.7679199253e+01   6.0549440503e+01    0.4178215    0.1518276 -30.13   0.00178038    2.914    0.657
       282  -9.9590    226.2874     40.2849   6.1468666377e+01   2.4491028893e+01    0.1984656    0.1379875  71.30 0.0004339953    1.362    0.266
       283  -9.9568     43.7384     38.6148   1.0066719367e+02   6.1863567487e+01    0.2960301    0.1668546 -50.98  0.001312125    2.883    0.653
       284 -10.3851    131.8667     39.2073   7.5489850059e+01   4.5758711774e+01    0.1826859    0.1429143  24.70 0.0005841591    1.349    0.259
       285 -11.4401     80.1270     36.9104   8.7762371978e+01   5.6490055160e+01    0.2944434    0.2509134 -57.05  0.001824308    1.757    0.431
       286 -11.8171     76.5678     32.3670   8.7232692384e+01   5.7669662123e+01    0.5394039    0.2819608  48.16  0.002677918    1.932    0.483
       287 -10.5194    162.8633     36.8590   6.9114956755e+01   3.9030171422e+01    0.2082942    0.1607019  44.92  0.001062852    1.293    0.226
       288 -10.6141      3.3932     35.4871   1.1592768335e+02   6.6324006453e+01    0.2887758    0.1559891 -26.94  0.001150536    1.487    0.327
       289 -10.7969     10.5347     34.4815   1.1253476156e+02   6.5946193216e+01    0.3141819    0.1769783   5.19  0.001101385    1.754    0.430
       290 -10.6344      7.4892     29.9609   1.1226869588e+02   6.6875260104e+01    0.2989224    0.1418247 -37.90 0.0009439802    1.682    0.405
       291 -11.3012     10.0899     25.3507   1.0945835242e+02   6.7337378481e+01    0.2938173    0.1740116   1.44 0.0008927294    1.548    0.354
       292 -10.1590    139.8969     34.1189   7.2413480175e+01   4.4559566414e+01    0.1881821    0.1663257  81.43 0.0003010474    1.214    0.176
       293 -10.9034    123.6573     33.0649   7.5379418666e+01   4.8260762587e+01    0.2363023    0.1695795  51.44 0.0003884576    1.228    0.185
       294  -9.8993     32.4555     34.0000   1.0332828983e+02   6.3885848287e+01    0.2360563   0.05978727  32.36 0.0009325626    3.917    0.745
       295 -10.0199    178.8828     32.0757   6.5478548198e+01   3.5926037254e+01    0.1920143     0.155687 -82.91 0.0003658982    1.233    0.189
       296 -10.5422    118.0602     32.0478   7.6286272578e+01   4.9576294883e+01    0.1837252    0.1689509  44.73 0.0002973039    1.090    0.083
       297 -10.4469     56.3449     31.2347   9.3398026350e+01   6.1097319155e+01    0.2665896    0.1385339 -27.37  0.001440783    1.878    0.468
       298  -8.9414     90.2717     31.6817   8.3036524366e+01   5.5244857715e+01    0.1103694    0.1009892 -68.73 0.0003024503    1.564    0.360
       299 -10.0247     49.6580     31.2818   9.5786918946e+01   6.2062092165e+01    0.2143258    0.1270641  43.92 0.0002530731    2.028    0.507
       300 -10.1052     50.5017     27.9953   9.4242643845e+01   6.2356309605e+01    0.2667522    0.1577316  -4.82  0.001194268    1.810    0.447
       301 -10.3941     81.8375     28.5619   8.4319676731e+01   5.7166292583e+01    0.3915191    0.2390329 -57.10  0.001723355    3.736    0.732
       302 -10.2302    221.4910     28.8762   5.9635460617e+01   2.6897629887e+01    0.1712975    0.1129012 -39.46  0.001024624    1.567    0.362
       303  -9.7130    162.8726     28.8205   6.7023703470e+01   3.9936243192e+01    0.1698171    0.1383827 -82.26 0.0002413173    1.302    0.232
       304  -9.8597    140.3373     28.1162   7.0621905570e+01   4.5114630064e+01    0.2191778     0.124168 -13.93 0.0009209291    2.354    0.575
       305 -11.4721     70.7279     26.1671   8.6782407244e+01   5.9391784963e+01    0.4095144    0.2403836  33.36  0.001179239    1.483    0.326
       306 -10.7865    214.5636     27.4497   6.0063117963e+01   2.8539725753e+01    0.2082608    0.1812703  53.89 6.314296e-05    1.348    0.258
       307  -9.7885    124.8541     27.8846   7.3556064085e+01   4.8559296230e+01    0.1892581    0.1468233  35.73            0    1.205    0.170
       308 -11.1732     97.5498     40.8951   8.4166947780e+01   5.2741486136e+01     0.433782     0.233445  42.40  0.001215906    1.659    0.397
       309  -9.7978    136.9920    247.5195   1.2180551905e+02   4.1766830280e+00     0.196366    0.1138017  38.03 0.0003408943    1.519    0.342
       310  -9.6632     24.9140     26.7060   1.0364666261e+02   6.5728748568e+01    0.1590929    0.1189366   2.22 0.0006335413    1.106    0.096
       311 -10.3958    147.6111    245.2290   1.1930556977e+02   2.8691280620e+00    0.1765561     0.119978 -35.40 0.0009548485    1.730    0.422
       312 -10.8535     63.8286     25.6343   8.8782398284e+01   6.0598457021e+01    0.2421795    0.1950288  43.05 0.0007872942    1.442    0.306
       313 -10.9787     60.2346     22.4672   8.8769182649e+01   6.1529533589e+01    0.3496972    0.1506265 -38.26  0.001691166    2.821    0.645
       314  -9.1688     11.7136     19.2793   1.0641871135e+02   6.8031495663e+01    0.1360096   0.07868813 -26.92 0.0002327318    1.392    0.282
       315 -10.7280      2.1151     23.8744   1.1246301267e+02   6.8181441821e+01    0.3164708    0.1402123 -32.31  0.001488623    1.778    0.438
       316 -12.1500     74.2909    238.3281   1.3335208514e+02   1.5489772671e+01    0.5233684    0.3964454  62.29  0.003283931    1.186    0.157
       317 -11.4064     73.7669    232.9944   1.3286471026e+02   1.6647020192e+01    0.2413155    0.1924866  59.12 0.0009469963    1.118    0.106
       318 -10.5832    112.0244     24.7223   7.5325678257e+01   5.1624497603e+01    0.1877384    0.1651775  -2.47 0.0004438338    1.216    0.177
       319 -10.6703     94.2003     24.3542   7.9482210937e+01   5.5278433053e+01    0.2607702    0.2089764  29.62  0.001301892    1.053    0.050
       320  -9.7537    173.9829     24.5072   6.4312964600e+01   3.7871866118e+01    0.1917469    0.1102716  66.05 0.0003635193    1.525    0.344
       321 -10.7553    120.7710     22.7672   7.2837339202e+01   4.9959983491e+01    0.3516396    0.2726314 -29.05  0.001404658    1.468    0.319
       322  -9.5568     54.4787     23.4912   9.1115857281e+01   6.2306382908e+01    0.1198153    0.0949748   9.69 -8.409654e-05    1.027    0.026
       323  -9.4899    115.5122    244.5076   1.2577308325e+02   8.1457666437e+00    0.1276328    0.1142988  45.14 0.0003587224    1.043    0.042
       324 -10.2233    109.7214    243.0224   1.2676005172e+02   9.3309662086e+00    0.2514561    0.1909408  55.93 0.0008303373    1.236    0.191
       325  -8.9712    197.7169     22.2818   6.0807960570e+01   3.2789378865e+01    0.1219128   0.08233576 -73.08 0.0001689293    1.516    0.340
       326  -9.5695     35.5672     22.2234   9.7607298905e+01   6.5071681059e+01    0.1939282    0.1266841   5.51  0.001253745    1.334    0.250
       327 -12.2827     35.5594    241.6034   1.4106825062e+02   1.9762451882e+01    0.3842519    0.2753877  45.16  0.002598556    1.378    0.275
       328  -9.5259    162.1050     20.1132   6.4899133636e+01   4.1015518835e+01    0.1633112     0.133939 -84.99 0.0002647493    1.254    0.203
       329 -10.3856     45.5005     20.4926   9.3151918110e+01   6.3957295913e+01    0.2688987    0.1300658  42.59  0.001446802    2.212    0.548
       330 -10.3996     88.8791    241.2040   1.3075941671e+02   1.2832811087e+01    0.2259771    0.1553751 -36.23  0.001223731    2.089    0.521
       331 -10.7543    156.5088    241.0784   1.1684847793e+02   2.1499464258e+00    0.1850726    0.1313191 -46.18  0.001028254    1.576    0.366
       332  -9.5048     46.8412    241.3908   1.3896372137e+02   1.8463473659e+01    0.1433623    0.1086179  32.10 0.0003098834    1.573    0.364
       333  -9.4134     50.3125    240.3225   1.3821312833e+02   1.8248841872e+01    0.1070288   0.09132999 -39.26 0.0004582162    1.655    0.396
       334 -10.3091    195.6943    238.3623   1.0845527337e+02  -3.7405393212e+00    0.2601195    0.1994915   7.86  0.001540934    1.245    0.197
       335 -10.0124    217.3569     16.4506   5.7518908895e+01   2.9169060883e+01    0.2192084   0.09473688  65.19 0.0009398935    2.039    0.510
       336 -10.7406     60.8592     15.8221   8.6010018598e+01   6.2127564842e+01    0.2057759    0.1416214  -2.46 0.0008240323    1.365    0.267
       337 -10.8007    134.5946     22.7683   7.0143377066e+01   4.6938876190e+01    0.2291698     0.186705   6.92 0.0006521686    1.411    0.291
       338  -9.6396     24.2018    232.3604   1.4240606913e+02   2.2888323475e+01     0.191837    0.1231409  54.09 0.0007757341    1.400    0.286
       339 -10.9258     31.5138    237.5415   1.4147798319e+02   2.1036222354e+01    0.2693235    0.1923517 -84.87  0.001234124    1.224    0.183
       340 -10.5749     29.1802    232.8940   1.4152993540e+02   2.2238078017e+01     0.265732    0.2106556  66.97  0.001128166    1.100    0.091
       341 -10.1366     26.2577     13.9726   9.8015613110e+01   6.7181112581e+01    0.1663336     0.108093  -4.95 0.0003758871    1.267    0.211
       342 -11.8574    224.7855    247.0716   1.0433746543e+02  -9.4332809165e+00    0.5102643    0.2035814 -30.67  0.002286385    2.725    0.633
       343  -9.2977    240.4045     12.4234   5.4735365394e+01   2.4875145440e+01    0.1120093   0.08831337 -77.84 8.882987e-05    1.007    0.007
       344 -10.0813     72.5851    250.1367   1.3492701242e+02   1.3400071718e+01     0.186196    0.1666191  -3.43  0.001252955    1.618    0.382
       345 -10.2338    159.9249    235.8634   1.1531775660e+02   2.5134434048e+00    0.2076657    0.1705489  12.21 0.0006329911    1.241    0.194
       346 -10.2551      5.1695    235.5606   1.4602570553e+02   2.4173715036e+01    0.2282126    0.1825661 -54.77  0.001516009    1.650    0.394
       347 -10.3426    177.6210    234.8497   1.1150215037e+02  -2.3836254514e-01    0.2586065    0.1895287   9.29 0.0009685069    1.468    0.319
       348 -10.0624    166.9190    233.8572   1.1354010519e+02   1.7073471446e+00    0.2054251    0.1710688   4.16 0.0007963252    1.232    0.188
       349  -9.7775    127.3261    233.3423   1.2176810708e+02   8.3886366123e+00     0.133156    0.1034988  -5.29 0.0007051089    1.737    0.424
       350 -10.0375     79.9196    231.4930   1.3143711425e+02   1.6088087050e+01    0.1889034     0.114336  41.86 0.0004811284    1.537    0.349
       351 -13.1354     18.9236    247.8746   1.4448164736e+02   2.0374183119e+01      1.04944    0.3431748  47.05  0.005377039    2.509    0.601
       352  -9.5502     58.4801    230.4373   1.3565946674e+02   1.9229941535e+01    0.1225211    0.1046193  74.38 0.0001725771    1.013    0.013
       353 -10.2491    190.5143    227.2799   1.0756853261e+02  -1.0592978180e+00     0.394183    0.1291953 -43.17  0.001478769    3.204    0.688
       354  -9.4748    249.0434    227.2465   9.6400201020e+01  -9.9384027252e+00    0.1507808   0.09467901  27.73 0.0005842233    1.549    0.355
       355 -10.1178    129.4649    226.6885   1.2031577883e+02   9.3388710476e+00    0.3219308    0.1818549  58.14  0.001418799    2.247    0.555
       356 -10.1571     88.0787    227.1295   1.2920782044e+02   1.5803516304e+01    0.1871084    0.1818245  -5.95  0.001226498    1.259    0.205
       357 -10.7925      1.4411    245.0491   1.4724281700e+02   2.2678836666e+01    0.1874304   0.08193894 -73.91 0.0006348257    1.958    0.489
       358  -9.6486    144.3144    226.6632   1.1712812159e+02   6.8473415839e+00    0.1367627    0.1047378  70.99 0.0007046969    1.693    0.409
       359 -10.6158    115.9793    225.7852   1.2308001570e+02   1.1738130318e+01    0.1960408    0.1472589  86.07 0.0006539484    1.645    0.392
       360 -10.4401     66.4601    226.3336   1.3360428031e+02   1.9033185800e+01    0.2780296    0.1543107  41.99  0.000898277    1.694    0.410
       361 -10.3009     10.5337    226.5296   1.4445838211e+02   2.5475743993e+01    0.1147151   0.08622691  80.17  3.83436e-05    1.046    0.044
       362 -10.6247    153.4813    233.9851   1.1636057219e+02   3.9280827782e+00    0.2642698    0.2038332 -13.85  0.001452556    1.560    0.359
       363  -9.5140     80.5913    223.7718   1.3036328637e+02   1.7602296835e+01    0.1831843    0.1172181 -80.55 0.0009504585    1.738    0.425
