#   1 NUMBER                 Running object number                                     
#   2 MAG_AUTO               Kron-like elliptical aperture magnitude                    [mag]
#   3 X_IMAGE                Object position along x                                    [pixel]
#   4 Y_IMAGE                Object position along y                                    [pixel]
#   5 X_WORLD                Barycenter position along world x axis                     [deg]
#   6 Y_WORLD                Barycenter position along world y axis                     [deg]
#   7 A_WORLD                Profile RMS along major axis (world units)                 [deg]
#   8 B_WORLD                Profile RMS along minor axis (world units)                 [deg]
#   9 THETA_WORLD            Position angle (CCW/world-x)                               [deg]
#  10 FWHM_WORLD             FWHM assuming a gaussian core                              [deg]
#  11 ELONGATION             A_IMAGE/B_IMAGE                                           
#  12 ELLIPTICITY            1 - B_IMAGE/A_IMAGE                                       
         1 -10.5058     30.3573     23.9460   8.5737794665e+01   6.8370616685e+01    0.7690606    0.2447761 -36.77  0.003263268    2.852    0.649
         2  -9.5772     29.2907     18.0023   8.3621771275e+01   6.9415919973e+01    0.3531227     0.199527 -24.05  0.001389937    1.585    0.369
         3 -10.9181    236.6430     31.0974   3.7904984605e+01   2.2931277178e+01    0.5399989    0.3852652 -66.34   0.00323735    1.262    0.208
         4  -9.6031     22.2415     25.5008   9.0562412843e+01   6.8923533398e+01    0.4214642    0.1438023 -47.07  0.001867955    2.591    0.614
         5  -9.6287     15.6628     28.3826   9.5142245140e+01   6.8972227174e+01    0.6294395    0.1935809 -37.87  0.002748948    2.731    0.634
         6 -10.7422    101.6904     16.2917   5.4933276269e+01   5.7050314103e+01    0.4977728    0.3372861  29.55  0.001405046    1.422    0.297
         7 -11.2758     57.2490     14.4586   6.8911692339e+01   6.6004384147e+01    0.7167925    0.4038759   5.46  0.003520591    2.189    0.543
         8 -11.5459    111.7835     19.2062   5.3501240494e+01   5.4450362186e+01    0.4885367    0.3627214  45.71  0.002338843    1.168    0.144
         9 -11.0724    149.9769     18.5686   4.5516193157e+01   4.5234863769e+01    0.3406235    0.3018759  71.45 0.0004794649    1.044    0.042
        10 -10.2073    154.4583     15.5658   4.3853836905e+01   4.4417889300e+01    0.6138275    0.4114989  12.53   0.00226435    2.040    0.510
        11 -10.3422    156.5602     10.7635   4.2072197815e+01   4.4357840264e+01    0.5256588    0.3173832  -1.11  0.002504472    2.378    0.579
        12 -10.2681     86.9135     17.6068   5.9706687450e+01   6.0091235198e+01    0.3707217     0.274513 -46.43  0.001013479    1.800    0.444
        13  -9.5832     85.3380     13.7039   5.8526585825e+01   6.0834323666e+01    0.2169477     0.177894  39.93 0.0007667152    1.116    0.104
        14  -9.7429     38.8978     16.3771   7.8047405728e+01   6.8486696493e+01    0.3958066    0.2050039  14.66  0.001368667    2.222    0.550
        15  -9.4356     43.5620     15.2382   7.5286201711e+01   6.8007272219e+01     0.287125    0.1747727  -6.27  0.001150116    1.685    0.406
        16  -9.8848     22.7645     16.0631   8.6174912172e+01   7.0401271928e+01    0.3246914    0.3085631  54.83  0.001698356    1.861    0.463
        17 -10.0150     17.5226      3.1111   8.2725022499e+01   7.2808998286e+01    0.2784478    0.2186624  -7.12  0.001925849    1.145    0.127
        18 -10.6542      4.7819      3.5388   9.0663206615e+01   7.3869299357e+01    0.6164122    0.3088222  -6.15  0.003557839    2.053    0.513
        19  -9.8378     19.3439     10.9101   8.5624801624e+01   7.1517839423e+01    0.2336554    0.1501046  -8.28 0.0006746036    1.342    0.255
        20 -10.9347     13.3048      7.2455   8.7307875372e+01   7.2622924524e+01    0.5298135    0.3175797  35.31  0.002757127    2.241    0.554
        21 -10.1304     10.6255     15.3998   9.2645391809e+01   7.1572411755e+01    0.3304144    0.2353208 -23.01  0.002315074    1.045    0.043
        22 -10.7160    185.8349     13.5936   3.9025241918e+01   3.6801846402e+01    0.4631783    0.3802483   5.19  0.002740624    1.612    0.380
        23 -10.8997    180.7568     13.4629   3.9598342349e+01   3.8065955831e+01    0.9503666    0.3706191  43.58    0.0035008    3.492    0.714
        24  -8.9979    128.9795     10.5009   4.6615036358e+01   5.1207809619e+01    0.2348233    0.2298579 -21.59 0.0005062279    1.173    0.148
        25 -11.8204    122.3271     11.1799   4.8172916675e+01   5.2752486794e+01    0.5468755    0.3283041  52.07  0.000670891    1.404    0.288
        26 -10.9076    127.5120      4.9749   4.4969221395e+01   5.2043709762e+01    0.3411196    0.2860011  58.55  0.001219475    1.028    0.027
        27  -9.7344    216.4725      7.9342   3.4542150535e+01   3.0095054617e+01    0.3190312    0.1943517 -47.86  0.001210949    1.525    0.344
        28 -10.7839    210.7963     10.7011   3.5692732865e+01   3.1118232742e+01    0.4342414    0.2876402 -57.57   0.00104923    1.410    0.291
        29 -10.1755    212.5330      6.0084   3.4442551477e+01   3.1198765857e+01    0.3222728    0.2029805 -39.76  0.001297022    1.573    0.364
        30  -9.1473     92.6187     10.1964   5.4905934499e+01   5.9644831954e+01    0.2547818    0.1709822  60.14 0.0007228668    1.520    0.342
        31  -8.9405     47.5446      9.5402   7.0672004219e+01   6.8144403367e+01    0.2400397     0.149222 -11.37  0.001064597    1.542    0.352
        32  -7.9654     86.3400      9.6421   5.6472349172e+01   6.1032118846e+01    0.1229457    0.1018169 -68.98 0.0007038102    1.819    0.450
        33  -9.9582     25.3606      7.2260   8.0461511434e+01   7.1406199818e+01    0.2409339    0.1606914 -24.34 0.0001998779    1.284    0.221
        34  -8.8451     24.0484      3.2020   7.9074714728e+01   7.2089808805e+01    0.2817914    0.1331724  26.98  0.001577154    1.988    0.497
        35  -8.9382    102.0290      7.8979   5.1499523425e+01   5.7778027639e+01    0.2450885    0.1755193  19.08  0.001386712    1.432    0.302
        36 -10.0175     78.5936      6.6157   5.7506344715e+01   6.2908945835e+01    0.3354281    0.2636765  31.72  0.002107769    1.046    0.044
        37  -9.1863    102.0734      1.5105   4.8936193582e+01   5.8300793999e+01    0.2275724    0.1826911 -88.29  0.001139558    1.597    0.374
        38  -9.4085    107.5351      5.5280   4.9261059507e+01   5.6727735081e+01    0.2823624    0.2665878   5.98  0.001859828    1.180    0.153
        39  -9.3541    106.0066      2.4885   4.8423138547e+01   5.7327258670e+01    0.3534094     0.200825  81.65  0.001209394    2.519    0.603
        40 -10.4738     90.2422      3.5110   5.2733240684e+01   6.0755093818e+01    0.3029055    0.2716256  74.60  0.001005248    1.370    0.270
        41 -10.8760     84.5980      1.3792   5.3371806164e+01   6.2132820951e+01    0.2930254    0.1389554  59.39 0.0004111549    2.048    0.512
        42  -9.8200     38.4962      4.9720   7.2536956649e+01   7.0019002681e+01    0.2551386    0.1685602  30.74 0.0009372914    1.412    0.292
        43  -9.5207     40.2050      1.3955   6.9826716864e+01   7.0181383820e+01    0.3311312    0.1253775  43.20  0.001150147    2.676    0.626
        44  -8.6910    241.9759      1.6756   3.1251512414e+01   2.5128464718e+01    0.1669636    0.1275965 -84.49 0.0007280477    1.116    0.104
        45  -8.3747    185.7666      1.7783   3.5949606224e+01   3.7962078191e+01    0.1723077    0.1276779 -72.10 0.0003769391    1.288    0.223
        46  -9.4751     64.9264      1.4084   5.9648635392e+01   6.6037995830e+01    0.2594424    0.1018175  50.25  0.001074267    2.293    0.564
        47  -8.7916     55.2128      1.9638   6.3595638710e+01   6.7724436045e+01    0.2110873    0.1419036  50.46 0.0009211907    1.699    0.412
        48  -8.8240     30.4905      2.6875   7.5342350720e+01   7.1371155556e+01    0.2671767   0.09942871 -31.61  0.001300966    2.523    0.604
        49  -7.9923    228.6790      1.3180   3.2108152097e+01   2.8029305205e+01    0.1310543    0.0721769 -64.72 0.0007042678    1.664    0.399
        50  -8.0074    162.6631      2.7176   3.8858088303e+01   4.3561156826e+01    0.1361726   0.08538237  46.52 0.0007010101    1.622    0.384
        51  -8.3982    137.0730      1.1778   4.2043202813e+01   5.0018025873e+01    0.1836961   0.08496887  65.49 0.0004304535    1.804    0.446
        52  -9.3784     45.6810    113.1843   1.0524649476e+02   4.7953981095e+01    0.2585036    0.1907467   2.92  0.001390027    1.671    0.402
        53  -9.5995     62.8825    111.7604   9.9337143973e+01   4.6269448436e+01    0.2196569    0.1821786 -33.34 0.0006416359    1.226    0.185
        54  -9.3987     49.9959    111.5576   1.0352166094e+02   4.7881286876e+01    0.2583702    0.1814719 -81.21  0.000835887    1.598    0.374
        55  -8.4185    108.6937    111.5089   8.4839559244e+01   3.8855113428e+01     0.217844    0.1498907  24.05 0.0007792967    1.689    0.408
        56 -10.4528     20.8050    109.7637   1.1273147652e+02   5.0991154649e+01    0.4120927    0.2397979  38.68  0.002213011    1.976    0.494
        57  -9.6909    128.8358    109.3370   7.8485297652e+01   3.5227768603e+01    0.4189345    0.2618749  25.37  0.001650794    2.039    0.509
        58  -9.0887     28.4752    109.7992   1.1025526560e+02   5.0391382626e+01    0.2415019    0.1829239 -42.55 0.0007295337    1.282    0.220
        59 -10.9536      6.9702    107.8387   1.1686322836e+02   5.2330821419e+01    0.4418468     0.343009 -82.83  0.001485782    1.176    0.150
        60  -9.9546      8.5034    103.0939   1.1573796660e+02   5.3367745146e+01    0.2654893    0.1815495 -79.01  0.001477473    1.309    0.236
        61  -8.5825    100.1697    109.1750   8.6809202380e+01   4.1002938085e+01    0.2295006    0.2018965 -14.09 0.0005804025    1.211    0.174
        62  -8.9075     35.0183    107.1932   1.0764952667e+02   5.0457158434e+01    0.2767149    0.1288102 -69.49  0.001210034    2.062    0.515
        63  -8.9986    122.6421    107.2652   7.9656176042e+01   3.6999173471e+01    0.2207735    0.1447885 -36.48 0.0007964323    1.586    0.370
        64  -8.8702    119.0218    107.5165   8.0757755770e+01   3.7696502692e+01    0.2420174     0.154336  40.66  0.001027865    1.578    0.366
        65  -8.7058     61.1455    106.8260   9.8826447080e+01   4.7688399172e+01    0.1923017    0.1517234 -31.75 0.0002715494    1.302    0.232
        66  -9.1134     42.0000    106.4069   1.0516655839e+02   4.9980754540e+01    0.3092509   0.06881326 -62.65 0.0009349538    3.936    0.746
        67 -10.6516     80.0972    103.8407   9.1820951332e+01   4.5685725943e+01    0.4494306    0.3156292  23.06 0.0009719855    1.586    0.370
        68  -9.7579    108.5038    103.1893   8.2677255702e+01   4.0785049578e+01    0.4120076     0.233173  30.91 0.0007256257    1.999    0.500
        69  -9.2674     64.9034    103.9596   9.6909019526e+01   4.7880744830e+01    0.2139693    0.1705643 -36.38            0    1.222    0.181
        70  -8.9557    134.4349    103.2195   7.5286820520e+01   3.5331261689e+01    0.2206582    0.1514096 -53.21 0.0006626488    1.589    0.371
        71  -9.8140     17.4800    104.0586   1.1294108557e+02   5.2588587102e+01    0.3102843    0.2677685  -2.39  0.001212411    1.379    0.275
        72  -8.8644     56.6826    102.9126   9.9455431301e+01   4.9188326410e+01    0.2048696     0.186886  17.53 0.0005558337    1.197    0.165
        73 -10.2300     53.3318     99.3664   9.9806177826e+01   5.0436473827e+01    0.4582399    0.2313376 -52.06  0.002068385    1.718    0.418
        74  -9.9890     44.9510    101.7769   1.0322981311e+02   5.0792869190e+01    0.3363644    0.2431524  56.56 0.0008577777    1.718    0.418
        75  -8.5075    142.8409    102.1739   7.2784565102e+01   3.3662574906e+01    0.2171163    0.1873397   4.27 0.0004067304    1.296    0.229
        76  -8.6603     94.7980    101.5342   8.6467217684e+01   4.3740011373e+01    0.2485103     0.178497 -53.68 0.0007661151    1.410    0.291
        77  -9.3078    120.4151    101.2194   7.8625321280e+01   3.8795092637e+01    0.2205099    0.1492179 -54.94 0.0007992862    1.632    0.387
        78  -8.9225     61.5046    101.4935   9.7483132094e+01   4.8918319033e+01     0.140816    0.1305634 -55.10 0.0008098522    1.063    0.059
        79  -9.8940     69.1949     96.9352   9.3730611170e+01   4.8942667541e+01    0.3932175    0.2273503 -57.43 0.0009622439    1.706    0.414
        80  -9.3375     11.8269    101.7889   1.1446344942e+02   5.3484789127e+01    0.2365852    0.1684046 -61.65 0.0005005552    1.127    0.113
        81  -9.7116    107.0891     97.5045   8.1524903233e+01   4.2328192838e+01    0.2962092    0.1491888  45.24 0.0006188574    2.064    0.516
        82  -8.1260     28.9717     97.7638   1.0796790448e+02   5.3237962912e+01    0.1401475    0.1110572  12.85 0.0001967351    1.469    0.319
        83 -10.0361     16.6327     95.5667   1.1186165258e+02   5.4656598088e+01    0.3368594    0.2140481  59.23  0.001810377    2.052    0.513
        84  -9.0337    147.9705     96.4805   6.9890198224e+01   3.3646221281e+01    0.2388424    0.1543117  47.27 0.0003866921    1.535    0.348
        85  -9.6688     78.7420     94.9949   8.9965311569e+01   4.7952476098e+01    0.4060561    0.3036703   1.97  0.001983775    1.612    0.380
        86  -8.7621     37.9300     89.2457   1.0301697010e+02   5.4456074959e+01    0.1800147    0.1715548 -83.27            0    1.196    0.164
        87  -9.2308     34.6652     89.7024   1.0431132534e+02   5.4650919330e+01    0.3003744    0.1843205 -14.92  0.001266232    2.049    0.512
        88  -9.2671    138.2026     93.2972   7.1474223002e+01   3.6544581440e+01    0.4430878    0.2908479 -87.98  0.001515986    3.213    0.689
        89  -9.3773    132.4451     93.6123   7.3097100354e+01   3.7785913982e+01    0.2824669    0.2438684  45.36  0.000758542    1.155    0.134
        90  -8.5196    117.1346     94.1741   7.7567802736e+01   4.1002273601e+01    0.2029357    0.1854937 -87.04 0.0002743345    1.284    0.221
        91  -8.6230      1.3702     94.2496   1.1686993066e+02   5.5798556352e+01    0.1671339   0.09696933 -80.07   0.00048142    1.570    0.363
        92 -10.3026     87.7230     90.2473   8.5629040036e+01   4.7530068048e+01    0.6588093     0.430271 -76.45  0.001844323    2.733    0.634
        93  -9.1722     81.9485     84.8981   8.6027858584e+01   4.9687849443e+01    0.2595055    0.2064193 -51.33 0.0002967162    1.280    0.219
        94  -9.3632     80.0371     80.9673   8.5519722955e+01   5.0854886149e+01    0.2124282    0.1964729 -19.58  0.001198323    1.012    0.012
        95 -10.2134     75.9881     83.1696   8.7593541120e+01   5.1033569646e+01    0.3134551    0.3009375  31.74 0.0009619186    1.155    0.135
        96  -9.2891     71.0738     83.0889   8.9314380278e+01   5.1808817621e+01    0.2993037    0.2444917 -21.36  0.001621382    1.212    0.175
        97  -8.6277      9.7494     92.9187   1.1381373705e+02   5.5688326787e+01    0.3057784    0.1322698  41.67  0.001425847    2.931    0.659
        98 -10.1854    125.8874     91.8669   7.4390745062e+01   3.9603131936e+01    0.4398978    0.2622393  21.79  0.001605414    2.531    0.605
        99  -9.6972    139.6818     88.8882   6.9805753137e+01   3.7085783332e+01    0.3388661    0.2650908 -36.80 0.0005947906    1.294    0.227
       100 -11.7849    132.3660     86.3662   7.0984925168e+01   3.9265697084e+01    0.7426991    0.3672778  35.18 0.0006671595    2.406    0.584
       101 -11.0003    120.2681     87.9041   7.4809595106e+01   4.1644125813e+01    0.4457628    0.4422883 -71.46  0.000750846    1.089    0.082
       102  -9.9946    124.4794     85.5034   7.2890638594e+01   4.1209206348e+01    0.3428635      0.27294 -20.91 0.0009471485    1.363    0.266
       103  -9.8632    109.4286     87.8634   7.8004138368e+01   4.3932776129e+01    0.3968987    0.2699325 -61.20 0.0009885336    1.883    0.469
       104 -10.1446     35.2355     95.1491   1.0525246218e+02   5.3319740473e+01    0.5048743    0.2451056 -34.56  0.001459614    2.347    0.574
       105  -8.4926     52.0629     91.6589   9.8444873113e+01   5.2398762169e+01    0.2003731      0.16289  50.86 0.0006176915    1.477    0.323
       106  -8.5861      1.8100     89.9855   1.1611553348e+02   5.6765074682e+01    0.2277796    0.1464576 -87.25  0.001334247    1.585    0.369
       107  -8.3928     62.5137     89.4790   9.4142224840e+01   5.1590563139e+01    0.1458779    0.1241478 -30.04 0.0001429384    1.106    0.096
       108  -9.2481     56.8615     89.1489   9.6088840324e+01   5.2399045901e+01    0.1994949    0.1895965  85.10 0.0006096729    1.236    0.191
       109  -9.5285     47.8915     89.0159   9.9317066455e+01   5.3486660788e+01    0.2026595    0.1765969 -40.57 0.0003306748    1.016    0.015
       110  -9.1779     15.9298     86.9866   1.1061062649e+02   5.6705024132e+01    0.3162981    0.1387179 -63.53  0.001376816    1.825    0.452
       111  -9.4068    102.5079     86.4899   7.9732063941e+01   4.5606949210e+01    0.3078527    0.1473701 -45.22 0.0007882179    2.071    0.517
       112  -9.3507     28.1616     85.6673   1.0584510259e+02   5.6140475937e+01    0.2856944    0.1907953  32.49  0.001350591    1.743    0.426
       113  -8.1962      5.6557     86.7585   1.1427288237e+02   5.7328653119e+01    0.1228815   0.07297122 -39.77 0.0006915759    1.564    0.361
       114 -10.3369    174.6515     83.6490   6.0227764886e+01   2.9701047079e+01    0.4960126    0.3236336 -10.22  0.001221803    2.322    0.569
       115 -10.6298    157.5283     83.8332   6.3986560362e+01   3.3819438414e+01    0.3529119    0.2757365  25.65  0.001657645    1.466    0.318
       116  -9.2711     39.1159     85.2153   1.0165447191e+02   5.5275094381e+01    0.2000777    0.1670516 -41.38 0.0004856616    1.043    0.041
       117  -9.6637     37.4332     79.3550   1.0088221707e+02   5.6772223896e+01    0.5099573    0.3415024  71.90  0.002315345    2.512    0.602
       118  -9.3266     33.8203     84.2587   1.0341894304e+02   5.5987410853e+01    0.2933412    0.1990405  61.86  0.001509658    2.135    0.532
       119  -8.5014     46.1252     84.1254   9.8766335347e+01   5.4803925617e+01     0.214841    0.1590889 -36.71 0.0004578889    1.232    0.188
       120 -10.1011      6.4477     80.8331   1.1299786749e+02   5.8646003659e+01    0.4371068    0.2072814 -32.39  0.001511956    2.196    0.545
       121  -9.3659      4.6065     75.8005   1.1280257095e+02   5.9871617099e+01    0.1850956    0.1582883 -61.57 0.0002889099    1.113    0.101
       122  -9.0828      1.8446     73.3528   1.1342446302e+02   6.0541680613e+01    0.2121299    0.1565548  -7.24 0.0003681915    1.555    0.357
       123  -9.9886    112.9203     81.3243   7.4957249869e+01   4.4549199114e+01    0.2918469    0.2429931  24.67 0.0003895902    1.224    0.183
       124 -10.1693    108.8738     80.8227   7.6022937680e+01   4.5495317561e+01     0.324749    0.2746128  13.00 0.0009357704    1.240    0.194
       125 -11.3810    104.7174     78.3300   7.6524497207e+01   4.6846746928e+01    0.8040352    0.5098484  -6.45  0.001667752    2.585    0.613
       126  -8.8475     48.8882     77.2078   9.5905350193e+01   5.6049810035e+01    0.3161294    0.1844569 -35.26  0.001245981    1.664    0.399
       127 -10.0763     45.7334     73.2155   9.6031007230e+01   5.7282514323e+01     0.377037    0.2102883 -47.55  0.001134445    1.544    0.352
       128  -9.9100     55.2740     80.4075   9.4355119081e+01   5.4575041650e+01    0.3895126    0.2879735  -5.12  0.002080404    1.515    0.340
       129 -10.0092     56.0717     74.1725   9.2282667452e+01   5.5840972875e+01    0.6292407    0.3733959 -22.95  0.002809328    2.024    0.506
       130  -8.0905    145.2824     88.6002   6.8299797399e+01   3.5835040937e+01    0.1629933     0.123286 -72.59 0.0004825543    1.772    0.436
       131  -9.9988    144.1015     80.6601   6.6247735042e+01   3.7629628547e+01    0.3008438    0.1946777  67.52  0.001226265    1.979    0.495
       132  -9.6683     96.9689     81.0019   7.9826341218e+01   4.7826590486e+01     0.227146    0.2080588   0.80 0.0003526011    1.059    0.055
       133  -8.4338     21.9991     80.6764   1.0711152063e+02   5.7752009840e+01    0.1730792    0.1467177 -46.12 0.0005214957    1.042    0.040
       134 -11.6131    154.8683     78.6622   6.3089286377e+01   3.5408598774e+01    0.7714858    0.4416417  24.69  0.002681464    2.951    0.661
       135  -8.7938    121.9694     78.0246   7.1297855322e+01   4.3236109836e+01    0.1838454    0.1758739  16.85 0.0003678489    1.006    0.006
       136  -7.9317     28.3741     78.2271   1.0411895133e+02   5.7824680132e+01    0.1297568   0.08319392 -27.18 0.0002258413    1.601    0.375
       137 -10.1186     98.6892     76.1030   7.7729795708e+01   4.8492506032e+01    0.3368585    0.3122048 -54.05  0.001349285    1.210    0.173
       138 -11.1888     97.4689     69.5327   7.5987648812e+01   5.0020772203e+01      0.43442    0.3370837 -47.81  0.001126334    1.394    0.282
       139  -9.9054    101.4957     68.4856   7.4347438867e+01   4.9415942657e+01    0.2788343     0.218973 -52.18 0.0005576498    1.459    0.314
       140 -11.0493     78.2874     74.8782   8.4262886795e+01   5.2429371131e+01    0.6805476    0.3474143  22.97  0.002479444    2.565    0.610
       141 -10.6325     74.5011     75.4602   8.5800460794e+01   5.2921103126e+01    0.3646564    0.3005019  14.98  0.001046479    1.235    0.190
       142 -11.5545    152.4012     73.6591   6.2170628797e+01   3.6899943529e+01    0.5481247    0.4204149  79.41    0.0024191    1.597    0.374
       143  -9.8976    130.8691     74.8944   6.7876627566e+01   4.1808090905e+01    0.2756887     0.207674  34.67 0.0006112321    1.351    0.260
       144  -8.3062     11.7716     75.3528   1.0995807560e+02   5.9606847263e+01    0.1513188    0.1057871 -15.66 0.0004538856    1.559    0.359
       145  -9.8501    173.9936     73.4750   5.7517264036e+01   3.1629635826e+01    0.2394588    0.2112715 -37.68  0.001254113    1.150    0.130
       146  -8.6576     30.9906     72.7100   1.0175915985e+02   5.8840977072e+01    0.1697436    0.1502462 -27.71 0.0003953585    1.097    0.088
       147 -11.7344    137.4406     69.7036   6.4550279774e+01   4.1202810235e+01    0.7463525    0.3255005  46.07 0.0006334777    2.219    0.549
       148 -10.1069     64.3174     70.5959   8.8050956282e+01   5.5479774415e+01    0.3786308    0.2541794  37.07  0.001654237    1.612    0.380
       149 -10.2152     60.0357     66.0400   8.8254543355e+01   5.7024383791e+01    0.4493445    0.2720942 -16.20   0.00132219    2.112    0.527
       150  -8.8157     39.1483     71.1828   9.8088006852e+01   5.8419031567e+01     0.193567    0.1515444 -26.81 0.0003879048    1.176    0.149
       151  -9.5564     17.6057     70.2424   1.0655998961e+02   6.0394930503e+01    0.3444309    0.1639829 -48.29  0.001335984    1.640    0.390
       152 -11.2127    153.3241     67.4216   6.0084666356e+01   3.7746303744e+01    0.4921491    0.2867532  60.19  0.002061766    1.781    0.439
       153  -9.7366    152.7555     63.9897   5.9168629208e+01   3.8455911640e+01    0.3101742    0.2264263   2.42 0.0009722884    1.855    0.461
       154  -8.4209     76.7757     70.2760   8.3336314805e+01   5.3623108046e+01    0.2040906    0.1542177 -10.35  0.001037016    1.431    0.301
       155  -9.2648     51.9179     69.8455   9.2619208899e+01   5.7288046499e+01    0.2003511    0.1753854 -27.96 0.0004857571    1.018    0.018
       156 -11.0091    163.4997     68.5493   5.8229015369e+01   3.5046330978e+01    0.4327247    0.2767292  70.80  0.001849602    1.849    0.459
       157  -9.7715    120.4364     68.4646   6.8676240278e+01   4.5363520893e+01    0.4310404    0.2744671  23.21  0.001118374    2.025    0.506
       158  -8.2322     34.4221     69.4694   9.9533834547e+01   5.9246554024e+01    0.1318316      0.10841 -38.40 0.0002040561    1.013    0.013
       159  -8.5110    194.1785     67.8277   5.2304382638e+01   2.7620124011e+01    0.1965049    0.1732055  27.55 0.0007177535    1.311    0.237
       160  -8.4365    106.4999     68.2646   7.2711218182e+01   4.8426833427e+01    0.2001627    0.1420292 -50.57 0.0009306319    1.607    0.378
       161  -9.1902     88.7307     66.5384   7.7896410749e+01   5.2265583337e+01    0.3656628    0.2634749 -68.79  0.001383743    2.202    0.546
       162  -9.6040     93.3499     64.6871   7.5712561737e+01   5.1741857625e+01     0.389865    0.2607664   6.94  0.001721756    1.995    0.499
       163  -9.0035     70.7751     66.7224   8.4378087659e+01   5.5303357392e+01    0.2108863    0.1735576 -15.40 0.0006383378    1.156    0.135
       164 -10.1783    110.1077     63.4786   7.0013369706e+01   4.8531302195e+01    0.4818275    0.4303786  87.26  0.002560871    1.424    0.298
       165 -10.8106      4.0088     59.5093   1.0981343526e+02   6.3478962364e+01    0.4658436    0.2203902 -51.66  0.001571362    1.547    0.354
       166 -11.9209      7.8800     56.7479   1.0751084485e+02   6.3880848535e+01    0.6260284    0.1875714 -56.16 0.0002314704    2.302    0.566
       167 -10.9334     43.5844     62.7590   9.3842146288e+01   5.9747142629e+01    0.4351095    0.3569683 -23.67  0.001985724    1.074    0.069
       168  -9.8260     32.5923     64.1050   9.8819643425e+01   6.0568749769e+01    0.2917893    0.2201368 -23.19 0.0009239489    1.235    0.190
       169  -8.2688    201.3016     64.6543   5.0325485921e+01   2.6404038776e+01    0.1526662    0.1038806 -66.00 0.0003188591    1.684    0.406
       170 -10.6516    172.3838     62.5285   5.4717562107e+01   3.3816198848e+01    0.3658606    0.2325076 -28.18   0.00103278    1.725    0.420
       171  -9.5968     66.9955     63.0041   8.4569781167e+01   5.6625734113e+01     0.372458     0.242406 -41.78  0.000871713    1.446    0.309
       172  -9.6677     70.7893     61.8932   8.2754760420e+01   5.6254051226e+01     0.363377    0.2377683  56.43  0.001217268    2.341    0.573
       173 -10.0448    147.1589     62.8162   6.0064848572e+01   4.0024309059e+01    0.4567879     0.275723 -63.55  0.001430258    2.572    0.611
       174  -9.6380    162.5004     61.5420   5.6369144891e+01   3.6433673213e+01    0.3008233    0.1490397 -33.68  0.001192271    2.100    0.524
       175  -8.1844     76.4294     61.7917   8.0626601874e+01   5.5351097333e+01    0.1949008    0.1244276 -29.46 0.0007275459    1.573    0.364
       176  -8.7800    218.8331     61.6166   4.7019403859e+01   2.2762706251e+01    0.1887546    0.1279216  80.16  0.000673643    1.630    0.386
       177  -8.8533    141.7435     61.5900   6.0941305041e+01   4.1546524865e+01    0.2103771    0.1436789  63.48   0.00050368    1.569    0.363
       178  -9.2963    121.1898     60.4766   6.5826585694e+01   4.6589158408e+01     0.311529    0.2252641  15.04 0.0009223021    1.683    0.406
       179 -10.6505     95.6975     57.1068   7.2302270663e+01   5.2650446307e+01     0.620122    0.4553427 -10.79  0.003090722    1.513    0.339
       180  -8.2489     81.3218     60.3319   7.8351950607e+01   5.4781967499e+01    0.1502136    0.1052046  -3.31 0.0007049647    1.699    0.411
       181 -10.3760     58.9929     58.3458   8.6120263738e+01   5.8707161740e+01    0.5447865    0.3337319  10.48  0.002605867    1.974    0.494
       182  -9.3764     50.8504     59.6318   8.9852344458e+01   5.9531150823e+01    0.2169203    0.1718048 -43.05 0.0003962166    1.208    0.172
       183 -10.0904    149.4473     38.9677   5.2067666478e+01   4.2978116975e+01    0.5012652    0.2718419 -43.71  0.001425671    2.024    0.506
       184 -11.5536    150.2888     57.2869   5.7647377875e+01   4.0137536037e+01    0.6698398    0.4655432  81.21   0.00299515    1.855    0.461
       185 -11.1459    153.1888     46.0791   5.3553738647e+01   4.1076058456e+01    0.8053308    0.4397745  33.29   0.00217955    2.438    0.590
       186  -9.2039    200.9265     48.9249   4.6312433721e+01   2.8806946212e+01     0.445796    0.2716668 -72.99  0.001254509    2.061    0.515
       187  -9.5852    212.4178     49.2544   4.4840613968e+01   2.6028009703e+01    0.4112866    0.2341787  65.07  0.001668614    1.737    0.424
       188  -9.6918    206.5744     53.7535   4.6753855969e+01   2.6770431937e+01    0.3672835    0.2419427 -51.33  0.001125732    1.486    0.327
       189  -9.5146    207.2802     49.9916   4.5706208634e+01   2.7136979710e+01    0.3023556    0.2290494 -57.86 0.0008950518    1.280    0.219
       190  -9.7622    159.7948     56.7930   5.5499101206e+01   3.7849091695e+01    0.3753823    0.2670223  19.53  0.001153126    1.875    0.467
       191 -11.3589    162.5812     51.9684   5.3501395768e+01   3.7875675156e+01    0.7131031    0.3499255 -43.82  0.002891453    2.159    0.537
       192  -9.4091     34.5587     57.6104   9.6082422441e+01   6.1743133023e+01    0.2217671    0.1744982 -41.71 0.0005509248    1.115    0.103
       193  -9.2225    185.0324     56.9347   5.0892236315e+01   3.1535113493e+01    0.3638896    0.1921916  51.15  0.001555062    1.880    0.468
       194  -9.4856    112.2904     56.0011   6.6809410267e+01   4.9338055095e+01    0.3082293    0.2270149  36.12 0.0006579125    1.307    0.235
       195  -8.9667    105.3536     56.4589   6.9029241595e+01   5.0766989642e+01    0.2941039    0.2237883  22.53  0.001150513    1.358    0.264
       196  -8.7335     88.3261     60.6676   7.6020760091e+01   5.3442753634e+01    0.2687995    0.2362975  52.84 0.0005937934    1.343    0.255
       197  -9.4442     69.6162     55.6939   8.1035003373e+01   5.7617423496e+01    0.3959004    0.2894275 -15.79  0.002110179    1.381    0.276
       198  -9.6291     80.3332     54.3514   7.6575722947e+01   5.6046494863e+01    0.4398961    0.2632642   3.33    0.0017794    2.638    0.621
       199  -9.1139     81.6945     51.0432   7.4875219511e+01   5.6378868427e+01    0.2921248     0.208079 -61.26  0.001387155    2.174    0.540
       200  -8.6492     26.1535     56.3418   9.9367169660e+01   6.2753641530e+01    0.1673434    0.1413163 -11.88 0.0009301475    1.165    0.142
       201  -9.4157     22.4007     55.3880   1.0074936651e+02   6.3246830855e+01    0.3293591    0.1450765 -42.24 0.0004927936    1.842    0.457
       202 -11.1038    173.9680     51.6099   5.1297535366e+01   3.5072823790e+01    0.6337714    0.2573684 -31.99  0.002368414    2.584    0.613
       203  -9.2162    177.9860     51.1653   5.0475339037e+01   3.4132564171e+01    0.2911239    0.1766503 -61.93   0.00104371    2.054    0.513
       204  -9.4847    125.0208     55.3982   6.3091106920e+01   4.6539466876e+01    0.4415545    0.1646838  48.67  0.001143082    2.482    0.597
       205  -9.7236     84.7971     48.0756   7.2675126528e+01   5.6303088492e+01    0.4203505    0.2857436 -15.36  0.001992891    1.608    0.378
       206 -10.3320    136.0603     52.7586   5.9448023504e+01   4.4324640277e+01    0.4821191    0.2717937 -15.24  0.001879974    2.541    0.606
       207  -8.6542     86.0591     54.3681   7.4560334038e+01   5.4996104899e+01    0.2014501    0.1724605  32.27  0.001126143    1.162    0.140
       208 -10.0075     44.1492     52.3911   9.0248905462e+01   6.1768526573e+01    0.2441039    0.2136784  19.89 0.0006932804    1.275    0.216
       209  -9.0075     29.2559     52.6981   9.6896670865e+01   6.3233390889e+01    0.1966775    0.1414661 -38.44 0.0003642237    1.139    0.122
       210 -10.0016    114.7451     50.5052   6.4191743980e+01   4.9673104300e+01    0.6386834    0.3297963  57.71  0.001896932    2.159    0.537
       211 -10.9574    106.3529     50.5130   6.6617963003e+01   5.1528307361e+01    0.4034739    0.3215674  76.28  0.002030444    1.724    0.420
       212  -8.2971      1.3931     51.8587   1.0922600803e+02   6.5211156328e+01    0.1701512   0.07583576 -51.35 0.0005319979    1.607    0.378
       213  -9.9123    186.9486     48.5799   4.8295854538e+01   3.2271973893e+01     0.406958    0.3093383 -12.12  0.002075034    1.655    0.396
       214  -9.8817    126.4444     50.4792   6.1058603844e+01   4.6973059055e+01    0.3251579    0.2497048  40.11  0.001654019    1.235    0.190
       215  -9.3476     94.8747     47.8436   6.9207528007e+01   5.4364781285e+01    0.5462626    0.2321119 -32.08  0.002134559    2.498    0.600
       216  -8.7696     42.6284     45.7423   8.8574547300e+01   6.3210221834e+01    0.2490527    0.1574143 -55.28  0.001306135    1.893    0.472
       217  -9.9722     49.2027     49.5621   8.7090723740e+01   6.1694636572e+01     0.273063    0.1855611 -20.22 0.0006466712    1.422    0.297
       218  -9.9565     45.9951     47.2310   8.7633920460e+01   6.2530302963e+01    0.2052501    0.1962175 -13.45  0.000211581    1.282    0.220
       219  -9.9325     17.2993     50.5029   1.0164903593e+02   6.4617912637e+01    0.3301112    0.2394429  -6.15  0.001467727    1.397    0.284
       220  -8.9129    233.8022     49.3265   4.2281083811e+01   2.1167527084e+01    0.3162429     0.106548 -46.45  0.001229404    2.704    0.630
       221  -8.9442    223.6791     56.2704   4.5100923478e+01   2.2442830405e+01    0.2266252    0.1871899  73.24 0.0008208112    1.225    0.184
       222  -8.7912     55.4314     50.1032   8.4665830994e+01   6.0768200910e+01    0.1955786    0.1165971 -38.07 0.0006031688    1.532    0.347
       223 -10.1023     59.5059     47.1282   8.1888737170e+01   6.0727035632e+01    0.3809576    0.2238605 -28.73  0.001897988    1.665    0.400
       224  -9.3674     25.6469     48.2585   9.7135052585e+01   6.4432793080e+01    0.2786847    0.1853995  10.85  0.001049939    1.582    0.368
       225 -10.4416      5.8677     48.2448   1.0629449677e+02   6.5753866589e+01    0.2203626    0.1518342 -36.77 0.0002976407    1.159    0.137
       226 -10.8458    167.2279     43.2364   5.0051988367e+01   3.7940103117e+01    0.4813983    0.4031955  63.25  0.002321818    1.116    0.104
       227  -9.2358     34.3423     46.4126   9.2538798550e+01   6.3987293931e+01    0.2314578    0.1767382 -55.74  0.001326955    1.506    0.336
       228 -10.7991    142.6833     43.8867   5.5045855786e+01   4.3997059499e+01    0.5267191    0.4057384  12.14  0.001502653    1.565    0.361
       229  -9.4863    169.9966     48.0079   5.0959608796e+01   3.6583951735e+01     0.254379    0.1992854  63.64 0.0006080219    1.208    0.172
       230  -9.6615    121.9360     48.7386   6.1627872293e+01   4.8294339251e+01    0.3467441    0.2511561 -65.60  0.001607492    1.972    0.493
       231  -9.3170     69.4555     43.8749   7.6689584665e+01   5.9726954418e+01    0.4120064    0.2295374 -13.59  0.001120718    2.538    0.606
       232  -9.6194    174.8958     44.8460   4.9203064333e+01   3.5793922856e+01     0.215025    0.1841826  44.00  0.000374785    1.225    0.183
       233 -10.3653    108.9651     43.6978   6.3389387769e+01   5.1998873941e+01    0.3532156    0.2815174  59.35 0.0004973149    1.367    0.268
       234  -8.9836      1.3743     44.9688   1.0754462426e+02   6.6630459048e+01      0.16589   0.09078062 -58.93 0.0003168027    1.503    0.335
       235  -8.6856     76.0717     43.9778   7.4234794085e+01   5.8572583326e+01    0.2109461    0.1487645   3.93 0.0003139582    1.546    0.353
       236  -9.4447     55.3657     41.8364   8.1579201871e+01   6.2253897178e+01     0.350702     0.249398  -9.68  0.001504742    1.378    0.274
       237  -8.9618     19.8900     43.7590   9.8388468925e+01   6.5777783887e+01    0.2015171     0.162594  35.08  0.001325778    1.622    0.384
       238  -8.7946    187.6786     42.9221   4.6646504389e+01   3.2868685329e+01    0.1967651    0.1716009 -51.07   0.00111658    1.150    0.131
       239  -8.0838     81.3361     43.3081   7.2071404158e+01   5.7724095132e+01    0.1459624   0.09937688   8.64 0.0004189983    1.677    0.404
       240  -9.3190    204.3506     40.9289   4.3805369958e+01   2.9070556668e+01    0.3692476    0.1541634 -51.56  0.001228776    2.638    0.621
       241  -8.0373    118.2795     42.3306   6.0342324389e+01   5.0081646707e+01    0.1478581    0.1054824  19.22 0.0007000012    1.603    0.376
       242  -9.2792    100.4496     41.5139   6.5091270820e+01   5.4173567235e+01    0.4156777    0.2613412  45.92  0.001458567    1.491    0.329
       243  -9.8623     36.2452     39.4929   8.9166796347e+01   6.5076130931e+01    0.3948706    0.2079778 -44.83  0.001509223    1.719    0.418
       244 -10.5911     33.4322     35.1861   8.8846628187e+01   6.6146778450e+01    0.4048357    0.2060696 -32.83  0.001162369    1.752    0.429
       245  -9.0990    106.8180    247.0212   1.0851128858e+02   9.4841193277e+00    0.2011596    0.1737637 -30.79  0.001315303    1.568    0.362
       246 -12.2676     75.9816    219.0773   1.1195494781e+02   1.9244665104e+01     1.027778    0.6327115  50.66  0.005034521    1.404    0.288
       247  -9.1147    212.4847     41.5609   4.2938681756e+01   2.7057851092e+01    0.3312241    0.1069636  59.56  0.001249653    2.865    0.651
       248  -8.1548     89.3439     41.2893   6.8538537633e+01   5.6496232083e+01    0.1468107   0.09938281  15.57  0.000702431    1.652    0.395
       249 -10.0452     63.4992     40.6658   7.7771687828e+01   6.1226060965e+01    0.3388487    0.2428268  30.45  0.001531774    1.361    0.265
       250  -9.0044     62.5261     36.4492   7.6464239848e+01   6.2062319817e+01    0.2707779    0.2157788  -4.82 0.0007534394    1.113    0.101
       251  -8.6519    197.3438     40.6204   4.4656554314e+01   3.0803077141e+01    0.2592934    0.1287189  71.57  0.001108035    2.068    0.517
       252 -10.0348    112.1661     38.7643   6.0693585558e+01   5.1982638371e+01       0.4244    0.2970684 -55.48  0.002046435    1.932    0.482
       253  -9.8404    106.9562     35.0258   6.0747832563e+01   5.3661750294e+01    0.2188096    0.1819798  38.90  0.001226005    1.086    0.079
       254  -8.3625     40.9652     38.9875   8.6797497277e+01   6.4631392742e+01    0.1463848    0.1186993 -15.91            0    1.002    0.002
       255  -8.4609      2.1308     39.3640   1.0567173009e+02   6.7719348414e+01    0.1369953    0.1004914  20.19 0.0005161805    1.651    0.394
       256  -8.7104    225.9278     38.4444   4.0646963530e+01   2.4372411618e+01    0.1968698    0.1215899  76.11  0.001025214    1.620    0.383
       257  -8.2946    181.7509     38.0657   4.6205562119e+01   3.4980935350e+01    0.1892776     0.172294 -59.77 0.0005765436    1.107    0.097
       258  -9.4191    161.6564     37.2175   4.9241789781e+01   4.0137166014e+01    0.3125564    0.2365802 -25.23  0.001599085    1.470    0.320
       259 -10.5059    199.5982     56.6616   4.8511237754e+01   2.8017150147e+01    0.7244079    0.4387664  20.39  0.002745658    3.316    0.698
       260  -9.2650    131.8139     37.6141   5.5376141566e+01   4.7509299485e+01    0.2813237    0.2023077  74.52  0.001063334    1.599    0.375
       261  -9.8043    127.5675     36.6156   5.6018535233e+01   4.8665668442e+01    0.3404523    0.2554542  62.96 0.0009704117    1.333    0.250
       262  -8.2649    122.2122     38.6224   5.8020577044e+01   4.9674822943e+01     0.136563    0.1058405 -55.23 0.0004374657    1.589    0.371
       263  -8.9769     86.4485     33.9605   6.6616711152e+01   5.8138789224e+01    0.2191585    0.1713718  14.08 0.0008106894    1.217    0.179
       264  -9.8002     81.0823     25.9988   6.5154141315e+01   6.0262175343e+01      0.54731    0.3698198  50.61  0.002942699    1.556    0.357
       265  -9.5428     75.2358     22.1974   6.5560678566e+01   6.1864036187e+01    0.3483858    0.2368798 -26.85  0.001676013    1.510    0.338
       266  -9.6991     82.8546     35.8447   6.8594335494e+01   5.8572157953e+01    0.4507584    0.2884758 -58.84  0.001955614    2.924    0.658
       267 -11.0745     78.6141     31.3485   6.8245831264e+01   6.0019043404e+01    0.3238442    0.2490705  -4.45 0.0002410806    1.260    0.206
       268  -9.4178     48.5401     37.1193   8.2656806750e+01   6.4001727674e+01    0.2760702    0.2083917 -68.76  0.001443106    2.501    0.600
       269  -9.3075    247.8399     35.1793   3.7753314296e+01   2.0034500556e+01    0.4199634    0.1766636 -57.43  0.001863548    2.482    0.597
       270  -9.6368     69.8879     36.2323   7.3476798724e+01   6.0877261665e+01    0.3669876    0.2966378  40.79  0.002161419    1.366    0.268
       271  -7.9769     27.6420     36.7217   9.2221681971e+01   6.6451011856e+01    0.1300736   0.07709217 -18.56 0.0007010978    1.660    0.398
       272  -9.1560    215.4512     35.0938   4.1018222887e+01   2.7203288587e+01    0.2448465    0.1788832  83.92 0.0005094688    1.315    0.240
       273  -9.6836    192.5829     34.0047   4.3566656248e+01   3.2816251701e+01    0.4547252    0.2168593  51.22  0.001967681    2.158    0.537
       274 -10.2276    239.1603     22.3276   3.5775107405e+01   2.3447219418e+01    0.3300476    0.2719933  83.01 0.0008684727    1.190    0.159
       275  -9.9510     69.4658    217.5061   1.1318755379e+02   2.0455250535e+01    0.2491302    0.1570578  81.25 0.0008210873    1.697    0.411
       276  -9.8999    114.6101     32.1428   5.7616695688e+01   5.2296720914e+01    0.2583991    0.2103847  45.58 0.0002976889    1.109    0.098
       277 -10.0599    110.2610     29.0480   5.7600927258e+01   5.3679851345e+01     0.344574    0.2705198  49.16  0.001065127    1.167    0.143
       278  -8.1599     98.9499     33.4655   6.2469638941e+01   5.5622208908e+01    0.1878446    0.1252335  76.62 0.0008094002    2.574    0.612
       279  -8.4176     53.0574     32.2164   7.8665081947e+01   6.4172509536e+01    0.1827337    0.1469903   3.28  0.001027247    1.068    0.063
       280  -8.8502    150.8468     30.9675   4.9269935030e+01   4.3632258545e+01    0.2338938    0.1551262  21.80  0.001082322    1.994    0.498
       281  -8.4892    143.5249     31.4440   5.0824222864e+01   4.5404601030e+01    0.1437984    0.1270058  49.00 2.094593e-05    1.054    0.052
       282  -9.9143     42.9917     29.1471   8.1867766799e+01   6.6038811347e+01    0.2470589    0.1599319 -33.04 0.0002529504    1.402    0.287
       283 -10.0378     47.5680     28.3171   7.9421563001e+01   6.5558642427e+01    0.2808725    0.2347477  14.41  0.001174234    1.184    0.156
       284  -9.3190     91.3783    214.6673   1.0812049140e+02   1.7942507240e+01    0.2948077    0.1388782  37.86 0.0009497097    1.894    0.472
       285  -8.6733    132.5510    211.1425   9.8458552613e+01   1.2074124828e+01    0.2299208    0.1388773 -60.52  0.001108659    2.000    0.500
       286  -8.8750     16.0204     23.1181   9.2887518260e+01   6.9862580171e+01    0.3539072     0.166894 -13.44  0.001712423    2.596    0.615
       287  -9.1690      7.9732     22.5954   9.7077633894e+01   7.0538227441e+01    0.6394413    0.2001261   7.27  0.002379294    5.104    0.804
       288  -8.3957    197.6301     30.1810   4.1918196198e+01   3.2055571593e+01    0.1812183    0.1732419 -70.08 0.0004395453    1.120    0.107
       289  -8.7755    200.9841     29.2614   4.1272342531e+01   3.1355684929e+01    0.2505424    0.1517184  75.91 0.0007974303    1.588    0.370
       290  -8.5457    124.8301     30.2000   5.4413455838e+01   5.0129475102e+01    0.1977648     0.149617  34.43 0.0006734402    1.289    0.224
       291  -8.5704     65.3027     29.6453   7.2507225026e+01   6.2638068906e+01    0.1747294    0.1594897 -75.42  0.000880751    1.755    0.430
       292  -9.2011    222.4719     20.3194   3.6826166368e+01   2.7372590672e+01    0.2338818    0.1834877  62.35 0.0009629665    1.358    0.264
       293  -8.8923    229.5494     28.5584   3.8017416186e+01   2.4804594192e+01    0.3130401    0.1205175 -41.36  0.001396529    2.254    0.556
       294  -9.3872    226.9707     23.1804   3.7052057222e+01   2.6025001464e+01    0.3267207    0.1857922  88.18  0.001440863    1.794    0.443
       295 -10.1260    216.4908     27.9899   3.9208302821e+01   2.7841505124e+01    0.4372809    0.2167729  61.43  0.002107657    1.943    0.485
       296 -10.5543    182.1396     27.2743   4.3176717312e+01   3.6212260121e+01    0.5612443    0.2954289  48.05  0.001416289    2.014    0.504
       297  -9.9492    206.6037     26.2343   3.9862661788e+01   3.0372603831e+01    0.2945795     0.246839 -14.15  0.001571568    1.502    0.334
       298  -9.8092    120.8207     26.0193   5.3856618786e+01   5.1579072795e+01    0.5047522    0.2345152  49.82  0.002186268    1.859    0.462
       299  -8.2209     39.2946     27.3009   8.2810804447e+01   6.6798921465e+01     0.127771   0.08087801  -9.94 0.0004654941    1.572    0.364
       300  -8.6274    197.6133     25.8802   4.0817861520e+01   3.2572769326e+01    0.1870996    0.1086311 -46.89 0.0003777243    1.692    0.409
       301  -9.9438    178.6378     22.9601   4.2469221260e+01   3.7577912241e+01    0.2601016    0.2551208  29.72 0.0008424041    1.184    0.155
       302  -8.9426     98.7925     23.5889   5.8633621872e+01   5.6890284298e+01    0.2775443    0.1773212 -22.14  0.000762989    1.674    0.403
       303  -9.5936      1.3928    184.8957   1.2508527813e+02   3.4806500020e+01    0.3597204   0.08722273 -76.91  0.001271173    3.310    0.698
       304  -8.5857     95.0403     24.4879   6.0085111352e+01   5.7594195672e+01    0.1944452    0.1212569  48.15 0.0009843325    1.450    0.310
       305 -10.0179    164.5439     22.0340   4.4237360097e+01   4.1210249137e+01     0.340726    0.2243072  47.87 0.0008552391    1.507    0.336
       306  -9.0572     50.7987     21.6733   7.5025933738e+01   6.6075146583e+01    0.2724386    0.1574758 -22.34   0.00110255    1.674    0.403
       307  -9.4506      7.3181    177.4485   1.2333415331e+02   3.5990290587e+01    0.1869145    0.1667093 -52.83  0.001360194    1.412    0.292
       308  -9.6285    237.4717     26.4837   3.6820050266e+01   2.3316167141e+01    0.2783748    0.1807271 -57.13 0.0006087184    1.361    0.265
       309  -9.5417    217.5640     22.1115   3.7714983744e+01   2.8288804949e+01    0.3294109    0.1610666  59.64  0.001469473    2.010    0.502
       310 -10.2202    142.0655     21.1704   4.7748874291e+01   4.6935717309e+01    0.2988326    0.2794622 -55.00  0.001046144    1.185    0.156
       311  -9.5858     13.3200    174.2030   1.2175277976e+02   3.6234123537e+01    0.2361508    0.1642644  -6.68  0.001132218    2.327    0.570
       312  -8.8097    205.9548     21.0842   3.8669753429e+01   3.1124017738e+01    0.1888591    0.1648323  86.64 0.0002750493    1.059    0.056
       313  -9.8310      6.3883    168.2379   1.2289230136e+02   3.8147198846e+01    0.3261833    0.1519007  42.77  0.001771663    2.089    0.521
       314 -10.2208      7.0331    163.7649   1.2240883235e+02   3.9123734897e+01    0.2078537    0.1637462  10.93 0.0007272155    1.727    0.421
       315  -9.8338     23.3861    162.3177   1.1834375793e+02   3.8124323496e+01    0.2254367     0.138304 -87.84 0.0008878969    1.462    0.316
       316  -8.9996    130.9861     19.8669   4.9461143812e+01   4.9803876575e+01    0.2595354     0.172332  55.57  0.001158933    1.309    0.236
       317  -9.9827     17.5780    157.8274   1.1935934919e+02   3.9681037736e+01    0.2908345    0.1046258 -84.83  0.001142581    3.009    0.668
       318  -9.4817     26.1708    158.0765   1.1722595157e+02   3.8880231690e+01    0.1806292    0.1522177 -64.60  0.000472925    1.191    0.161
       319  -8.5099     69.5907     20.1914   6.6726876288e+01   6.3157916007e+01    0.1764206    0.1128557 -11.36  0.000549963    1.619    0.382
       320  -9.0387    118.9476     18.8301   5.1677237019e+01   5.2810437859e+01    0.2380633    0.1881211  63.20   0.00125796    1.226    0.185
       321 -10.2222      7.0070    155.5326   1.2176394113e+02   4.1032493301e+01     0.254623    0.1548079  19.73  0.001490497    2.091    0.522
       322 -10.8711      2.9066    152.8457   1.2254927150e+02   4.1942518874e+01    0.3802465    0.2500683 -49.42  0.002345812    1.670    0.401
       323  -8.6400    235.9983     16.9210   3.4880389757e+01   2.4756002812e+01    0.1729391    0.1444543  41.60 0.0007749809    1.624    0.384
       324  -9.9948     21.0990    152.9674   1.1799932317e+02   4.0541170740e+01    0.2360162    0.1490563 -70.25  0.001248559    1.337    0.252
       325  -9.7867     11.4318    151.9950   1.2036372124e+02   4.1537901898e+01    0.2110111    0.1711101 -22.87  0.001378998    1.650    0.394
       326  -9.9559     24.9114    150.0583   1.1670448001e+02   4.0911642091e+01    0.3612145   0.08621074 -62.82  0.001311811    3.061    0.673
       327  -9.8297     11.8251    145.1335   1.1962544949e+02   4.3132440988e+01    0.1966455    0.1714907 -76.58 0.0002514896    1.107    0.097
       328 -10.7670     20.6207    141.8452   1.1694818009e+02   4.3247996475e+01    0.4711611    0.1947485  28.01  0.001178686    2.656    0.624
       329 -10.2105     36.9381    141.1809   1.1236075653e+02   4.1957405183e+01    0.4363626    0.2289911 -44.01  0.001380847    2.134    0.531
       330  -8.9039      9.1375    138.8133   1.1972078381e+02   4.4822882373e+01    0.2702265    0.1140883  46.19  0.001293828    2.551    0.608
       331 -10.0147      2.2464    141.7261   1.2179705888e+02   4.4582428227e+01    0.3179464    0.1742183  74.47  0.001539435    1.840    0.457
       332  -8.7884    144.1340     14.1984   4.5115226259e+01   4.7130172013e+01    0.2143776    0.1617831  42.41 0.0009719204    1.300    0.231
       333  -9.4858      5.7435    140.9986   1.2082462089e+02   4.4530683902e+01    0.2196981     0.168688 -66.18 0.0005178746    1.170    0.145
       334 -10.4833     29.0590    138.6513   1.1424359887e+02   4.3310551973e+01    0.3964904    0.2400486 -46.94  0.001145598    1.709    0.415
       335 -10.5215     16.0307    133.1022   1.1723176151e+02   4.5705691464e+01     0.476357    0.1504696 -72.46  0.001923955    2.633    0.620
       336  -8.6129     67.2813     13.0948   6.4355533556e+01   6.4416455006e+01    0.2274071     0.142746  33.35 0.0007665642    1.383    0.277
       337  -9.4096     27.8190     41.2565   9.3773938865e+01   6.5594842356e+01     0.225806    0.1466074 -25.58 0.0005964151    1.347    0.258
       338  -8.4650     13.2938    136.3223   1.1834311867e+02   4.5129195379e+01    0.1269727   0.07853194 -49.72 0.0001940851    1.614    0.380
       339  -8.3361     45.3425    135.2614   1.0910155062e+02   4.2553330619e+01    0.1328154   0.09711274 -34.05 0.0002217991    1.594    0.372
       340  -9.6637    226.8008    133.9424   6.2909145331e+01   9.0068659843e+00    0.3596257    0.2490389  70.31  0.001675033    2.215    0.549
       341  -7.9757    163.3906     13.0000   4.1751922592e+01   4.2435123600e+01    0.3154618   0.06859541  67.53 0.0009470903    4.035    0.752
       342  -9.6132     35.9474    132.0785   1.1138087603e+02   4.4287533679e+01    0.2009178    0.1766405 -63.54 0.0006381181    1.071    0.066
       343 -11.0099      5.6299    125.7577   1.1935685663e+02   4.8151419261e+01    0.8386915    0.2757982 -52.85  0.003396136    2.605    0.616
       344 -10.1844     13.1410    123.5810   1.1694910885e+02   4.8197332013e+01    0.3872018    0.1470074 -66.59  0.001774702    2.025    0.506
       345 -10.2157     28.0365    125.9644   1.1285286818e+02   4.6495559163e+01    0.3264889    0.1811854 -61.21  0.001015717    1.500    0.333
       346  -9.4242     30.7668    123.0623   1.1161058614e+02   4.6970348640e+01    0.2420205     0.182063 -83.63  0.001161475    1.270    0.212
       347 -10.5573    230.7171    124.8849   6.0187269626e+01   9.8145056046e+00    0.5175482    0.3812757 -53.13  0.001955207    1.486    0.327
       348 -10.2252     48.6531    125.4905   1.0652146085e+02   4.4608096628e+01    0.3574684    0.2674156  -8.92  0.001358011    1.724    0.420
       349  -9.3678     37.7893    125.1264   1.0978651340e+02   4.5820187885e+01    0.3577277      0.16261 -70.71    0.0015542    2.061    0.515
       350  -9.4655     23.4497    125.1840   1.1411205825e+02   4.7060037890e+01    0.1927015    0.1854859  44.16 0.0004564764    1.220    0.180
       351  -9.2448     94.0073    122.7217   9.2005707261e+01   3.8888477018e+01    0.2607482    0.2049851 -54.07 0.0005827185    1.236    0.191
       352  -8.5664     78.2272    123.0319   9.6893432782e+01   4.1357088170e+01    0.1962149    0.1808708 -53.74 0.0002870325    1.025    0.025
       353  -8.2860     90.0070    122.0077   9.3053194689e+01   3.9737002271e+01    0.1734431    0.1709435  23.50 0.0003124138    1.053    0.050
       354  -9.6330      1.7270     21.8255   1.0026742300e+02   7.1043681816e+01    0.2399157    0.1287689 -50.34 0.0007882646    1.548    0.354
       355  -8.1242     73.5900    121.8475   9.8078576992e+01   4.2331811925e+01    0.1954992    0.1355336 -70.15 0.0004520382    1.535    0.349
       356  -9.1531     61.2166    120.8184   1.0174515825e+02   4.4267988784e+01    0.3122029    0.2283055   6.47  0.001141001    1.721    0.419
       357 -10.1380     57.4655    117.8120   1.0234020032e+02   4.5475747648e+01    0.3224318    0.2661261 -53.21 0.0007449837    1.102    0.093
       358  -9.2179     69.7363    118.3695   9.8550470853e+01   4.3731274598e+01    0.2827708    0.2298058 -49.88 0.0009099423    1.147    0.128
       359  -9.5451     98.5021    117.2299   8.9343129209e+01   3.9414232302e+01    0.2645862    0.2293097  12.87 0.0005030934    1.260    0.206
       360 -10.3126     26.0731    116.4355   1.1206860503e+02   4.8977625591e+01    0.2938531    0.2285988  34.83  0.001714267    1.478    0.323
       361  -9.5581     39.1811    115.2207   1.0771564949e+02   4.8115047335e+01    0.3131454    0.2061709  62.55  0.001358591    1.896    0.473
       362 -10.6818     11.4211    114.7285   1.1636816469e+02   5.0429889548e+01     0.268084    0.2184914 -43.27 0.0006413863    1.269    0.212
       363  -9.4443      2.5130    113.1509   1.1888116985e+02   5.1313631766e+01    0.3039511    0.1665003  87.71 0.0007985939    1.860    0.463
