#   1 NUMBER                 Running object number                                     
#   2 MAG_AUTO               Kron-like elliptical aperture magnitude                    [mag]
#   3 X_IMAGE                Object position along x                                    [pixel]
#   4 Y_IMAGE                Object position along y                                    [pixel]
#   5 X_WORLD                Barycenter position along world x axis                     [deg]
#   6 Y_WORLD                Barycenter position along world y axis                     [deg]
#   7 A_WORLD                Profile RMS along major axis (world units)                 [deg]
#   8 B_WORLD                Profile RMS along minor axis (world units)                 [deg]
#   9 THETA_WORLD            Position angle (CCW/world-x)                               [deg]
#  10 FWHM_WORLD             FWHM assuming a gaussian core                              [deg]
#  11 ELONGATION             A_IMAGE/B_IMAGE                                           
#  12 ELLIPTICITY            1 - B_IMAGE/A_IMAGE                                       
         1 -14.8930      6.9784    147.0521   1.4634207228e+02   4.3822024649e+01     9.763913     3.788869  69.24    0.0444933    3.036    0.671
         2 -13.5729    195.5624     28.2367   6.8855424208e+01   3.2348578874e+01     1.561164     1.489135  21.47  0.007054367    1.192    0.161
         3 -13.5571    211.2650      8.6093   6.1716111381e+01   3.0439183771e+01     1.268449    0.9381835  43.02  0.006986592    1.580    0.367
         4 -12.0972      2.6709     12.4145   1.2354447189e+02   7.2537388602e+01     1.061682    0.1926973 -40.23  0.004227384    3.807    0.737
         5  -9.8060    198.3196    246.6659   1.1808781809e+02  -2.5735917232e+00    0.1106682   0.08509211  56.79  0.000704917    1.699    0.412
         6 -10.4597    249.8376    249.3699   1.0958101889e+02  -1.0599183021e+01     0.242022    0.1500372   0.66  0.001608659    1.543    0.352
         7 -11.0812    139.2267    245.9548   1.2881689505e+02   7.0949471654e+00     0.206658    0.1790923 -61.80   0.00148758    1.492    0.330
         8 -11.5000     99.8132    249.0591   1.3632371359e+02   1.2694074912e+01    0.3675715     0.292356  38.57  0.002645447    1.355    0.262
         9 -10.3921     46.5703    249.2045   1.4554274103e+02   1.9775247361e+01    0.2534022    0.1104472  66.17  0.001269179    2.045    0.511
        10 -11.9408     34.9158    245.9011   1.4727896975e+02   2.1679659316e+01    0.5166821    0.3461874 -84.52  0.003980937    1.459    0.314
        11 -10.9198     29.4984    249.2169   1.4832549468e+02   2.1728940268e+01    0.3247858    0.1950627 -75.83  0.002218493    1.745    0.427
        12 -11.8867     13.6227    248.3507   1.5078936833e+02   2.3545984763e+01    0.4724639    0.2748494  62.89  0.003664069    1.172    0.147
        13 -11.1377      3.6941    248.4250   1.5231364532e+02   2.4510364910e+01    0.4044995    0.2287426  53.30  0.003180722    1.311    0.237
        14 -11.4693     20.7489    243.9460   1.4947753387e+02   2.3549117554e+01    0.4892163    0.1367176  58.43  0.002526029    2.753    0.637
        15 -12.5296     11.5263    238.7349   1.5072426621e+02   2.5373634474e+01    0.5006036    0.2461801  88.11  0.003451709    1.718    0.418
        16 -10.9405     50.9510    245.5033   1.4458457974e+02   1.9865171652e+01    0.2403697     0.154808  43.03  0.001699085    1.455    0.313
        17  -9.8579    173.9762    249.4833   1.2287327720e+02   9.8526225697e-01    0.1693914   0.08350598  54.68 0.0008097825    2.494    0.599
        18 -10.8079     22.4499    236.8448   1.4886685328e+02   2.4585680609e+01    0.2251026    0.2029351 -33.06  0.001482675    2.077    0.519
        19 -11.9834    243.3526    245.6904   1.1009211946e+02  -9.3191004091e+00    0.4768266    0.2444491 -10.21  0.002636538    2.429    0.588
        20 -12.8846     34.1597    234.0011   1.4675183606e+02   2.3812948106e+01    0.2727819    0.2282491 -83.77 0.0008097647    1.421    0.296
        21  -9.6142      1.8276    220.2182   1.5153864319e+02   2.9552937343e+01    0.1281846    0.1024904 -87.28  0.001074415    1.362    0.266
        22 -13.2683     48.9685    216.2710   1.4293537954e+02   2.5327762633e+01     1.248856     1.013042  48.84  0.007452748    1.311    0.237
        23 -12.6765      9.4351    207.0814   1.4962566093e+02   3.1293112296e+01     0.664083    0.4551067  37.38  0.003338118    1.664    0.399
        24  -8.9545    152.4904    213.0102   1.2192407083e+02   1.0027822833e+01    0.1601371     0.133412 -49.81 0.0009852117    1.452    0.311
        25 -11.7239     60.7930    199.7903   1.3922945749e+02   2.7060827818e+01    0.2520866    0.2250978 -67.87 0.0005386777    1.384    0.277
        26 -11.0955     16.8343    198.2250   1.4778032692e+02   3.2309733484e+01    0.2448193    0.1466633  58.74 0.0004138096    1.352    0.261
        27 -14.0254     39.0902    227.1418   1.4548438234e+02   2.4479404489e+01    0.8656668    0.5239598  59.14  0.002363004    1.250    0.200
        28 -11.1301      2.1110    192.4425   1.5022388655e+02   3.4769697773e+01    0.3175319    0.1325739 -76.70  0.001874095    1.988    0.497
        29  -9.5911    191.6507    192.6535   1.1061087257e+02   6.1230756218e+00    0.3599656    0.2119006 -65.04  0.001336798    4.148    0.759
        30 -11.9643     67.0886    191.3370   1.3707134220e+02   2.7950742966e+01     0.251983    0.2193362 -80.24  0.000488947    1.220    0.180
        31 -10.9969      6.4241    188.8246   1.4921887528e+02   3.5119195786e+01    0.2184056    0.1519674  63.81  0.001615484    1.178    0.151
        32 -10.0345     54.4502    229.4776   1.4289549886e+02   2.2220558524e+01    0.2202108    0.1441715  62.44  0.000663711    1.168    0.144
        33 -13.2683     63.9988    176.5377   1.3611840355e+02   3.1487346662e+01    0.4601881    0.2678256 -47.54  0.001613621    2.226    0.551
        34 -10.9058     77.3686    178.3159   1.3330097413e+02   2.9259647828e+01     0.225895    0.2039735  76.30 0.0003559657    1.096    0.087
        35  -9.5656     98.4956    175.3588   1.2803616239e+02   2.6644815146e+01     0.245219    0.1869546  76.54  0.001362171    1.336    0.252
        36 -11.8165     85.0363    168.9520   1.3026280880e+02   3.0154055852e+01    0.6147825    0.5799445  26.21   0.00389117    1.299    0.230
        37 -10.7346    129.3070    245.4415   1.3059107257e+02   8.7527354536e+00    0.1933332    0.1350316  77.88  0.001198178    1.794    0.442
        38 -10.0878     97.5009    152.9921   1.2469257801e+02   3.1710866456e+01    0.2881585    0.2526704 -69.81 0.0007758293    1.134    0.118
        39 -12.0885     86.1444    152.0931   1.2741147633e+02   3.3745316789e+01    0.2836117    0.2453813 -46.00 0.0006043235    1.317    0.241
        40  -9.1619    100.3677    148.8608   1.2323168169e+02   3.2155205446e+01    0.1920545    0.1732745 -63.37 0.0005773851    1.131    0.116
        41  -8.8437    134.0000    146.5777   1.1432954135e+02   2.6355000288e+01    0.4996464   0.08622163 -48.79  0.001171826    6.090    0.836
        42 -12.2793     67.4006    143.6940   1.3089806761e+02   3.8391793807e+01    0.6731259    0.4176442  64.33   0.00336241    1.804    0.446
        43  -8.3149    192.2825    144.2793   1.0053761184e+02   1.4281917782e+01    0.1478191    0.1129538  11.80 0.0002696022    1.511    0.338
        44 -11.0438    132.8764    231.6263   1.2831587048e+02   1.0336153891e+01    0.3350287    0.1278449  39.47  0.001504904    2.188    0.543
        45  -9.9504    109.4476    137.6219   1.1870292168e+02   3.3080497632e+01    0.4353379    0.2989528 -11.93  0.001612875    2.640    0.621
        46 -10.8050     33.1297    132.4652   1.3836339568e+02   4.4912091060e+01    0.3694445    0.1594034  53.99  0.001677112    2.692    0.629
        47 -10.5651     55.9053    130.3708   1.3189374807e+02   4.2953443356e+01    0.3431239    0.2424801 -67.24  0.001937773    1.267    0.211
        48 -10.4838     96.5140    135.0008   1.2161026444e+02   3.5965512919e+01    0.2414132    0.2315839  15.14 0.0004628344    1.184    0.155
        49  -8.8669    106.6263    124.1321   1.1656073020e+02   3.6653232103e+01    0.1903063    0.1743871 -55.51  0.000338593    1.088    0.081
        50  -9.4213    167.7659    112.8753   9.8198792545e+01   2.5851940867e+01    0.2799035    0.2070374  84.67  0.001182614    1.937    0.484
        51  -9.3858    203.1761    111.7781   9.0490820616e+01   1.7620497050e+01    0.2144308    0.1762974  15.62 0.0004693233    1.346    0.257
        52 -10.4012    173.9219    222.7231   1.1913138301e+02   4.7160120511e+00    0.3650511     0.256507  63.44  0.002026696    1.863    0.463
        53  -8.9869     38.5136     94.9472   1.3090620011e+02   5.3053988410e+01    0.1719057    0.1655505 -61.75 0.0004141464    1.126    0.112
        54  -9.4360    157.5234     76.5159   9.0284678570e+01   3.5219226351e+01     0.156948    0.1518536  39.38  0.000237492    1.006    0.006
        55  -9.4085     39.5118     65.7632   1.2388102473e+02   5.9427357261e+01    0.2906166     0.168837  50.85  0.001436596    2.508    0.601
        56 -11.0961      2.2704     59.6546   1.3695984683e+02   6.3358767873e+01    0.3438849   0.09642611 -64.36  0.001550546    2.525    0.604
        57 -11.2424     13.4734     54.7713   1.3142265859e+02   6.3802529360e+01    0.3133141    0.1682107  37.67  0.001128561    2.400    0.583
        58 -10.7663      2.8204     38.8327   1.3203805845e+02   6.7607694626e+01    0.1736966     0.142409 -65.62  0.001284906    1.271    0.213
        59 -10.5316    152.8800    248.8709   1.2664864579e+02   4.4781152569e+00     0.186563    0.1412319  29.64  0.001246694    1.278    0.218
        60 -11.2578    125.6155    249.7014   1.3172648030e+02   8.6894768131e+00    0.4572833     0.118641  47.65  0.001821927    3.109    0.678
        61 -11.4977      3.0567     20.8565   1.2648112262e+02   7.1019956197e+01     0.316674    0.1815322 -60.41  0.001981789    1.705    0.414
