#   1 NUMBER                 Running object number                                     
#   2 MAG_AUTO               Kron-like elliptical aperture magnitude                    [mag]
#   3 X_IMAGE                Object position along x                                    [pixel]
#   4 Y_IMAGE                Object position along y                                    [pixel]
#   5 X_WORLD                Barycenter position along world x axis                     [deg]
#   6 Y_WORLD                Barycenter position along world y axis                     [deg]
#   7 A_WORLD                Profile RMS along major axis (world units)                 [deg]
#   8 B_WORLD                Profile RMS along minor axis (world units)                 [deg]
#   9 THETA_WORLD            Position angle (CCW/world-x)                               [deg]
#  10 FWHM_WORLD             FWHM assuming a gaussian core                              [deg]
#  11 ELONGATION             A_IMAGE/B_IMAGE                                           
#  12 ELLIPTICITY            1 - B_IMAGE/A_IMAGE                                       
         1 -11.7303     43.4888     20.7815   1.0732154916e+02   6.6199735793e+01    0.3803393    0.1716018  24.68  0.001784101    2.797    0.642
         2 -11.7307     43.8103      8.4808   1.0139228174e+02   6.7917906396e+01    0.2555051    0.2108802  -9.98  0.001115116    1.113    0.102
         3 -13.0460    186.2218      5.8841   6.6976984477e+01   3.7093478514e+01    0.6189167    0.3478481 -63.52  0.002754371    2.151    0.535
         4 -11.2156      8.5054    240.5004   1.5201113547e+02   2.5636080930e+01    0.1793297   0.07625774  41.11  0.001210505    2.165    0.538
         5 -11.2611     29.8846    233.0051   1.4840339738e+02   2.4705128377e+01    0.3922109    0.1280411  64.05  0.001967388    3.071    0.674
         6 -10.7045     12.9252    227.2913   1.5074111596e+02   2.7406382451e+01    0.1371563   0.09440303  68.81 0.0005679958    1.058    0.055
         7 -11.3869     95.8475    224.3432   1.3664937235e+02   1.7884273585e+01    0.2876357     0.212987  79.02  0.001984212    1.291    0.225
         8 -11.4091    149.6926    222.9691   1.2679353501e+02   9.6953020587e+00    0.2956432    0.1968083 -74.44   0.00166956    2.257    0.557
         9 -11.2299    226.4046    221.2496   1.1302444192e+02  -2.8515679503e+00    0.1459788    0.1100141 -37.37 0.0009506466    1.692    0.409
        10 -10.6316    211.3970    218.1980   1.1508457057e+02  -2.8975990463e-02    0.1506954    0.1141472 -43.73 0.0008743673    1.733    0.423
        11 -10.8235    232.6940    211.3216   1.1028755398e+02  -2.7023154005e+00    0.1039892   0.09701975  65.76 0.0004216614    1.639    0.390
        12 -10.8960    115.9728    210.0096   1.3134420712e+02   1.7295502582e+01    0.2020431     0.130737  70.65  0.001138263    1.732    0.423
        13 -11.0156    186.1661    203.9106   1.1723440541e+02   6.2647225074e+00    0.2831497    0.2088432 -72.18  0.001532681    2.260    0.557
        14 -10.8126     49.0032    201.9973   1.4300648827e+02   2.8098246938e+01     0.191824    0.1042203  69.30  0.001141426    1.711    0.416
        15 -10.1546      5.3501    199.6776   1.5053818343e+02   3.3033557144e+01    0.1125777    0.0529305  67.00 0.0007048586    1.747    0.428
        16 -10.8158    112.6513    197.8206   1.3041017596e+02   2.0002480249e+01    0.2610484    0.1474721 -88.61  0.001152177    2.999    0.667
        17 -10.2377    133.2972    195.6644   1.2604191308e+02   1.6963058101e+01    0.1295875   0.09303912  74.65 0.0003800103    1.651    0.394
        18 -12.2195    159.1150    191.2137   1.2025696911e+02   1.3159110840e+01    0.6118625    0.3961035 -67.49  0.003031214    2.273    0.560
        19 -11.0204     34.2437    186.4886   1.4445738786e+02   3.2754980118e+01    0.2416465   0.07808977 -84.64 0.0008976313    4.455    0.776
        20 -10.7821    183.3913    183.2241   1.1412772514e+02   9.9619272643e+00    0.3004857     0.171052 -37.11  0.001467588    1.944    0.486
        21 -10.4361    210.4924    183.0218   1.0901151740e+02   4.9043864137e+00    0.1957021    0.1277046 -31.65   0.00104304    1.621    0.383
        22 -10.2615    191.6691    178.3223   1.1161791841e+02   9.1716808455e+00    0.1303242    0.1083417  81.73 0.0007049632    1.698    0.411
        23 -12.6783     35.5583    173.6821   1.4308013519e+02   3.5194226918e+01    0.4708994    0.2212668  70.99  0.002405417    2.365    0.577
        24 -10.2110    193.3290    188.6689   1.1324139783e+02   7.2462571555e+00    0.1263507    0.1049029  79.00 0.0004286133    1.715    0.417
        25 -11.5365    121.0074    168.2758   1.2423929556e+02   2.4278010849e+01    0.3295369    0.1685192 -65.00  0.001405865    2.477    0.596
        26  -9.9752     88.3182    167.9926   1.3129811196e+02   2.9660904824e+01    0.2078986   0.09876809 -83.09 0.0007045453    4.245    0.764
        27 -10.9112     99.0076    166.0288   1.2866784587e+02   2.8417677745e+01    0.2190137    0.1482152  76.08  0.001093672    1.710    0.415
        28 -11.9459    106.2786    157.7825   1.2570461937e+02   2.8951766689e+01    0.5810773     0.348602  74.16  0.002545439    2.449    0.592
        29 -11.2390    167.1208    156.7441   1.1220902033e+02   1.7729113873e+01     0.311461    0.2272776 -77.31  0.001287817    2.057    0.514
        30 -10.4788    218.3230    156.6768   1.0222025847e+02   7.3651254640e+00     0.130691    0.1127939 -76.97 0.0004028549    1.681    0.405
        31 -10.4791      7.0000    155.9876   1.4737108396e+02   4.1498757908e+01    0.1796664   0.04902354 -75.16 0.0005030973    2.887    0.654
        32 -10.9434    189.8844    150.2463   1.0619890739e+02   1.4205730834e+01     0.324482    0.2033038 -53.02  0.001458694    2.000    0.500
        33 -11.4530    107.3107    145.6494   1.2329249113e+02   3.1349771679e+01    0.4162855    0.2488663  79.65  0.001652955    2.920    0.658
        34 -11.0325    148.6474    144.8252   1.1366207047e+02   2.3749235425e+01    0.3094769    0.1825091 -69.87  0.001158042    2.961    0.662
        35 -11.9312     83.0000    127.4690   1.2577816325e+02   3.9259901006e+01    0.4519621    0.1533208 -56.17  0.001698439    2.698    0.629
        36 -10.8407    131.6274    130.8595   1.1448551931e+02   2.9998176070e+01    0.2172753    0.1343208 -58.32  0.000954086    1.796    0.443
        37 -12.2235     98.8328    128.5300   1.2198318970e+02   3.6508646977e+01    0.5172638    0.3110795 -86.22  0.002040153    2.902    0.655
        38 -10.6864    117.6645    125.3590   1.1661294482e+02   3.3852889850e+01    0.1526994    0.1126428  87.75 0.0007039876    1.809    0.447
        39 -11.2711     58.6080    124.0000   1.3142762632e+02   4.3369923230e+01    0.3082884    0.1533922 -76.66  0.001341565    2.419    0.587
        40 -11.6185     43.2330    122.4864   1.3516556528e+02   4.5466279506e+01    0.5231541    0.2418389 -85.43  0.002089437    3.264    0.694
        41 -11.5162    193.3188    118.9695   9.8173935710e+01   1.8944950177e+01     0.547446    0.3621563 -60.76  0.002328095    2.114    0.527
        42 -10.6174     37.7988    121.1282   1.3636527355e+02   4.6328774328e+01    0.1741718     0.139353 -87.19 0.0003170119    1.138    0.121
        43 -10.9192     70.7066    119.8812   1.2750717395e+02   4.2726459504e+01    0.2941269     0.161384 -84.77     0.001165    3.012    0.668
        44 -10.9504    108.0010    112.2604   1.1600810310e+02   3.8464214290e+01    0.4462305    0.1857934 -59.82  0.001470319    3.341    0.701
        45 -11.7186    121.9834    111.6619   1.1228467749e+02   3.5939986180e+01    0.4266059    0.1801579 -52.84  0.001528638    2.583    0.613
        46 -11.2267     78.3644    111.9343   1.2383468152e+02   4.3422251913e+01    0.3752758    0.2040773 -75.25   0.00150925    2.719    0.632
        47 -10.7660    174.2790    111.6192   1.0015842210e+02   2.4619239625e+01    0.2871291    0.1805377 -48.04  0.000894457    1.699    0.411
        48 -11.6788    159.7346    110.8378   1.0310202235e+02   2.8076505893e+01    0.4709457    0.1922074 -48.46  0.001587281    2.780    0.640
        49 -11.6134     26.4380    119.7225   1.3909521903e+02   4.7706680164e+01    0.4496755    0.1889361 -89.17  0.001725582    3.799    0.737
        50 -11.7328     13.9116    109.1925   1.4095356106e+02   5.1044242635e+01    0.5501936    0.2110561 -75.41  0.002603173    2.304    0.566
        51 -11.8698    127.9170    101.4200   1.0813257217e+02   3.6873790837e+01    0.4383364    0.2163718 -51.34  0.001690794    2.175    0.540
        52 -12.8013    140.9473    103.5879   1.0551877383e+02   3.3667588661e+01    0.6792206    0.3839115 -52.47  0.002765734    1.968    0.492
        53 -12.1301    112.0107    101.4660   1.1224417722e+02   4.0028460114e+01    0.3263972    0.2347187  48.26  0.001083908    1.472    0.320
        54 -11.7222    107.1917     98.2978   1.1269288170e+02   4.1605678053e+01    0.5163864    0.3078368 -65.54  0.002116621    2.309    0.567
        55 -10.9405     81.3901    100.1823   1.2031879171e+02   4.5576888488e+01    0.2055721    0.1230561 -63.29 0.0009509556    1.768    0.434
        56 -12.3683     44.3056    100.9253   1.3114805767e+02   5.0194358693e+01    0.5990068     0.331114 -88.48  0.002661324    2.762    0.638
        57 -11.0761     62.6677     95.0112   1.2452143018e+02   4.9361655513e+01    0.3451633    0.1671025 -75.83  0.001135166    4.375    0.771
        58 -12.8643    169.7082     90.6226   9.5421205094e+01   2.9535331787e+01    0.5373718    0.3802163  86.09 0.0009377648    2.127    0.530
        59  -9.8833     79.5533     90.4958   1.1842629373e+02   4.7970511615e+01    0.1383789    0.1241164 -50.70 0.0001280697    1.017    0.017
        60 -12.2180    150.2671    102.2762   1.0296987629e+02   3.1867565564e+01    0.3665417    0.2355544 -55.32  0.001563099    1.809    0.447
        61 -11.0714    151.1934     88.8042   9.8972548114e+01   3.4233390966e+01    0.3543822    0.1034956 -43.51  0.001026398    3.502    0.714
        62 -10.5006     41.5528     87.8303   1.2930413997e+02   5.3388625903e+01    0.2029368    0.1546694  -0.43 0.0007300566    1.724    0.420
        63 -11.4536     86.0737     86.3019   1.1538820848e+02   4.7838769489e+01    0.3763533    0.2267298 -64.09  0.001674514    2.061    0.515
        64 -10.1354    173.4425     86.4735   9.3463879049e+01   2.9373161676e+01    0.1526426    0.1486917 -13.61  6.34527e-05    1.007    0.007
        65 -11.6402    104.1653     82.7799   1.0918407769e+02   4.5393940549e+01    0.4332286    0.2228634 -57.77  0.001653588    2.560    0.609
        66 -10.6395    140.6133     82.8035   9.9690152898e+01   3.7782445882e+01    0.2288143    0.1373172 -47.46  0.000956624    1.744    0.427
        67 -10.1392     45.5291     81.4925   1.2662476902e+02   5.4358243742e+01    0.1285402    0.1072492 -54.05  0.000809907    1.009    0.009
        68 -11.1190     24.0098     80.0206   1.3318946935e+02   5.6692189847e+01    0.3525223    0.1425105 -74.98  0.001402365    3.334    0.700
        69 -11.5708     82.3099     73.0581   1.1269413912e+02   5.1195732115e+01    0.3736275    0.2366139 -71.12  0.001584614    2.639    0.621
        70 -11.1861    223.6522     71.1376   8.0388140398e+01   1.9615362345e+01    0.2591979    0.2389156  85.87 0.0004248685    1.169    0.145
        71 -10.8142     51.4879     69.9527   1.2171859017e+02   5.6149492282e+01    0.2070526    0.1101561 -52.41  0.001034634    1.596    0.373
        72 -10.7099    195.5801     68.8114   8.4209900611e+01   2.6822541019e+01    0.2146997    0.1325555 -43.28 0.0003778612    1.628    0.386
        73 -10.5801    115.6047     71.8272   1.0266618375e+02   4.5280571250e+01    0.2212137    0.1320263 -48.64 0.0009566498    1.766    0.434
        74 -12.1153     36.9663     62.0585   1.2453874054e+02   5.9360369667e+01    0.6073951    0.2487634 -57.60  0.002793885    2.159    0.537
        75 -12.7775     25.9152     59.2639   1.2774811099e+02   6.0942662851e+01    0.4788651    0.3627767 -86.24  0.002297876    1.720    0.418
        76 -11.1021     62.3903     69.8009   1.1805992122e+02   5.4808761477e+01    0.1996689    0.1059029 -42.20 0.0007531337    1.679    0.404
        77 -11.6824     19.6267     58.9363   1.2994670452e+02   6.1508639492e+01    0.2243102    0.1650942 -39.35 0.0008159811    1.207    0.171
        78 -11.4726      8.6888     56.5614   1.3337091122e+02   6.2741805649e+01    0.4719011    0.3036184 -88.96  0.002797279    2.084    0.520
        79 -12.1845     20.6422     51.0541   1.2749248074e+02   6.3038409137e+01    0.4214902    0.1881104 -59.49  0.002163607    1.924    0.480
        80 -11.2429     82.3475     45.0195   1.0317151354e+02   5.6434373266e+01    0.3430434    0.2153435 -26.21  0.001197723    1.558    0.358
        81  -9.8304    156.9966     45.0000   8.4002222510e+01   4.0097363318e+01    0.2375745   0.08348124  58.79  0.000424277    2.810    0.644
        82 -11.0463      5.1861     42.8513   1.3131364741e+02   6.5719106633e+01    0.2898259    0.1339397 -68.83  0.001496477    2.299    0.565
        83 -11.7107     70.0305     41.7953   1.0604052990e+02   5.9020600749e+01    0.3702614    0.2609532 -68.19  0.001783996    2.570    0.611
        84 -10.6563     42.9921     39.0111   1.1491111306e+02   6.3200837769e+01    0.1894504    0.1554714 -27.66 0.0004537636    1.022    0.022
        85 -10.6572    119.5713     33.7860   8.8288280972e+01   5.0634032531e+01    0.2011861    0.1264893 -39.12 0.0007757947    1.674    0.402
        86 -10.4500     72.8025     32.1920   1.0127951450e+02   6.0134013747e+01    0.2046099      0.14952 -73.53 0.0009580594    2.892    0.654
        87 -11.2672    103.4902     30.1791   9.1057511510e+01   5.4629975212e+01    0.4692726    0.3297686  78.66  0.002208405    2.322    0.569
        88 -10.2185     41.1796     26.2185   1.1061211979e+02   6.5621152688e+01    0.1516113    0.1348596 -36.48 0.0005190828    1.314    0.239
        89 -10.2056    239.8454     21.0858   6.5490649025e+01   2.2248477667e+01    0.1707615    0.1553576  25.85 0.0005798571    1.311    0.237
        90 -12.3473    220.9130    248.5382   1.1813885781e+02  -4.9921262158e+00    0.4185895    0.2012014  50.67  0.002216162    2.488    0.598
        91 -12.1673    216.7903     16.6425   6.6623342632e+01   2.8291786686e+01    0.3931264    0.2527424  78.44  0.001091266    1.554    0.356
        92 -10.7835     25.5213    242.0138   1.4955964914e+02   2.3678982691e+01    0.1442333   0.05647394  75.87 0.0008101584    2.566    0.610
