#   1 NUMBER                 Running object number                                     
#   2 MAG_AUTO               Kron-like elliptical aperture magnitude                    [mag]
#   3 X_IMAGE                Object position along x                                    [pixel]
#   4 Y_IMAGE                Object position along y                                    [pixel]
#   5 X_WORLD                Barycenter position along world x axis                     [deg]
#   6 Y_WORLD                Barycenter position along world y axis                     [deg]
#   7 A_WORLD                Profile RMS along major axis (world units)                 [deg]
#   8 B_WORLD                Profile RMS along minor axis (world units)                 [deg]
#   9 THETA_WORLD            Position angle (CCW/world-x)                               [deg]
#  10 FWHM_WORLD             FWHM assuming a gaussian core                              [deg]
#  11 ELONGATION             A_IMAGE/B_IMAGE                                           
#  12 ELLIPTICITY            1 - B_IMAGE/A_IMAGE                                       
         1 -14.8379    161.1916     49.9659   7.6447730891e+01   3.8570585387e+01      1.11415     1.071512  13.78  0.003689306    1.169    0.144
         2 -15.0697    174.3422     20.4404   6.6222860273e+01   3.9111644399e+01    0.9779798    0.8028206  82.19   0.00347964    1.085    0.079
         3 -13.7845    189.4913     14.6713   6.2779939811e+01   3.6113868315e+01    0.3810754     0.294405  89.04  0.001356117    1.139    0.122
         4 -13.1504    197.9632     22.0551   6.3521252310e+01   3.3273156195e+01    0.4124652    0.2675422 -44.84  0.002273998    1.575    0.365
         5 -11.7141    163.9527    238.9388   1.1876213382e+02   4.9343398070e-01    0.2910673    0.1916603  62.51   0.00147536    1.912    0.477
         6 -20.4554     76.7116    181.0529   1.2907440632e+02   2.7691627774e+01     16.35966     6.772547 -63.82   0.06645112    2.301    0.565
         7 -10.1279    139.7037    250.3213   1.2520933721e+02   2.6726262156e+00    0.2135797    0.1398571  57.96  0.001174164    1.513    0.339
         8 -12.3868    194.4327    171.8183   1.0009407111e+02   7.5071127198e+00    0.4127789     0.293065 -53.53  0.001254785    1.531    0.347
         9 -12.9167    196.2841    229.6836   1.1078526687e+02  -3.5434540319e+00    0.3005546    0.1809086 -27.06  0.001211675    1.999    0.500
        10 -13.0569    207.7631    224.4311   1.0760955298e+02  -4.6369540677e+00    0.5044379    0.1792113 -42.81  0.002008048    3.031    0.670
        11 -12.4486    230.1763    166.6692   9.1987837863e+01   1.4969336812e+00    0.3535761    0.1789561 -52.68  0.001421772    2.444    0.591
        12 -13.6261    161.2693    165.2220   1.0595040431e+02   1.5782449919e+01    0.6930466    0.4344879 -71.28  0.002676293    2.408    0.585
        13 -10.4357      5.8759    226.8467   1.4809994762e+02   2.6155746341e+01    0.1243923     0.116824   9.66 0.0008934262    1.828    0.453
        14 -10.4667     15.2037    221.6458   1.4613078880e+02   2.6271819330e+01    0.1161487   0.06333254  79.22 0.0003350436    1.539    0.350
        15 -12.5905    188.2953    154.0795   9.7522552425e+01   1.2433484887e+01    0.7466806    0.4726067  39.31   0.00314906    1.656    0.396
        16 -10.5897    177.9019    156.1318   1.0022606833e+02   1.4228246534e+01    0.2233876    0.2045944  89.60 0.0002720763    1.192    0.161
        17 -12.1694     24.7229    214.4674   1.4385095669e+02   2.6765752466e+01    0.2065655    0.1583022  83.01 0.0003188994    1.031    0.030
        18 -11.7776     20.9176    210.7236   1.4427506692e+02   2.7978023691e+01    0.2080318    0.1313616 -71.87 0.0005427257    1.416    0.294
        19 -13.1957    164.4517    153.1822   1.0258648311e+02   1.7767077611e+01    0.4766673    0.3772363  47.51  0.001431479    1.265    0.209
        20 -14.3196     11.7023    206.1132   1.4566389812e+02   2.9908284412e+01    0.4560292    0.4412885 -31.33  0.003195947    1.616    0.381
        21 -12.1713     27.6308    145.0460   1.3600448967e+02   4.2328627363e+01    0.4150324    0.3430905 -81.38  0.002441763    1.058    0.055
        22 -10.7350     26.4415    138.8057   1.3545051611e+02   4.3909744640e+01    0.1856076    0.1597903 -36.07 0.0004542744    1.362    0.266
        23 -12.4179    174.3189    149.0142   9.9413704542e+01   1.6536316601e+01    0.3814154     0.329834 -59.34  0.001201709    1.190    0.160
        24 -11.2774    167.0827    133.8432   9.7489430100e+01   2.1437101069e+01    0.2460972    0.2133943  85.86 0.0007305322    1.285    0.222
        25 -13.1220    160.3976    127.9237   9.7590479824e+01   2.4233183899e+01     0.519188    0.3946418 -63.00  0.001610299    1.446    0.308
        26 -10.2313    139.4701    247.4971   1.2487950847e+02   3.2066404731e+00    0.2075941    0.1303079 -62.80  0.000681675    1.952    0.488
        27 -10.2256    139.0000    243.0882   1.2437576926e+02   4.0729711819e+00    0.2225193    0.1578154 -53.72 0.0006450171    1.635    0.389
        28 -12.8423    164.8508    187.0862   1.0959991095e+02   1.0327828633e+01    0.4390066    0.2705256  60.38  0.001848085    2.031    0.508
        29 -11.2028    231.2774    113.7038   8.0176322691e+01   1.1163396693e+01     0.250896      0.24249 -32.99 0.0007847758    1.122    0.109
        30 -11.1367    167.7258    112.7933   9.2125301784e+01   2.5773243552e+01    0.3873472    0.2471831 -75.81  0.001423939    2.570    0.611
        31 -12.7730    162.5896    181.1542   1.0893545800e+02   1.2040587328e+01     0.410398    0.2708779 -62.56  0.001814006    1.816    0.449
        32 -11.0066    205.3478    110.2550   8.3854480070e+01   1.7529903805e+01    0.3098986    0.2105663  48.83 0.0009040691    1.548    0.354
        33 -12.1489     26.5365    106.1967   1.3014200203e+02   5.1447776905e+01    0.3075117    0.2197738  -6.13  0.001108977    1.772    0.436
        34 -10.2071    141.9872    241.6485   1.2357819381e+02   3.8202691257e+00    0.1974262    0.1825032 -71.83 0.0005897888    1.232    0.188
        35 -13.8863    187.8520    175.6574   1.0228550795e+02   8.0638002003e+00    0.9065523    0.5825195 -63.46  0.002730925    2.123    0.529
        36 -13.0970     47.0232     92.6266   1.2075757408e+02   5.2472450822e+01    0.4275711    0.2933548  12.64  0.001762814    1.736    0.424
        37 -11.3191      3.9900     90.0000   1.3423053591e+02   5.6568661958e+01    0.2365966     0.154821  -9.73  0.001502485    1.874    0.466
        38 -11.3670      8.0062     88.3189   1.3263354355e+02   5.6694770977e+01    0.2331328    0.1335096  -8.41  0.001327093    2.270    0.559
        39 -12.5356    186.9912    166.4287   1.0051273810e+02   1.0136489714e+01    0.5519092    0.3539205 -60.32  0.001756529    1.937    0.484
        40 -10.8807    144.0487     82.7346   8.9488878921e+01   3.7258597760e+01    0.2137153    0.1962231  50.14 0.0004632146    1.067    0.062
        41 -13.9337    177.6909    170.9619   1.0348994067e+02   1.1118529050e+01    0.9966186    0.4579678 -56.67  0.003417848    2.932    0.659
        42 -14.3494    149.7385     64.6991   8.3002971539e+01   3.9068704545e+01     1.282578    0.8850732  31.22  0.001213047    1.735    0.424
        43 -12.3159    116.0506    247.2790   1.2945786453e+02   7.1575404848e+00    0.2275188    0.2067531 -43.95 0.0008277186    1.430    0.301
        44 -13.4028    165.6219     41.1832   7.3188230724e+01   3.8708872864e+01    0.4571808    0.4106084  51.47 0.0008317514    1.128    0.113
        45 -11.1837     13.4686     59.8352   1.2439713502e+02   6.2117654929e+01    0.1780779    0.1484513 -11.05 0.0004000523    1.234    0.190
        46  -9.7287    162.2199    244.3603   1.1992200700e+02  -1.3563676488e-01    0.1190074   0.09624214  -6.47 0.0002272887    1.566    0.361
        47 -12.1999    129.0798    242.9238   1.2633514674e+02   5.7906669881e+00     0.204072    0.1814067 -68.20 0.0005497856    1.278    0.217
