#   1 NUMBER                 Running object number                                     
#   2 MAG_AUTO               Kron-like elliptical aperture magnitude                    [mag]
#   3 X_IMAGE                Object position along x                                    [pixel]
#   4 Y_IMAGE                Object position along y                                    [pixel]
#   5 X_WORLD                Barycenter position along world x axis                     [deg]
#   6 Y_WORLD                Barycenter position along world y axis                     [deg]
#   7 A_WORLD                Profile RMS along major axis (world units)                 [deg]
#   8 B_WORLD                Profile RMS along minor axis (world units)                 [deg]
#   9 THETA_WORLD            Position angle (CCW/world-x)                               [deg]
#  10 FWHM_WORLD             FWHM assuming a gaussian core                              [deg]
#  11 ELONGATION             A_IMAGE/B_IMAGE                                           
#  12 ELLIPTICITY            1 - B_IMAGE/A_IMAGE                                       
         1 -14.6502    168.4941     57.6018   6.1844399123e+01   3.5495098601e+01     2.632447      1.66497  22.51  0.007075218    2.350    0.574
         2 -13.9480    183.4986     42.3119   5.4515517840e+01   3.3911015687e+01    0.9443355    0.7474834 -51.65  0.002634024    1.280    0.219
         3 -13.8200    188.6158     35.8241   5.1809445447e+01   3.3467911442e+01    0.7092289    0.6362447 -32.98  0.001528439    1.161    0.139
         4 -12.9748    190.7353     15.4854   4.5644606219e+01   3.5359115521e+01    0.5259646    0.3924649  89.53  0.001819619    1.311    0.237
         5 -14.9864    205.7022     11.4313   4.2835225839e+01   3.2013637887e+01     1.439306     1.335085  40.51  0.005374901    1.259    0.206
         6 -13.8457    230.6268      3.6898   3.8608095936e+01   2.6794062337e+01     2.023851    0.5556833  75.10  0.007287237    3.588    0.721
         7 -11.6184     60.5721      3.0216   6.9113464614e+01   6.6738017147e+01    0.2302481    0.1384541  23.20  0.001285925    1.590    0.371
         8 -12.7424     71.3418    206.6616   1.1724532374e+02   2.3061018772e+01    0.4460146    0.2965779  38.31  0.001724415    1.575    0.365
         9 -14.3048    246.1742    239.5528   8.8702564059e+01  -9.8565704112e+00     1.610336    0.6886763 -25.84  0.008609124    2.542    0.607
        10 -16.6288     68.8518    142.8822   1.0970917811e+02   3.7516685986e+01     4.048394     2.566456 -80.07   0.02029783    1.623    0.384
        11  99.0000     12.5316    205.8557   1.2832652746e+02   3.0045904608e+01    0.3901896    0.1520362  38.08  0.002206705    2.446    0.591
        12 -12.1654    204.2375    199.8621   8.9384678087e+01   1.9176504254e+00    0.6160156    0.2104379  35.43  0.002285669    3.017    0.669
        13 -11.9416    193.2523    195.6091   9.0729814818e+01   4.5565148157e+00     1.196354    0.6504952 -64.61   0.00369323    6.161    0.838
        14  -9.8894    186.6714    186.3122   9.0312684141e+01   7.3256979482e+00    0.2204097     0.138591 -52.35  0.000785875    1.978    0.494
        15 -11.4572     75.4014    248.2737   1.2016983454e+02   1.4857643253e+01    0.4177581    0.1353314 -64.90   0.00206489    3.372    0.703
        16 -10.8057    222.9704    198.3664   8.5621278481e+01  -1.1117327433e+00    0.1954833     0.168787 -25.52 0.0004389277    1.273    0.214
        17 -11.6746     80.8329    194.8508   1.1403040396e+02   2.4139398838e+01    0.5039759    0.2446743  54.81  0.002207154    1.964    0.491
        18 -12.4894     67.1655    193.1922   1.1670444343e+02   2.6395434402e+01    0.3613662    0.2434746 -46.90  0.001341636    2.006    0.501
        19 -10.2640     65.9518    187.3362   1.1632485188e+02   2.7802826356e+01    0.1656672    0.1318911  58.98 0.0003418871    1.148    0.129
        20 -13.3221    149.9277    189.2913   9.8461836345e+01   1.3692044092e+01    0.6759967    0.4523053 -72.99  0.002356202    2.132    0.531
        21 -12.5402     67.4021    249.6199   1.2163123951e+02   1.5688726433e+01    0.1814172    0.1520815  70.73  0.001429121    1.214    0.176
        22 -18.8557     28.9525    100.8603   1.1394156457e+02   5.1962736926e+01     14.40668     1.205389 -65.88   0.03024338    9.593    0.896
        23 -11.8789    238.4127    185.7880   8.0448552795e+01  -1.9300207858e+00     0.236227    0.1655426  26.43 0.0009850521    1.322    0.243
        24 -12.0864    242.2156    184.6226   7.9556247713e+01  -2.4033179464e+00    0.2335669    0.1866912  22.22 0.0008304735    1.150    0.130
        25 -10.1487     59.9743    187.0000   1.1755769756e+02   2.8659037933e+01    0.1850902   0.06581721  36.50 0.0006396666    2.825    0.646
        26  -9.8784     52.6502    181.8695   1.1858162750e+02   3.0688627095e+01    0.2497168     0.168232  20.87  0.001386795    2.211    0.548
        27 -12.8367    241.3229    178.8564   7.8563912971e+01  -1.4277540203e+00    0.4167256    0.2576325  47.00  0.002186522    1.830    0.453
        28 -11.3020    188.2774    176.4071   8.8073471555e+01   8.7440840198e+00    0.3602131    0.3405195 -25.58  0.001505924    1.129    0.114
        29 -13.3968    237.9826    173.2464   7.8008848285e+01  -2.4189980435e-02    0.8645013    0.3316359  32.27  0.003222001    3.237    0.691
        30 -10.1299    194.1936    171.8638   8.5965999324e+01   8.3909459712e+00    0.2039832    0.1977116  52.23 0.0009178395    1.177    0.150
        31  99.0000     55.8893    229.7246   1.2215641944e+02   2.0655709490e+01     9.009361     4.835092  37.14    0.0516689    1.936    0.483
        32 -11.7748    230.4901    166.9642   7.8036326842e+01   2.2824463418e+00    0.3108219    0.1197812 -41.37  0.001209952    2.725    0.633
        33 -11.3818      6.2170    161.6748   1.2673642783e+02   3.9814635883e+01    0.1803362    0.1515495  89.62  0.000346075    1.174    0.148
        34 -10.2853    149.2129    156.0129   9.2364028942e+01   2.0506347481e+01    0.2418473    0.1725088 -79.70  0.001066904    1.991    0.498
        35 -12.1918    133.9830    146.1435   9.3879352884e+01   2.5684982302e+01     1.375069     0.345699 -55.07  0.003200278    6.218    0.839
        36 -11.1538    187.0334    151.9576   8.3199031796e+01   1.3475962323e+01    0.4282315    0.3122449  65.73  0.002001455    1.773    0.436
        37 -11.9330    113.4135    151.4572   9.9968431935e+01   2.8400351458e+01    0.4342273    0.2883831  85.66  0.001316527    2.130    0.531
        38 -10.5645    174.7463    149.1398   8.5180437045e+01   1.6608921324e+01    0.2560053    0.2072197  57.75  0.000571995    1.333    0.250
        39 -10.3161    119.3762    148.2684   9.7879392577e+01   2.8027124996e+01    0.2950254    0.1353469 -49.43   0.00114903    2.187    0.543
        40 -11.3654    143.8923    145.9525   9.1470960090e+01   2.3728213093e+01    0.5197421    0.2087265 -58.60  0.001550842    3.869    0.742
        41 -12.6100    109.6064    137.7562   9.8197158078e+01   3.2233770983e+01    0.6952556    0.3696188 -38.75  0.002745968    2.351    0.575
        42 -10.1427    127.8413    139.3165   9.3916917902e+01   2.8420157034e+01    0.2642033    0.1813201  47.20  0.001003274    1.455    0.313
        43 -12.5279     98.6930    136.1971   1.0071312474e+02   3.4518988794e+01    0.3484214    0.3252232  33.03 0.0003947968    1.194    0.163
        44 -12.1858    106.0027    130.8055   9.7667284241e+01   3.4500751595e+01    0.4302024    0.3554918 -70.46  0.001194872    1.212    0.175
        45 -11.5524    135.6185    127.3024   8.9236234802e+01   2.9526863568e+01    0.7422969    0.1463739 -50.40  0.001638002    6.187    0.838
        46 -11.0793    161.3521    128.4527   8.3343406635e+01   2.3723446947e+01    0.4611392    0.3475821  76.61  0.002061989    1.755    0.430
        47 -11.3211    116.4792    128.3053   9.4361756278e+01   3.3134425548e+01     0.310473     0.268501 -33.96 0.0006598263    1.256    0.204
        48 -11.5196    104.4970    123.8903   9.6546452745e+01   3.6385845462e+01    0.3035266      0.24693 -36.88 0.0007334105    1.328    0.247
        49 -10.7616    121.0196    122.9978   9.1940943269e+01   3.3464606089e+01    0.3492377    0.2294513 -17.76  0.001340697    2.577    0.612
        50 -10.3870    152.7469    119.5718   8.3144081081e+01   2.7504394240e+01     0.286506    0.2139615 -40.29 0.0005771464    1.340    0.254
        51 -10.3550    111.3452    117.8820   9.3292673407e+01   3.6512281260e+01    0.2362685    0.2007697  56.86 0.0003027551    1.233    0.189
        52 -10.7476    231.2914    113.7219   6.5835002538e+01   1.0883244325e+01    0.2566932    0.2344556  -0.09 0.0007746416    1.110    0.099
        53 -10.7253    167.6852    112.7738   7.7930205532e+01   2.5510852056e+01    0.3927701    0.2898602 -79.26  0.001423648    1.930    0.482
        54 -11.0923    134.6807    105.3251   8.3877520468e+01   3.4551878449e+01    0.4834296    0.1526049 -45.62  0.001458698    3.123    0.680
        55 -11.9295    119.2467    110.5608   8.9332925076e+01   3.6634901095e+01    0.6150632    0.3823979  65.84  0.002427466    2.316    0.568
        56 -10.6664    205.4748    110.2586   6.9516042578e+01   1.7206128258e+01    0.3173241    0.2418708  40.42 0.0009653213    1.377    0.274
        57 -11.0878     74.2173    103.8055   1.0060932186e+02   4.6069059305e+01    0.2090357    0.1844442 -75.70 0.0005979881    1.139    0.122
        58 -11.2585    187.6599     87.6493   6.6904180637e+01   2.5543019149e+01    0.4464585    0.3540938 -70.25  0.001763273    1.486    0.327
        59  -9.3748    184.3440     77.3088   6.4630670791e+01   2.8194159310e+01    0.1605589    0.1205871  20.49 0.0007044296    1.697    0.411
        60 -10.4093     84.3123    239.4478   1.1787715706e+02   1.5137454287e+01    0.2287912   0.09340312  41.26 0.0008384832    2.064    0.516
        61  -9.7537    162.5730    235.0393   1.0291802250e+02   3.7212710183e+00    0.1534492    0.1228818 -47.79 0.0004742605    1.543    0.352
        62 -10.8171    167.1803    226.6113   1.0086287307e+02   4.2302612482e+00    0.2953762    0.1746909 -41.48  0.001624726    2.038    0.509
        63 -12.6971     61.4887    204.9570   1.1903086925e+02   2.4718053812e+01    0.3510071    0.2398124 -46.34  0.001811794    2.132    0.531
        64 -12.7664     71.6146    241.6290   1.2030307342e+02   1.6494672159e+01    0.2287868    0.1808098 -73.43 0.0009003892    1.460    0.315
        65 -11.9403     68.7018    207.7186   1.1787176318e+02   2.3208138238e+01    0.2116727    0.1656833  64.14 0.0005147313    1.060    0.057
