#   1 NUMBER                 Running object number                                     
#   2 MAG_AUTO               Kron-like elliptical aperture magnitude                    [mag]
#   3 X_IMAGE                Object position along x                                    [pixel]
#   4 Y_IMAGE                Object position along y                                    [pixel]
#   5 X_WORLD                Barycenter position along world x axis                     [deg]
#   6 Y_WORLD                Barycenter position along world y axis                     [deg]
#   7 A_WORLD                Profile RMS along major axis (world units)                 [deg]
#   8 B_WORLD                Profile RMS along minor axis (world units)                 [deg]
#   9 THETA_WORLD            Position angle (CCW/world-x)                               [deg]
#  10 FWHM_WORLD             FWHM assuming a gaussian core                              [deg]
#  11 ELONGATION             A_IMAGE/B_IMAGE                                           
#  12 ELLIPTICITY            1 - B_IMAGE/A_IMAGE                                       
         1 -12.3133     82.1569     56.6726   6.5662391811e+01   5.5161351128e+01     1.948687    0.9362186 -49.48  0.003478516    2.690    0.628
         2 -13.0038    108.3720     62.9610   5.9775829393e+01   4.8705945712e+01     2.262091     1.245995 -53.32  0.001578007    2.374    0.579
         3 -12.5489     99.2885     45.4271   5.6410558710e+01   5.3377356124e+01     1.143807    0.8954476 -75.04   0.00184476    1.800    0.444
         4 -11.6010     83.8088     30.6778   5.5520550221e+01   5.8572206778e+01    0.9723063    0.5853739  50.11  0.001035772    1.500    0.334
         5 -11.5711     64.0201     19.6814   5.7513015844e+01   6.3725550295e+01     1.574959     0.866806  53.91  0.008182935    1.899    0.473
         6 -12.8811     59.2419     35.2005   6.5817191584e+01   6.2635984819e+01     2.054279     1.663414  13.00   0.01283088    1.088    0.081
         7 -11.6713      5.0642     35.5396   9.2003337938e+01   6.9259226545e+01    0.5919228    0.3601756 -23.58  0.002010161    1.393    0.282
         8 -12.2110    151.4882     46.7329   4.5125183751e+01   4.1207309897e+01     1.074169    0.8070179 -13.33  0.002850553    1.758    0.431
         9 -11.0871    161.8480     44.1979   4.2688829761e+01   3.9112099389e+01    0.9460046    0.4523655 -18.90  0.003492997    3.820    0.738
        10 -12.8775    244.7913     11.8782   2.6989107459e+01   2.5260894191e+01      1.67865     0.711931 -46.79    0.0097681    1.853    0.460
        11  -9.4819     39.4500     23.6748   6.9245853434e+01   6.7369112124e+01    0.5370507    0.4159118 -69.97  0.002894834    2.987    0.665
        12 -10.7457     45.1990     18.8042   6.4460901577e+01   6.7101799993e+01    0.5376908    0.3577421  32.65  0.002104445    1.305    0.234
        13 -10.3864    107.2807     25.1288   4.7283351715e+01   5.4133450351e+01    0.3424715    0.2311525  49.17 0.0007902335    1.292    0.226
        14  -9.9079     91.8706     18.2728   4.8544274059e+01   5.8237061444e+01    0.5197297    0.2526222  -9.55  0.002251556    3.132    0.681
        15  -8.7060    145.1487     29.8160   4.1398539177e+01   4.4831835662e+01    0.2094485     0.188153  24.07 0.0007041754    1.334    0.251
        16  -9.7918    214.2339    249.4614   7.7589980968e+01  -7.9612142355e+00    0.4056953    0.1810526  20.49  0.001952495    2.356    0.576
        17 -10.1717    194.5759    250.4325   8.1541602979e+01  -5.6235073195e+00    0.4148047    0.1050796  33.20  0.001543029    3.557    0.719
        18 -10.1989    188.3597    248.9462   8.2547665707e+01  -4.5698003496e+00    0.2713528    0.2265322 -25.95  0.001474231    1.258    0.205
        19 -11.4905    164.2201    248.9262   8.7503056676e+01  -1.2396287610e+00    0.9129681    0.2373416  31.38  0.003136435    3.683    0.728
        20  -9.4348     16.2827    175.7613   1.1366266438e+02   3.5355740372e+01    0.3246732   0.09699869 -71.40  0.001216495    2.766    0.638
        21  -7.8997    101.2788    176.2388   9.0589411336e+01   2.4281495748e+01    0.1415263    0.1175053 -13.77            0    1.444    0.307
        22  -9.5407     20.2076    172.4129   1.1230466147e+02   3.5857337913e+01    0.1906361    0.1107462  42.59 0.0009586199    1.750    0.428
        23 -10.7748      7.0187    166.5976   1.1525569713e+02   3.8428664977e+01     0.342235    0.2608612 -83.72  0.002062021    1.096    0.088
        24 -10.5763      5.4431    158.7556   1.1496310239e+02   4.0532298284e+01    0.3940891    0.2628359 -64.53  0.001978335    1.302    0.232
        25  -8.6106     19.2721    149.9406   1.1009050331e+02   4.1730278324e+01    0.1874828    0.1461956 -68.61 0.0002604983    1.105    0.095
        26  -9.3413    236.5991    147.2054   5.4724917078e+01   6.1416646431e+00    0.1957127    0.1077925 -33.48 0.0008017673    1.666    0.400
        27  -9.5534      1.9526    144.7957   1.1459296122e+02   4.4317216207e+01    0.3303152    0.2147377 -89.99  0.001814683    1.410    0.291
        28  -9.7450     35.8512    144.0002   1.0426076910e+02   4.1747847690e+01    0.2241073    0.2052235  30.71 0.0006701743    1.222    0.182
        29  -9.5404     29.6140    143.3379   1.0609670936e+02   4.2533616235e+01    0.3706292   0.09507812 -62.48  0.001254317    2.943    0.660
        30  -8.8098     37.3300    140.3065   1.0322698437e+02   4.2564176009e+01    0.1489099   0.09821206 -37.28 0.0007038404    1.659    0.397
        31  -8.1154     48.9719    139.0713   9.9319858087e+01   4.1593710795e+01     0.176214    0.1548133 -64.55 0.0003177169    1.038    0.037
        32  -8.8483     15.6628    136.6619   1.0952397692e+02   4.5454667644e+01    0.2864746    0.1819948  87.27  0.001442735    1.652    0.395
        33  -8.8636     24.7926    134.3153   1.0630642358e+02   4.5320478819e+01    0.2168698    0.1670296 -79.69 0.0004822662    1.218    0.179
        34  -9.4077     30.7101    133.0629   1.0420347129e+02   4.5110398564e+01     0.274916    0.2129731 -74.85 0.0003055341    1.198    0.165
        35 -10.1086      8.7493    131.5805   1.1104806868e+02   4.7250370924e+01    0.3127512    0.2196665 -66.44 0.0003746045    1.178    0.151
        36  -8.4713     61.8346    132.8271   9.3993504641e+01   4.1582319727e+01    0.1990807    0.1711075  73.14  0.000241129    1.300    0.231
        37  -8.8130     43.3253    132.0964   9.9913212683e+01   4.4066369045e+01    0.2022779    0.1717527 -67.17 0.0004135576    1.085    0.078
        38  -9.3870     73.7217    130.2664   8.9608299956e+01   4.0522262593e+01    0.2408401    0.2195228  85.01 0.0003590972    1.192    0.161
        39  -9.3028     83.3561    129.5330   8.6372630521e+01   3.9177169374e+01    0.2670994    0.2318188 -60.38 0.0004430495    1.134    0.118
        40  -9.3362     24.2166    128.7923   1.0566150037e+02   4.6798969760e+01    0.3108921    0.2951548 -54.17  0.001734458    1.104    0.094
        41  -9.8908      3.7005    124.8507   1.1182227242e+02   4.9274824769e+01    0.3061013    0.2167651 -79.52 0.0009046806    1.254    0.202
        42 -10.6530     41.0461    110.0499   9.6396913135e+01   4.9948731033e+01    0.5598315    0.3008793 -30.04  0.001601456    2.276    0.561
        43 -11.0573     43.3454    122.7861   9.8175386299e+01   4.6471898523e+01    0.3770529    0.2477077 -69.24  0.000205998    1.491    0.329
        44 -10.2220     45.4554    116.6421   9.6211936438e+01   4.7798982340e+01    0.4000041    0.2909236  44.63 0.0005458526    1.557    0.358
        45  -9.0911     10.3528    124.9725   1.0966982419e+02   4.8828452953e+01    0.2009321    0.1454774 -65.90  0.001139105    1.148    0.129
        46  -9.4890     10.5748    120.2383   1.0893611922e+02   5.0014635051e+01    0.3476492    0.1508165 -50.45   0.00135853    1.956    0.489
        47  -8.1424     88.0029    124.2564   8.3672279250e+01   3.9714613557e+01    0.2000105    0.1348708  34.64 0.0008820925    1.539    0.350
        48  -9.6248     76.9669    121.1467   8.6480460913e+01   4.2321250228e+01     0.409132    0.3207485  80.42  0.001084085    1.651    0.394
        49  -9.4376     35.7417    120.4200   1.0034327562e+02   4.7884099895e+01    0.4996546    0.2444787 -38.51  0.002071164    2.229    0.551
        50  -8.8907     89.6241    120.3215   8.2203346041e+01   4.0401803337e+01    0.1626959    0.1220408  74.13 0.0007028211    1.817    0.450
        51  -8.9920     70.8389    120.0763   8.8256376435e+01   4.3542143471e+01    0.2599733     0.205956  48.37  0.001231331    1.392    0.281
        52  -8.1227     63.2876    120.6607   9.0927623553e+01   4.4498721347e+01    0.1493303    0.1160561  78.45 0.0007019773    1.638    0.390
        53 -11.0837      4.2893    114.3709   1.1024435568e+02   5.1873099320e+01    0.6658989    0.3280008 -61.69  0.002407008    1.591    0.371
        54  -8.4721     81.0423    115.5320   8.3780114992e+01   4.3042277984e+01    0.2289193    0.1508736  35.63  0.001022142    1.572    0.364
        55 -11.4400     56.1251    108.5704   9.0631033271e+01   4.8491828645e+01    0.7791326    0.4925838 -40.14    0.0022521    1.540    0.351
        56  -9.9548     12.8468    113.2039   1.0709872580e+02   5.1634564795e+01    0.4613438    0.2012828 -52.32  0.002094405    1.862    0.463
        57  -8.4563     89.8178    113.4036   8.0395965412e+01   4.2040654821e+01     0.217557    0.1478937  20.34 0.0007853766    1.751    0.429
        58  -9.2079     47.3111    111.1435   9.4376732170e+01   4.8963069501e+01    0.2588927    0.2162586 -26.37 0.0004879174    1.210    0.173
        59  -8.5835     82.1180    110.9153   8.2256147370e+01   4.3977596297e+01    0.2366833    0.1773036 -17.82 0.0004972015    1.591    0.371
        60  -9.2009     26.9854    111.3082   1.0173487135e+02   5.1015360727e+01    0.3444362    0.1434574  31.85  0.001445165    2.572    0.611
        61  -9.2788     90.2247    107.6751   7.8760929122e+01   4.3320433583e+01    0.3818008    0.2332004  19.50  0.000865705    2.170    0.539
        62  -9.5076     77.3732    107.5479   8.2969423536e+01   4.5575121002e+01    0.3225237     0.241024 -31.07  0.001549808    1.397    0.284
        63 -11.3520     65.0122    103.2951   8.6153400459e+01   4.8520832658e+01    0.6556736    0.4765814  16.28  0.002169819    1.528    0.345
        64  -8.1562    161.3955    105.1989   5.8973950850e+01   2.8929186042e+01    0.2071948    0.1368096 -53.17  0.000254995    1.546    0.353
        65 -10.3207    113.7703    104.9188   7.0830975903e+01   3.9362022242e+01    0.4135474    0.2175312  30.65  0.001513378    2.401    0.584
        66 -10.9557    112.1362    100.3565   7.0035400192e+01   4.0696564642e+01    0.5751535    0.3541389 -22.26  0.002210208    2.378    0.580
        67  -8.3832     35.7385    105.3876   9.7346156829e+01   5.1662148381e+01    0.1883427    0.1309521  -0.44 0.0009471345    1.684    0.406
        68  -9.4734     13.5119    105.0581   1.0551585141e+02   5.3614411138e+01    0.3029151    0.1811953   6.87  0.001290047    1.987    0.497
        69  -9.2307    144.9967    103.1427   6.2153012414e+01   3.2993638920e+01    0.2562432    0.2171727 -44.45 0.0003041739    1.161    0.139
        70  -9.1255     98.5819     82.3263   6.8800324220e+01   4.7221616513e+01    0.3502813    0.2087008 -39.85  0.001325277    1.700    0.412
        71 -10.3448     97.5246     98.2682   7.3845003693e+01   4.4085467982e+01    0.3510453    0.3223651 -21.06  0.001012857    1.086    0.080
        72  -9.2958     93.9894     94.4964   7.3881442523e+01   4.5590413983e+01    0.3349741    0.2160243  82.23  0.001117785    3.727    0.732
        73 -10.3563     97.6625     91.1077   7.1729988876e+01   4.5603107323e+01    0.5732668    0.4080426  44.83  0.002724651    1.430    0.301
        74  -7.9756     97.3250     86.2903   7.0398953449e+01   4.6672384134e+01    0.1507522    0.1474876   9.85 0.0003284075    1.038    0.036
        75 -10.7093     80.1688    100.1401   8.0037136744e+01   4.6837984862e+01     0.393503    0.2888653  18.59 0.0003375459    1.521    0.343
        76 -10.2853     74.7654     99.1831   8.1628590597e+01   4.7963414760e+01    0.6573087    0.4283173 -45.16  0.003055582    1.462    0.316
        77 -10.6513     72.5514     88.9612   7.9513273029e+01   5.0625187103e+01    0.5613735    0.4532408  62.20  0.002864707    1.595    0.373
        78  -9.5936     40.2300     80.9717   8.9622828856e+01   5.6918632035e+01    0.3320837    0.2433504 -55.64 0.0003655052    1.358    0.264
        79 -10.6161     52.7520     90.4201   8.7265033395e+01   5.3245769305e+01    0.5194105    0.2309303 -53.48  0.002106057    2.111    0.526
        80 -10.4409     72.2114     75.9104   7.5646515249e+01   5.3426971099e+01    0.3407812    0.3013897  16.10 0.0009347079    1.094    0.086
        81 -11.0814     48.4950     87.9118   8.8228096436e+01   5.4367492141e+01    0.7468836    0.3637831 -46.51  0.001850247    1.843    0.457
        82 -10.1131     44.7101     85.7738   8.9136721601e+01   5.5318239552e+01    0.5246041    0.2817444  19.43   0.00149987    2.091    0.522
        83 -11.5698     63.2728     82.5074   8.0998960000e+01   5.3498332428e+01    0.9787874     0.680075   9.44   0.00477704    1.664    0.399
        84 -11.8464     53.5076     77.7686   8.3338006330e+01   5.5934278357e+01     1.372368     1.089274 -80.85  0.007168233    1.837    0.456
        85 -11.4910     45.8689     96.3251   9.1434222194e+01   5.2738170234e+01    0.9989108    0.6634926 -87.63  0.004410908    2.402    0.584
        86  -8.0916     29.6796    103.6645   9.9241714680e+01   5.2671261162e+01    0.1507775   0.08889049 -35.52 0.0003812928    1.705    0.413
        87 -11.4702    119.4002     99.4269   6.7718324632e+01   3.9369224194e+01    0.5506538    0.3990196 -51.93  0.001958827    1.428    0.300
        88 -10.0781     41.1354     98.0795   9.3665556237e+01   5.2865705755e+01    0.4212647    0.1875783 -57.89 0.0003952445    2.041    0.510
        89  -8.5744     14.7916     99.9916   1.0413361257e+02   5.4767902513e+01    0.2044643    0.1474158 -46.78 0.0003644257    1.185    0.156
        90  -9.1259     11.0556     97.2193   1.0504732839e+02   5.5687815422e+01    0.3237185    0.1775105  14.78  0.001350337    2.094    0.522
        91  -9.1071      4.6676     98.1404   1.0763463267e+02   5.5841649628e+01    0.3653837    0.1147759 -51.92   0.00123294    2.323    0.570
        92  -9.4981     61.4810     97.3510   8.5867458418e+01   5.0437502628e+01    0.2977608     0.222304 -38.50 0.0001229481    1.265    0.209
        93  -9.1473     34.0051     99.0290   9.6607206346e+01   5.3387297277e+01    0.2053221     0.182628 -47.54  0.000329505    1.039    0.038
        94  -9.4260      4.4883    104.5175   1.0872508644e+02   5.4299541997e+01    0.2058728    0.1152281 -12.34 0.0005332971    2.187    0.543
        95 -10.3324    105.4797     97.4653   7.1177949903e+01   4.2684359786e+01    0.4062365     0.266347 -24.10  0.001659358    1.950    0.487
        96 -11.2433    113.4977     86.5753   6.5667616312e+01   4.3273263788e+01    0.6888814    0.3608898  61.14  0.002473262    2.776    0.640
        97 -11.4669    111.6947     93.7534   6.8283447869e+01   4.2191987258e+01    0.7472479    0.3472353  39.96  0.002089466    2.227    0.551
        98 -10.3261    108.0835     89.7074   6.8154647229e+01   4.3783012453e+01    0.4656668    0.3221249  36.39 0.0009682057    1.479    0.324
        99 -10.3106    106.9102     85.9770   6.7391178492e+01   4.4784069408e+01    0.4286675    0.2918228  34.47 0.0003344679    1.531    0.347
       100  -9.6082     22.1297     96.8658   1.0071233672e+02   5.4976596170e+01    0.2879943    0.1929854  29.24  0.001552631    1.685    0.406
       101  -9.6620     85.2740     94.1121   7.6617462553e+01   4.7295485863e+01    0.3488863    0.1930757  28.94  0.001276771    2.037    0.509
       102  -8.7003     31.6328     94.0489   9.6392890143e+01   5.4812226321e+01    0.2814465    0.1468329  42.93 0.0007920775    2.397    0.583
       103  -9.8233    127.9219     95.6855   6.4374367153e+01   3.8303813805e+01    0.2182501     0.192578  50.90 0.0005914364    1.139    0.122
       104  -9.5235    134.9047     93.5082   6.1984245479e+01   3.7195263438e+01    0.2243994    0.1487163  46.83 0.0005461058    1.510    0.338
       105  -8.0035    178.6818     92.3152   5.2267817205e+01   2.7549606698e+01    0.1508596    0.1087352 -74.45 0.0007038495    1.652    0.395
       106  -8.7708     21.7806     89.5956   9.9296348208e+01   5.6735911766e+01    0.3701724     0.142569 -55.14 0.0009567294    2.060    0.515
       107  -9.0277     15.0963     85.8976   1.0120048959e+02   5.8104891174e+01    0.3694949    0.3162366 -82.41  0.002301591    1.348    0.258
       108  -8.7295      7.1349     87.7236   1.0480699578e+02   5.8185729028e+01    0.1696148    0.1426648 -26.91 0.0005254975    1.173    0.147
       109  -8.6732    173.9509     87.0586   5.1820696632e+01   2.9559233791e+01    0.2076801    0.2013408 -72.95 0.0002967652    1.067    0.063
       110 -10.4323    121.7687     86.6953   6.3427771497e+01   4.1455937178e+01    0.3452416    0.3092128  56.85  0.001830742    1.133    0.118
       111  -8.4851    177.4541     85.4843   5.0783333361e+01   2.9051358001e+01    0.1443018    0.1327633 -69.22 0.0001352907    1.010    0.010
       112 -10.2288    166.3462     84.9561   5.2723650001e+01   3.1660997496e+01    0.3523135    0.2073118  57.70  0.001575112    1.735    0.423
       113  -9.2168    197.7664    245.4091   8.0117565267e+01  -5.2585880452e+00    0.1809632    0.1027353  18.64 0.0009554749    1.695    0.410
       114 -10.6398     82.0558     77.9143   7.2810761599e+01   5.1286276470e+01      1.16423    0.4877365 -40.83  0.004431447    2.413    0.586
       115 -12.0756     95.5119     70.4996   6.6017957019e+01   5.0101682394e+01     1.140946     1.080128 -68.33   0.00374303    1.216    0.178
       116 -10.7814     62.7017     64.0920   7.5307652636e+01   5.7299606834e+01    0.9377538    0.5920158   2.15  0.004251421    2.160    0.537
       117 -10.5260    177.1979    234.5145   8.2539635653e+01  -6.1176128690e-01    0.2731468     0.185156 -46.79 0.0008964703    1.657    0.396
       118 -11.8445    180.2163    242.1164   8.3131243447e+01  -2.3425725519e+00    0.6863132    0.3400516  20.89  0.003178159    2.160    0.537
       119 -11.2472     87.7016     47.3553   6.0531517859e+01   5.5527572955e+01    0.9304254    0.5338343 -49.91  0.004226437    2.288    0.563
       120  -9.3674    132.9805    243.8243   9.3492257112e+01   4.2130959890e+00    0.2235479    0.1456096   5.55  0.001091157    2.017    0.504
       121  -9.6309    245.0468    241.5287   7.0727617448e+01  -1.0398920349e+01    0.1838626    0.1255481 -23.93 0.0006840703    1.211    0.174
       122 -11.6693     59.8914     52.6566   7.2347387575e+01   5.9805382884e+01     1.226379    0.5929927 -21.96  0.004618623    3.281    0.695
       123  -8.7367    221.1562    239.1664   7.4613573042e+01  -7.2776276771e+00    0.1532948    0.1392673  -5.74  0.001077362    1.347    0.258
       124 -10.1255      9.1205     43.9525   9.2724202512e+01   6.7419379210e+01    0.6023596    0.2561095 -57.69   0.00287862    2.458    0.593
       125  -9.2792     13.8403     38.9198   8.8487554082e+01   6.7970419303e+01    0.2316548    0.1516297  14.67 0.0005952051    1.492    0.330
       126 -10.0060     28.2800     83.1700   9.5127217377e+01   5.7661124953e+01    0.4811453    0.3256954  72.63  0.001527704    2.505    0.601
       127  -9.8719     25.1641     77.4478   9.4978133380e+01   5.9232623955e+01    0.5369383    0.2847643 -17.46  0.002022996    2.342    0.573
       128 -11.2119     29.6427     61.3569   8.8380413002e+01   6.2219914301e+01    0.6967905    0.3588734 -36.65  0.001566302    1.770    0.435
       129 -10.5843     15.1861     47.7515   9.0879908444e+01   6.6227132483e+01    0.7527347    0.3356641 -58.41  0.003517546    2.532    0.605
       130 -11.5231     34.4869     71.4022   8.9299513482e+01   5.9632507655e+01    0.6888486    0.5425311  19.39  0.001380532    1.324    0.245
       131 -10.1865     24.2425     68.6310   9.2993065036e+01   6.1234920798e+01    0.4326051    0.2497468  31.17  0.001798273    1.924    0.480
       132 -11.2431     39.8866     61.6108   8.3888854707e+01   6.1013838242e+01    0.5712167    0.3915415   6.90  0.001534664    1.510    0.338
       133 -10.9293     42.6681     54.2682   8.0141668518e+01   6.2056151427e+01    0.6639882    0.4084239  -7.04  0.002515189    1.968    0.492
       134 -11.3726    176.1265    239.1169   8.3503052034e+01  -1.2557333517e+00    0.3527577    0.2277486  37.67   0.00193161    1.540    0.350
       135 -10.2121     10.7986     32.1989   8.7591287377e+01   6.9403517270e+01    0.3883011    0.2641604 -52.21   0.00107951    1.684    0.406
       136 -10.7378      2.2648     30.0354   9.1566654517e+01   7.0426293547e+01    0.4063601    0.2411163 -45.10 0.0005538876    1.469    0.319
       137  -8.7607     88.3777     84.0559   7.2596242996e+01   4.8865096340e+01    0.2469743    0.1883177  25.63 0.0005647051    1.361    0.265
       138 -11.0372    128.2724     80.1757   5.9828953898e+01   4.1249555688e+01    0.5457067    0.3539331  60.08  0.002456649    1.667    0.400
       139 -11.1299    126.1208     74.6724   5.8738751173e+01   4.2735539028e+01     0.772683    0.3763146  42.92  0.001729339    2.115    0.527
       140 -12.1643    147.3484     66.9011   5.1622616245e+01   3.9160288987e+01     0.906692    0.6870851  71.03  0.004513791    1.358    0.264
       141 -11.4021    136.8053     77.4638   5.6968238443e+01   3.9800949782e+01    0.7978969    0.5485097 -71.54  0.002914204    1.995    0.499
       142 -11.7450    141.0140     72.8298   5.4672737677e+01   3.9643003052e+01    0.5742037    0.4709464  73.88 0.0008359908    1.280    0.219
       143 -10.0988    135.8166     72.3934   5.5726022208e+01   4.0919758507e+01    0.3491588    0.2404736  49.75 0.0006843479    1.410    0.291
       144 -11.7765    171.1377     76.9535   4.9749237586e+01   3.1963482536e+01    0.7501801    0.4689136  66.70   0.00228913    1.700    0.412
       145  -9.4602    160.9996     74.2600   5.0930755171e+01   3.4756273382e+01    0.3034613    0.1797144  62.11 0.0008731113    1.725    0.420
       146  -9.3193      8.2463     75.9156   1.0189110785e+02   6.0834421291e+01    0.3394066    0.1761587  31.83  0.001727244    2.271    0.560
       147  -8.3843      1.9242     80.5360   1.0554551513e+02   6.0132017283e+01     0.163583    0.1200145  -0.67 0.0005839077    1.502    0.334
       148  -9.1368      8.8371     79.7331   1.0247626987e+02   5.9934510079e+01    0.2990995    0.1729855 -23.85   0.00109362    1.771    0.435
       149  -9.6286     15.2942     74.9287   9.8601252533e+01   6.0588478694e+01    0.2799396    0.2606831   3.90  0.001228647    1.227    0.185
       150 -10.3777    182.2457     72.2785   4.6661095129e+01   3.0215372967e+01    0.3273573    0.2182869 -41.69  0.001658654    1.456    0.313
       151 -10.4974    193.3798     72.4944   4.4978226250e+01   2.7698445669e+01    0.2808826    0.2145264 -79.76 0.0008494716    1.344    0.256
       152 -10.1530    187.2033     72.2298   4.5859334802e+01   2.9110380247e+01    0.2391427    0.2036809 -58.42 0.0002983777    1.085    0.079
       153  -9.3957    177.9510     68.1256   4.6320366213e+01   3.1859355052e+01    0.2142124    0.1935326 -80.25 0.0005363036    1.016    0.015
       154 -10.2122    173.6931     71.5290   4.7902056007e+01   3.2283041209e+01    0.5246599    0.2820315 -63.66  0.002094916    2.541    0.607
       155 -10.3585    167.9048     67.3306   4.7820653166e+01   3.4296448104e+01     0.381011     0.290907 -45.51  0.001720183    1.294    0.227
       156 -10.2668    173.4511     66.0967   4.6548138497e+01   3.3212326481e+01    0.4333668    0.2401144  74.37  0.001875084    2.153    0.536
       157  -8.9279      7.6556     71.0753   1.0104066364e+02   6.1946883082e+01     0.222032    0.1874809 -48.13  0.001459634    1.099    0.090
       158 -10.7405     11.7540     67.6075   9.8346543664e+01   6.2440932203e+01        0.456    0.2479613  32.88 0.0004359143    2.181    0.541
       159  -9.3439     18.3227     66.0330   9.4935635004e+01   6.2291045122e+01    0.3353592    0.2004999 -43.06 0.0008262336    1.387    0.279
       160 -10.0245    199.6972     70.1462   4.3506905976e+01   2.6693394748e+01     0.230181    0.1484954 -58.51  0.001179369    1.500    0.333
       161  -8.4755     44.7167     68.7256   8.4122483745e+01   5.8986958816e+01    0.2403826    0.1572333  -4.90  0.001191313    1.775    0.437
       162  -9.5764    131.8351     65.2460   5.4533003762e+01   4.3041179321e+01    0.3005481    0.2446608 -21.85  0.001162946    1.398    0.285
       163 -11.1675    136.8338     41.9630   4.6461820617e+01   4.5300123653e+01    0.7729045    0.4855871  67.32  0.003733509    1.539    0.350
       164 -12.1854    139.4235     56.2060   5.0175558682e+01   4.2691686569e+01     1.245788    0.8283065  65.66  0.001324995    1.500    0.333
       165 -10.5313    128.0688     37.5534   4.6863618571e+01   4.7917328579e+01    0.5917889    0.3202726  61.20    0.0014281    1.689    0.408
       166 -11.0864    125.1241     42.3568   4.8993407887e+01   4.7985742646e+01    0.8805479    0.7396202 -61.74  0.005104478    1.327    0.246
       167 -10.8575    127.9298     59.0332   5.3556000014e+01   4.4935889089e+01    0.6795957    0.4451749  69.03  0.002838408    1.719    0.418
       168 -11.5557    131.0182     52.7770   5.0942469581e+01   4.5164799472e+01      0.89342    0.6961774  51.92   0.00480453    1.204    0.169
       169 -10.8733     96.9803     59.9494   6.2073518061e+01   5.1638026955e+01    0.4410853    0.2991486 -57.79  0.002083712    1.971    0.493
       170 -11.3284    119.0786     60.9912   5.6310506570e+01   4.6648888354e+01    0.8242673    0.6431984 -39.41  0.002240431    1.348    0.258
       171 -12.0065    205.3134     57.8332   3.9931939967e+01   2.7355001058e+01    0.6954637    0.3143343  82.75  0.002617938    3.525    0.716
       172 -10.1314    213.5126     56.5048   3.8648634194e+01   2.5809050055e+01    0.1908087    0.1152635  83.68 0.0009899021    1.794    0.443
       173  -9.4367    177.5077     60.4942   4.4461666634e+01   3.3147256980e+01    0.2287877    0.1288768  62.18 0.0006510197    1.732    0.423
       174 -10.6759    174.6907     56.3298   4.3843162539e+01   3.4416951354e+01    0.4821122    0.3072527 -26.84  0.002147249    1.915    0.478
       175 -11.8246    179.6482     50.0275   4.1508428220e+01   3.4183137409e+01    0.9438514    0.4150068 -39.26  0.004174781    2.206    0.547
       176 -11.6165    186.5315     46.8669   3.9781081477e+01   3.3055639228e+01     0.554691    0.3266098 -24.67  0.002679425    2.253    0.556
       177 -10.6927    197.1155     58.7971   4.1211193562e+01   2.8994151832e+01    0.3006104    0.1957527  35.49   0.00144427    2.412    0.585
       178 -10.9182    190.7365    233.3879   7.9563641233e+01  -2.3467318661e+00    0.4082847    0.2572583  29.07   0.00225029    1.478    0.324
       179 -11.7549    162.4577     56.4594   4.5882501927e+01   3.7241699898e+01    0.6894718     0.613606 -46.95  0.004082013    1.167    0.143
       180  -8.5906    238.0000    220.0258   6.8293819214e+01  -6.4211335331e+00    0.1990976   0.05949807 -40.25 0.0008047422    2.958    0.662
       181  -9.7934      3.5332     56.5067   9.9302581355e+01   6.5295943796e+01     0.451091     0.248772   3.41  0.002507746    1.924    0.480
       182  -9.4498      1.4636     52.4218   9.9212134147e+01   6.6246066248e+01    0.2009868    0.1037036 -58.70 5.503906e-05    1.744    0.426
       183  -9.6018      4.5265     51.5280   9.7426682065e+01   6.6250436121e+01    0.2472119    0.1978135 -45.05 0.0008000828    1.156    0.135
       184  -9.3121     68.9358     55.7202   6.9997412442e+01   5.7755946337e+01    0.2209916    0.1872403 -30.87  0.001288923    1.204    0.169
       185 -10.4295     20.5579     56.7136   9.1145363000e+01   6.4020971351e+01    0.5013655     0.363775  53.93  0.002212199    2.175    0.540
       186 -11.8868    191.5297     50.7896   4.0062046050e+01   3.1388509742e+01    0.4159402    0.3243482 -61.39  0.002470896    1.171    0.146
       187 -10.1241    170.1273     48.4576   4.2520638206e+01   3.6598881173e+01    0.5280133     0.321285 -24.29  0.002541805    2.117    0.528
       188  -8.8177     23.3639     44.0648   8.5488880816e+01   6.6158395995e+01    0.2204923    0.1681415  19.08 0.0009844701    1.337    0.252
       189  -8.6051     30.0693     42.7466   8.1703409127e+01   6.5665971755e+01    0.1690987     0.133851   8.87 0.0003275638    1.164    0.141
       190  -9.2917    109.6171     39.5138   5.1655202027e+01   5.1902262681e+01    0.4798423     0.204151  48.55  0.002026324    2.094    0.522
       191  -9.8878    112.0169     34.2276   4.9294018617e+01   5.2023067485e+01     0.483199    0.3431771  35.16  0.002279663    1.454    0.312
       192 -11.1719     30.9300     37.5125   7.9235950593e+01   6.6448285403e+01    0.2947327    0.2150036   7.19 0.0007182482    1.233    0.189
       193  -8.8479     25.0806     38.4988   8.2525021572e+01   6.6953230762e+01    0.2318703    0.1736312 -16.81 0.0008648149    1.119    0.107
       194 -10.0540    132.7482     30.3159   4.3715274830e+01   4.7689627024e+01    0.2512411    0.2421816  -1.46 0.0009156547    1.197    0.165
       195 -10.4812    138.2664     35.1747   4.4162339793e+01   4.5819186806e+01    0.4176906    0.2720034  73.63  0.001986696    1.524    0.344
       196  -8.0624    173.3021     34.3342   3.8441385717e+01   3.7709675378e+01    0.1250416   0.09741018  37.11 0.0004809549    1.658    0.397
       197  -9.4202     97.5609     32.2756   5.2214170845e+01   5.5471542018e+01    0.2718646    0.2031442  25.18 0.0005055588    1.407    0.289
       198  -8.6684    120.1956     31.6498   4.6624053998e+01   5.0457511415e+01    0.2217503    0.1805584 -28.77 0.0008950068    1.380    0.275
       199  -9.4690    219.4155    218.2215   7.1340519988e+01  -3.7520298217e+00    0.1726477    0.1124316 -45.44  0.000950969    1.703    0.413
       200 -10.0413    125.3547     26.7217   4.4000706795e+01   4.9819326369e+01    0.2893525    0.2202064  41.20 0.0009591897    1.332    0.249
       201 -10.0494    212.6605    216.5409   7.2319854987e+01  -2.5532919766e+00    0.2309277    0.1807197 -14.08 0.0006624929    1.096    0.088
       202  -8.4439    219.6913    210.0335   6.9819610054e+01  -2.4241719605e+00    0.1846743    0.1436994 -25.44 0.0004728111    1.117    0.105
       203  -8.8997     37.3408     15.2223   6.6281015713e+01   6.8749574801e+01    0.2463717    0.1878433  39.86  0.001622137    1.465    0.318
       204  -9.4987    138.1721     28.1595   4.2093135521e+01   4.6661290953e+01    0.3296064    0.2230972 -11.14  0.001422421    2.009    0.502
       205  -7.6312     55.7438    216.6880   1.0793440022e+02   2.1019675691e+01     0.123457    0.0999914 -41.70 0.0006919828    1.526    0.345
       206  -8.2422     23.8730     26.4534   7.8153941924e+01   6.9023993897e+01    0.2728055    0.1053462  26.03  0.001264861    2.564    0.610
       207  -9.7748    133.9948     22.9597   4.1258355225e+01   4.8206127208e+01    0.2432387    0.1844718 -43.40 0.0009135569    1.450    0.310
       208  -8.8442    131.4437     20.5240   4.0959330051e+01   4.9054210310e+01     0.212032    0.1769445  88.19 8.349409e-05    1.186    0.157
       209  -8.5162     94.7354     24.3643   5.0072896262e+01   5.6987933828e+01    0.1705816    0.1040647  47.83 0.0001547107    1.407    0.289
       210  -9.5469     84.4764     22.2050   5.2050484855e+01   5.9400712969e+01    0.4486756    0.1954512  45.90  0.002081126    1.948    0.487
       211  -8.6428    229.6584    203.2901   6.6766761030e+01  -2.6518125580e+00    0.1104853    0.1034892 -73.97 0.0005903843    1.649    0.393
       212  -9.6384    103.1592     24.2694   4.7944814866e+01   5.5147721063e+01    0.3117978    0.1936817  23.34 0.0009869623    2.026    0.506
       213  -8.7532     31.7560     20.2345   7.1324549480e+01   6.8916219244e+01    0.2511268    0.1233912  36.45 0.0008952587    1.944    0.486
