#   1 NUMBER                 Running object number                                     
#   2 MAG_AUTO               Kron-like elliptical aperture magnitude                    [mag]
#   3 X_IMAGE                Object position along x                                    [pixel]
#   4 Y_IMAGE                Object position along y                                    [pixel]
#   5 X_WORLD                Barycenter position along world x axis                     [deg]
#   6 Y_WORLD                Barycenter position along world y axis                     [deg]
#   7 A_WORLD                Profile RMS along major axis (world units)                 [deg]
#   8 B_WORLD                Profile RMS along minor axis (world units)                 [deg]
#   9 THETA_WORLD            Position angle (CCW/world-x)                               [deg]
#  10 FWHM_WORLD             FWHM assuming a gaussian core                              [deg]
#  11 ELONGATION             A_IMAGE/B_IMAGE                                           
#  12 ELLIPTICITY            1 - B_IMAGE/A_IMAGE                                       
         1  -9.6344     57.2741      9.8826   9.0216331468e+01   6.4293621819e+01    0.2006917    0.1416006  40.80  0.001297602    1.440    0.306
         2  -8.9077     91.8003      9.6167   7.9679385805e+01   5.8199682941e+01    0.1716979    0.1081056  61.66  0.000948903    1.756    0.430
         3  -9.1255     28.8022      9.6322   1.0110914760e+02   6.8176691048e+01    0.1430143   0.09101478  34.26 0.0008707816    1.740    0.425
         4  -9.4626     35.1773      6.4529   9.7082783744e+01   6.7769153573e+01    0.2365413    0.1404753 -42.88  0.001398195    2.565    0.610
         5  -9.5086     71.5824      6.4772   8.4172202443e+01   6.2247147893e+01    0.2209742    0.1695478  63.43  0.001405503    1.810    0.447
         6  -9.2257     24.7730      5.1735   1.0090470613e+02   6.9145422260e+01    0.1382613    0.1262226  89.99 0.0009512084    2.826    0.646
         7  -8.8565    144.6941      4.3581   6.7106293567e+01   4.7117313847e+01    0.1267291   0.09010354 -71.16 0.0005379498    1.725    0.420
         8  -9.9013    160.8239      3.1582   6.4382463070e+01   4.3435937890e+01    0.1797031    0.1305792  47.56  0.001009214    1.344    0.256
         9  -9.3867    236.4887    229.4849   1.0365140261e+02  -9.3196413002e+00    0.1257483     0.104215   8.53 0.0003772297    1.019    0.019
        10  -9.2916    114.6753    228.5142   1.2787007744e+02   1.1792827654e+01    0.2141827    0.1218816 -59.20 0.0008193324    1.945    0.486
        11 -10.9337    164.0930    225.9403   1.1725043032e+02   3.5796928673e+00    0.5030776    0.3427188  37.56  0.002688977    1.305    0.233
        12 -10.6319     98.1085    226.9651   1.3106579945e+02   1.4816188792e+01    0.2991921    0.1658112  31.44  0.001421484    2.148    0.535
        13  -9.2664     88.2916    227.3290   1.3310110905e+02   1.6282497871e+01    0.1140012    0.1024055 -22.96 0.0002681594    1.624    0.384
        14  -9.2799    109.1874    222.6001   1.2821290743e+02   1.3883411657e+01    0.1856975    0.1199597  33.11 0.0009448183    1.675    0.403
        15  -8.9023    157.5210    221.5302   1.1789832752e+02   5.5705463011e+00    0.1380972    0.1223719  38.66 0.0002065894    1.018    0.018
        16 -10.6924    126.2119    220.7704   1.2437657057e+02   1.1334976400e+01    0.2813775    0.2022101  57.40 0.0007272161    1.325    0.246
        17  -9.4120     74.8281    220.0050   1.3498108784e+02   1.9800515680e+01    0.1965629    0.1130984  57.66 0.0004603983    1.614    0.380
        18  -9.2721    143.6658    216.5166   1.2001462970e+02   9.0467201572e+00     0.224793    0.1312244 -51.62  0.001029385    1.906    0.475
        19  -9.9092    131.1432    214.9433   1.2244723440e+02   1.1620522165e+01    0.2997114    0.2016051 -53.69  0.001060777    1.633    0.388
        20  -9.7285    112.2588    214.4052   1.2642281041e+02   1.5035062643e+01    0.2762906    0.2046247 -28.82  0.001421052    1.998    0.500
        21  -9.3281    202.3288    209.3094   1.0651984375e+02  -4.4999650329e-01     0.141844     0.100692   6.46 0.0007040357    1.663    0.398
        22  -9.3599    164.5044    198.9672   1.1249349590e+02   8.5679570351e+00    0.2001627    0.1238754 -21.63 0.0008096728    2.532    0.605
        23 -10.1759    126.5270    197.5972   1.2067252677e+02   1.6044069710e+01    0.3100138    0.2806247 -22.34  0.001664855    1.334    0.250
        24  -9.4028     88.8994    199.3304   1.2938155138e+02   2.2103424660e+01    0.2291467    0.1486649  62.13   0.00116071    1.566    0.362
        25  -8.9282    113.0116    198.0116   1.2378531942e+02   1.8375707934e+01    0.2924934    0.1551582  73.74 0.0009491728    4.052    0.753
        26 -10.8766    173.0113    195.7705   1.1005794593e+02   7.5443117456e+00    0.3569782     0.315299 -30.54 0.0008759839    1.203    0.169
        27  -9.3133    173.7266    191.6810   1.0912101242e+02   8.2030982953e+00    0.2242319    0.1393218  42.08 0.0004968629    1.516    0.340
        28  -9.2480     67.8002    195.6300   1.3354914571e+02   2.6068617479e+01      0.19304    0.1041737  50.19 0.0007013813    1.776    0.437
        29  -9.2866    139.7563    190.1939   1.1638605455e+02   1.5142771058e+01    0.2441426     0.153784  77.22  0.000942837    2.709    0.631
        30  -9.4221     87.9911    190.1525   1.2826693982e+02   2.4291558208e+01     0.241051    0.1379673  62.63  0.001081111    2.017    0.504
        31  -9.2997    156.4914    188.0465   1.1221089103e+02   1.2334762102e+01    0.2150622    0.1472697 -50.10 0.0008385825    1.556    0.357
        32  -9.3839    120.7551    187.3542   1.2024638653e+02   1.9321926987e+01    0.2633071    0.1737974 -68.67 0.0006992582    1.733    0.423
        33 -10.1840     95.1190    187.4334   1.2621291284e+02   2.3759001442e+01    0.2859512    0.1790698 -82.28  0.001273442    1.963    0.490
        34  -9.6174     55.4355    187.6172   1.3528077511e+02   2.9530352707e+01     0.329107    0.1387862  69.10  0.001014354    5.161    0.806
        35  -9.2833     35.0054    188.1871   1.3979434401e+02   3.1842639729e+01    0.2138465    0.1101105  62.31  0.001077828    2.060    0.515
        36  -9.3889    110.0788    186.6995   1.2261636335e+02   2.1382029711e+01    0.3386417    0.1922648  70.83  0.001292332    2.794    0.642
        37 -10.4635    210.7163    183.6753   9.9841150741e+01   2.5130144867e+00     0.501856    0.3026914   8.26  0.001962346    2.847    0.649
        38  -8.8983     66.6626    185.3302   1.3245959603e+02   2.8549334718e+01    0.1430101   0.09091351  72.17 0.0007052008    1.735    0.423
        39  -9.3067     75.0172    184.5238   1.3043185139e+02   2.7542549339e+01    0.2043795   0.09426919  57.28 0.0008101764    2.624    0.619
        40  -8.8581    174.3416    183.6664   1.0741275996e+02   9.6688566615e+00    0.1505764    0.1179629  81.22  0.000448224    1.755    0.430
        41  -9.5270    197.4969    182.0033   1.0216931509e+02   5.3806947749e+00    0.2173807    0.1411837 -39.00 0.0006643152    1.569    0.363
        42  -9.1500     45.0717    183.0000   1.3702784007e+02   3.1854407000e+01    0.1859963   0.07039427  33.62 0.0007936969    2.882    0.653
        43  -9.5965    148.7320    181.6162   1.1272985360e+02   1.5218968398e+01     0.220186    0.1324054  51.38 0.0009308558    1.692    0.409
        44 -10.2769     13.8122    178.9261   1.4336740685e+02   3.6017609514e+01    0.3451405    0.1768059 -71.23  0.001630799    1.580    0.367
        45  -9.5198     61.2471    177.8631   1.3269373531e+02   3.0995707467e+01     0.380013     0.150351  55.43  0.001417662    3.291    0.696
        46 -10.1110    204.8117    176.1554   9.9472336257e+01   5.0391328865e+00    0.3333469    0.1927073 -32.80  0.001449475    1.832    0.454
        47 -10.3087     77.6687    176.3244   1.2860057389e+02   2.9036743485e+01    0.4343808    0.1803968  55.20  0.001587419    3.131    0.681
        48  -9.3664    106.4716    175.9574   1.2162894045e+02   2.4445220535e+01    0.3269577    0.1572318  54.63  0.001251684    2.446    0.591
        49  -9.3153     24.7614    175.6127   1.4068956299e+02   3.5721513826e+01    0.1642397   0.09770767  49.84  0.000779611    1.713    0.416
        50  -9.1338      3.7521    174.9874   1.4511794369e+02   3.7739592564e+01    0.2109435   0.07661166  61.51  0.000884186    3.589    0.721
        51  -8.9199     35.6558    174.3423   1.3812440290e+02   3.4884296029e+01    0.1351906   0.08126079  71.99 0.0007047075    1.786    0.440
        52  -8.9191     45.3309    172.6622   1.3570613436e+02   3.4181014636e+01    0.1370981   0.08599863  73.13  0.000705199    1.737    0.424
        53  -9.5832    122.4394    170.4431   1.1676059262e+02   2.2793368355e+01    0.3418398     0.217763  75.24  0.001349206    2.405    0.584
        54  -9.2246    207.1136    170.5211   9.7827610446e+01   5.6395124197e+00    0.2192359    0.1406145  43.91  0.001022718    1.566    0.361
        55  -9.7033     56.1062    170.3974   1.3287339338e+02   3.3390069297e+01    0.2636258    0.1439686  51.56  0.001286561    1.921    0.479
        56  -9.6707    100.5139    167.0848   1.2149926136e+02   2.7523711203e+01    0.4591659    0.1510478  51.26   0.00134406    4.193    0.762
        57  -9.6323    139.7716    165.6484   1.1163973370e+02   2.0485713858e+01     0.396881    0.2458058  73.58  0.001460683    2.771    0.639
        58  -9.9469     80.5097    164.5849   1.2602904044e+02   3.1346091881e+01    0.5286905     0.273887  72.53  0.001758635    3.994    0.750
        59  -9.5517    160.0079    165.1787   1.0680556843e+02   1.6433234407e+01    0.2586418    0.1785864  71.63  0.001083958    2.038    0.509
        60  -9.2913     70.2266    163.8026   1.2845583783e+02   3.3036492785e+01     0.233553    0.1304096  72.55 0.0009397815    2.713    0.631
        61  -9.7346      9.2588    160.9485   1.4261524005e+02   4.0388733293e+01    0.3980575     0.167996  77.33  0.001623359    3.595    0.722
        62  -9.6652     38.0348    165.0181   1.3644269037e+02   3.6759272194e+01    0.2106705    0.1327214  71.59  0.001064849    1.738    0.425
        63  -9.9354     94.0747    161.1500   1.2202680330e+02   2.9994590574e+01    0.4095039    0.1820637  48.64  0.001586305    2.415    0.586
        64  -9.1264     23.9675    160.4675   1.3919252812e+02   3.9218209871e+01    0.1730071   0.07952669  55.31 0.0008096051    2.548    0.607
        65  -9.8599    106.8959    158.9545   1.1837735413e+02   2.8295232538e+01    0.4470367    0.2215569  54.40  0.001701429    2.436    0.590
        66  -8.9942    167.9947    157.8327   1.0340024238e+02   1.6306331682e+01    0.2577885    0.1809014  74.35  0.001076536    2.058    0.514
        67  -9.7022    120.4750    156.5109   1.1447461285e+02   2.6345089958e+01    0.3466637    0.2267322  78.34  0.001376707    2.400    0.583
        68 -10.3563     50.7147    155.9801   1.3211277543e+02   3.7414084851e+01     0.472471    0.2154982  57.27  0.001913696    3.008    0.668
        69  -9.9035    212.9527    155.7220   9.3491512880e+01   7.2492208985e+00    0.2049921     0.184705  41.98 0.0004545423    1.145    0.127
        70 -10.1248     83.0134    155.6536   1.2384272224e+02   3.3061228501e+01    0.4538098    0.2182249  57.01  0.001706788    2.868    0.651
        71  -9.0126    145.3294    155.6505   1.0819693688e+02   2.1563782867e+01    0.1612495    0.1222154  85.20 0.0007048642    1.765    0.433
        72 -10.2650     69.1172    154.6068   1.2722684544e+02   3.5353977855e+01    0.4626268     0.202237  52.69  0.001786218    2.897    0.655
        73  -9.8591    134.0982    153.7423   1.1051001642e+02   2.4292573199e+01    0.3967794     0.252147  73.05  0.001510424    2.521    0.603
        74  -9.4589     99.3830    151.7148   1.1887372196e+02   3.1304437741e+01    0.2799207    0.1704212  51.51  0.001105072    1.759    0.431
        75  -9.2480     92.3746    152.5984   1.2085988259e+02   3.2281531687e+01    0.2933477    0.1075713  49.94 0.0009541544    3.399    0.706
        76  -9.8483     29.2949    150.6119   1.3668907033e+02   4.0965816010e+01    0.2928221     0.162924  80.86   0.00141928    2.263    0.558
        77  -9.0538    143.6497    150.3191   1.0742986639e+02   2.3093296086e+01    0.1613097    0.1224905  82.05  0.000704802    1.739    0.425
        78 -10.5368     40.8217    148.5859   1.3351620338e+02   4.0260722634e+01    0.4992101    0.2224959  55.19  0.002086818    3.031    0.670
        79  -9.0178    199.7012    148.3537   9.4478319937e+01   1.1431513902e+01     0.152061    0.1194654 -77.32 0.0007036301    1.697    0.411
        80 -10.6125    108.6573    146.3499   1.1537001245e+02   3.0904121682e+01     0.722213    0.3821114  64.25   0.00242201    3.390    0.705
        81  -9.4288     79.0117    147.8176   1.2344723411e+02   3.5518197831e+01    0.2419313    0.1505493  64.26  0.001074607    2.088    0.521
        82 -10.8597     57.1464    146.5601   1.2897930969e+02   3.8833221987e+01    0.6137318     0.317511  61.04  0.002552065    2.798    0.643
        83 -10.3274    149.5704    145.7214   1.0496914810e+02   2.2854782122e+01    0.5378277    0.3530805  84.14  0.001967332    2.797    0.642
        84  -9.8467     13.7156    146.7040   1.4001372605e+02   4.3224882148e+01    0.2499901    0.1552995  52.69 0.0009733911    1.794    0.443
        85 -10.3047    125.9420    143.8808   1.1038757588e+02   2.8161674938e+01    0.5590152     0.347839  79.42  0.001945904    3.165    0.684
        86 -10.3581     88.6815    144.6320   1.2027350470e+02   3.4755706704e+01     0.385162    0.2247484  59.27   0.00130875    2.213    0.548
        87  -9.2794      3.0311    142.5198   1.4211442242e+02   4.4956028234e+01    0.1575509   0.07522895  54.26  0.000809859    2.519    0.603
        88  -9.3360     69.8052    141.1907   1.2466530753e+02   3.8415206976e+01    0.3504143    0.1785883  68.02  0.001120936    4.478    0.777
        89 -10.5322     24.1988    138.7590   1.3637108788e+02   4.4148952862e+01    0.5145139    0.2585396  66.13  0.002301625    2.985    0.665
        90 -10.2417     39.6361    136.6721   1.3200230688e+02   4.3148304681e+01    0.2788123    0.2020706  55.87 0.0009604552    1.561    0.360
        91  -9.8786    114.1955    134.4762   1.1130735455e+02   3.2598441686e+01    0.4582157      0.23457  57.69  0.001635912    2.747    0.636
        92  -9.1010    180.3185    134.6494   9.5360642325e+01   1.8425989154e+01    0.1602282    0.1232541 -81.96 0.0007047807    1.738    0.425
        93 -11.0209     85.1685    132.6094   1.1875746966e+02   3.8126480360e+01    0.6877335    0.3051535  50.51  0.002556387    2.847    0.649
        94  -9.7438    144.1832    132.5440   1.0319226712e+02   2.6893196780e+01    0.3228618    0.2270778  70.67  0.001366947    1.886    0.470
        95 -10.6620    133.1148    132.3683   1.0591117389e+02   2.9282827114e+01    0.5151817    0.3268763  71.77  0.001943422    2.540    0.606
        96  -9.6481    153.7356    130.4401   1.0037643360e+02   2.5257054183e+01    0.3676369    0.2327998 -78.61   0.00127285    3.034    0.670
        97 -10.7247    100.4512    129.1926   1.1379838083e+02   3.6342093681e+01    0.6021233    0.3727828  69.62  0.002079466    2.682    0.627
        98 -10.6425     74.1279    130.2426   1.2133354225e+02   4.0355734635e+01    0.4115252    0.2310399  55.22  0.001638157    2.315    0.568
        99 -10.1235     13.3311    129.8040   1.3796894835e+02   4.7057803142e+01    0.4409999    0.2211217  72.38  0.001982553    3.145    0.682
       100  -8.6912    193.3253    130.6931   9.1699491396e+01   1.6301761274e+01    0.1542435    0.1210966 -82.70  0.000396706    1.649    0.394
       101  -9.1831    168.9920    130.4884   9.6858853370e+01   2.1831463758e+01     0.219492    0.1380734  71.95 0.0008095661    2.464    0.594
       102 -10.1745    119.2556    126.5354   1.0810527765e+02   3.3403799912e+01    0.5741295     0.299328  61.41  0.001931995    3.166    0.684
       103 -11.2114     60.9867    125.3750   1.2406092446e+02   4.3282841138e+01    0.7338595     0.394328  60.24   0.00297476    3.006    0.667
       104 -11.2610     45.1805    123.9842   1.2829941680e+02   4.5479690589e+01    0.7311872    0.4183657  74.17  0.003068393    3.132    0.681
       105 -11.2033     29.2580    122.9382   1.3261502648e+02   4.7299283008e+01    0.8178672    0.4073845  71.47  0.002996531    4.530    0.779
       106  -9.4503    180.8209    125.6631   9.3099678459e+01   2.0130721195e+01    0.3947854    0.1413266  57.43  0.001087341    4.112    0.757
       107  -8.6753    173.6318    122.3145   9.3835150992e+01   2.2450852537e+01    0.1627645    0.1236321 -87.74 0.0007037113    1.775    0.437
       108  -9.3185    159.7978    122.6175   9.7029761379e+01   2.5547000666e+01    0.2286665    0.1460268  58.68 0.0008807938    1.745    0.427
       109 -10.1410     72.1658    120.9133   1.1991909033e+02   4.2786007059e+01    0.3867214    0.2484774  60.17  0.001794866    2.103    0.525
       110 -10.4289    142.8219    120.0930   1.0046587418e+02   2.9871155939e+01    0.5571926    0.3908137  73.12  0.001917418    1.966    0.491
       111 -10.0196    132.1261    119.7984   1.0308718820e+02   3.2241851416e+01    0.4641402    0.2716211  67.23  0.001646889    2.831    0.647
       112 -10.2924      3.3578    117.4814   1.3895475037e+02   5.0468362891e+01    0.4712792    0.2306042  81.08  0.002128123    3.246    0.692
       113 -10.5764    110.5132    115.5635   1.0776737450e+02   3.7537676379e+01    0.5719995    0.3848474  80.90  0.002253391    2.644    0.622
       114 -10.8769     80.2855    113.8074   1.1594448061e+02   4.3181638212e+01    0.6109951    0.3912967  70.55  0.002310721    2.705    0.630
       115 -10.9978     95.2009    113.9341   1.1165571085e+02   4.0700894778e+01    0.7250934    0.3458411  45.96  0.002871034    2.284    0.562
       116 -10.0786    123.9635    113.5253   1.0361912759e+02   3.5297507958e+01    0.4329221    0.2509297  58.77  0.001701414    2.208    0.547
       117 -11.2234     68.2947    111.9315   1.1905647892e+02   4.5360082562e+01    0.5213743    0.2819547  52.13  0.002248606    2.496    0.599
       118 -10.7350     14.4503    110.6724   1.3482579086e+02   5.1227705712e+01    0.4216824    0.2603909 -89.69  0.001770934    1.972    0.493
       119  -8.9880    175.3464    112.6524   9.1059454409e+01   2.3983246595e+01    0.1639884    0.1221456 -81.56 0.0007042402    1.808    0.447
       120  -9.5100    134.1092    110.4019   1.0016965010e+02   3.3812366352e+01    0.3062743    0.1941112  59.47  0.001087383    1.869    0.465
       121 -11.5887     47.3456    103.7504   1.2360174590e+02   4.9784531519e+01    0.9022411    0.4788132  59.90  0.003543633    3.793    0.736
       122 -11.4121     23.8486    103.2585   1.3074119060e+02   5.2136445431e+01    0.7534493    0.4187561  68.68  0.003311124    3.513    0.715
       123  -9.8126    140.2442    105.1518   9.7237451715e+01   3.3546512731e+01    0.4154244     0.272352  84.71   0.00151176    2.891    0.654
       124  -9.1716    167.3250    104.6934   9.0770951619e+01   2.7416930701e+01    0.1574905    0.1221864 -83.81 0.0003638377    1.648    0.393
       125  -9.8841    150.3192    103.8281   9.4433990192e+01   3.1537133383e+01    0.3052295    0.2361823 -69.92 0.0009472317    1.589    0.371
       126 -10.0957      7.7397    103.7151   1.3566119303e+02   5.3190964979e+01    0.2623371    0.1849042  50.73  0.001429104    1.806    0.446
       127 -10.0239    129.9351    103.2443   9.9347767620e+01   3.6189236568e+01    0.4395643    0.2111254  57.90   0.00150994    2.839    0.648
       128 -10.8984    113.7984    101.7950   1.0327760790e+02   3.9830988716e+01    0.6376587    0.3225353  54.33  0.002414176    2.467    0.595
       129 -10.2522    108.4618     99.2615   1.0407897458e+02   4.1401897598e+01    0.4393384    0.3454915 -87.22  0.001860402    1.802    0.445
       130 -10.1167     83.6926    101.0765   1.1178900257e+02   4.5425106552e+01    0.4886348     0.275947  53.97  0.002063845    2.423    0.587
       131 -10.4008     97.4704     98.0049   1.0688959340e+02   4.3717327589e+01    0.5872222    0.2599063  43.56  0.002300873    2.350    0.575
       132 -11.1863     65.7347     97.4567   1.1638389557e+02   4.8873618246e+01    0.7203518    0.3778442  51.17  0.003060482    2.736    0.635
       133  -9.9209    140.1412     93.2438   9.4035180005e+01   3.5919569587e+01    0.4705988    0.2904618  75.06  0.001717462    2.849    0.649
       134 -10.3928    126.9461     92.2626   9.7113747815e+01   3.9019097488e+01    0.6764168    0.3227645  58.38  0.002354884    2.887    0.654
       135 -11.1344     35.7291     90.5490   1.2435516710e+02   5.3817062631e+01    0.4836789    0.3493346  78.37  0.002019688    2.168    0.539
       136 -10.3346      7.8389     92.9880   1.3380455550e+02   5.5471935218e+01    0.5420925    0.1460882  30.71  0.002358635    4.063    0.754
       137 -10.8410     89.3228     88.2529   1.0662310862e+02   4.7136211245e+01    0.7807178     0.354791  51.89  0.002865618    3.142    0.682
       138 -10.9303     50.2083     85.8215   1.1844228245e+02   5.3268863171e+01    0.6379755    0.3607174  57.85  0.002665085    3.528    0.717
       139 -10.2794    109.4995     86.0000   1.0007057516e+02   4.3838293568e+01    0.5713264    0.2244126  43.63  0.002098665    2.532    0.605
       140 -10.1979    105.4791     83.9998   1.0063300771e+02   4.5008686883e+01    0.3545294    0.2591339 -72.91  0.001375844    2.099    0.524
       141  -9.2421    142.0952     84.2845   9.1058390780e+01   3.7148943416e+01    0.3263617    0.1966655  76.01  0.001162422    3.010    0.668
       142 -10.6820     25.6553     81.6609   1.2567469340e+02   5.6554332954e+01    0.4642739    0.3047501  56.20  0.002309932    2.389    0.581
       143 -10.2517     11.3063     81.9442   1.3056572310e+02   5.7548228490e+01    0.4681616    0.1617607  38.79   0.00204704    4.036    0.752
       144 -10.2789     75.6792     81.6546   1.0899278653e+02   5.0663365410e+01    0.3233037    0.2418645  56.95  0.001702196    1.791    0.442
       145  -9.4745    120.4700     81.4998   9.5748514260e+01   4.2434711506e+01    0.2722657    0.1394849  57.43  0.001033121    2.457    0.593
       146 -10.2881     62.4337     77.6383   1.1216471089e+02   5.3365931614e+01    0.2731015    0.2149884 -83.23  0.001473002    2.011    0.503
       147 -10.0785    129.7952     76.7383   9.1925055880e+01   4.1271357527e+01    0.5515621    0.2765912  60.71  0.002043316    2.634    0.620
       148  -9.1460    141.7470     76.5842   8.8950082152e+01   3.8595582971e+01     0.216269    0.1403578  62.45 0.0008613688    1.716    0.417
       149 -10.5936     84.1063     74.2723   1.0415227487e+02   5.0708265929e+01    0.5196229    0.3444788  65.91  0.002281099    2.737    0.635
       150  -9.7821     43.7280     73.5774   1.1740715518e+02   5.6442520111e+01    0.2956279    0.1974659  47.55  0.001507737    2.066    0.516
       151  -8.7346      9.6822     74.3370   1.2950873186e+02   5.9186256341e+01    0.1219263   0.09281269 -43.88 0.0008397907    1.025    0.025
       152  -9.1433      6.3435     72.6708   1.3030689449e+02   5.9718657846e+01    0.2098086    0.1271475  68.80  0.001044347    3.441    0.709
       153  -9.1637    116.7025     73.7316   9.4458174081e+01   4.4620907905e+01    0.2298958     0.121735  57.90 0.0009029754    2.371    0.578
       154  -9.6297    107.2786     72.9251   9.6821360117e+01   4.6687443775e+01    0.3205234    0.2047935  59.27  0.001448257    1.998    0.499
       155 -10.0190     96.5501     72.5612   9.9826699840e+01   4.8816155998e+01     0.416622    0.2884196  64.41  0.001952094    2.140    0.533
       156 -10.6339     52.7640     70.8652   1.1350421920e+02   5.5915084514e+01    0.4822827    0.3643475  69.95  0.002583528    2.360    0.576
       157 -10.3198     17.6829     70.7947   1.2588724699e+02   5.9345737039e+01    0.2963313    0.1898637  42.99   0.00177672    2.164    0.538
       158  -9.4241    147.7397     68.7829   8.5326300435e+01   3.8508811215e+01     0.236743    0.1174224  63.11  0.000882976    2.409    0.585
       159  -8.8068    139.3475     67.6496   8.6922128254e+01   4.0649039061e+01    0.1517999    0.1153626 -79.81 0.0007039284    1.819    0.450
       160  -9.4602    122.8984     67.1907   9.0840118223e+01   4.4411591450e+01    0.3539291    0.2049225  73.86  0.001212203    3.702    0.730
       161 -10.2127     39.5477     65.6394   1.1666737232e+02   5.8401515676e+01    0.4608048    0.2148963  40.54  0.002203611    2.780    0.640
       162  -9.1681     10.0534     65.9883   1.2747729323e+02   6.0798916698e+01    0.1629232     0.135484  78.51  0.001126303    1.772    0.436
       163  -9.7557    112.0808     65.0337   9.3053315331e+01   4.7059505469e+01     0.504927    0.1984477  56.50  0.001655271    3.627    0.724
       164  -9.9055    102.1588     61.8981   9.4849553085e+01   4.9568861160e+01    0.4031778    0.2692979  74.97  0.001686608    2.928    0.658
       165 -10.7087     75.7137     60.7204   1.0260745732e+02   5.4485538323e+01    0.6418803    0.2689578  46.20  0.002632388    2.826    0.646
       166  -9.9340     26.9289     60.4720   1.1982614605e+02   6.0572866895e+01     0.378675      0.16694  41.26  0.001764614    3.377    0.704
       167  -9.2534     90.2439     60.5594   9.7954428946e+01   5.2032113589e+01     0.252055    0.1280986  47.45  0.001118357    2.098    0.523
       168  -8.9539    132.6579     59.3075   8.6019593369e+01   4.3496153051e+01    0.1428745    0.1134724 -83.86 0.0005270321    1.690    0.408
       169 -10.7832      9.6521     58.5009   1.2578210228e+02   6.2243498761e+01    0.4957891    0.2100285  32.49  0.002628917    2.932    0.659
       170  -9.4474    120.7215     57.2163   8.8324705560e+01   4.6466711213e+01    0.3381179    0.1941887  65.70  0.001399708    2.422    0.587
       171 -10.0976     55.1178     55.2051   1.0786258255e+02   5.8427007355e+01    0.3708739    0.2816409 -74.26  0.001983923    2.505    0.601
       172 -10.2860     45.6307     56.7032   1.1177233421e+02   5.9345904377e+01    0.3784199     0.210328  44.61  0.001921754    2.515    0.602
       173 -10.2476     64.3822     55.6911   1.0477262403e+02   5.7062604184e+01    0.3806855    0.2286296  43.06  0.001930707    1.913    0.477
       174  -9.3780    107.4594     54.5110   9.0984410209e+01   4.9669738352e+01    0.2527344    0.1311464  58.80  0.001033066    2.490    0.598
       175  -9.4604    100.2970     53.9462   9.2815339752e+01   5.1186002087e+01    0.1865972    0.1818074 -36.53  0.001156373    1.217    0.178
       176 -10.4006     32.9621     52.7631   1.1527415722e+02   6.1396051235e+01    0.4447023    0.2570098  45.80  0.002339621    2.750    0.636
       177  -9.7772     22.5413     53.6367   1.1953159992e+02   6.2187811201e+01    0.3651761    0.1578446  37.32  0.001812613    3.074    0.675
       178 -10.2876     94.0473     51.7733   9.3921914456e+01   5.2715240334e+01    0.4251224    0.2897848  57.66  0.002172417    1.839    0.456
       179 -10.0011     83.4006     47.8835   9.5858267443e+01   5.5235788753e+01    0.3839284    0.2018905  52.89  0.001731989    2.437    0.590
       180 -10.1303     46.4018     45.5975   1.0784519716e+02   6.1113201446e+01    0.3655925    0.2238806  45.36  0.001895336    2.294    0.564
       181 -10.2640     19.0386     45.7442   1.1854050332e+02   6.3853536031e+01    0.4272986    0.1879172  33.64  0.002270786    2.768    0.639
       182 -10.1526     59.3594     43.6566   1.0243619258e+02   5.9700817938e+01    0.3433419    0.2854803 -89.51  0.001968996    2.413    0.586
       183 -10.2168     71.3378     42.9712   9.8059505175e+01   5.7986283111e+01    0.4784248    0.2675726  54.08  0.002222216    2.722    0.633
       184 -10.3227      5.7014     42.4407   1.2294819412e+02   6.5370613772e+01    0.3346883    0.2205625 -72.79  0.002005669    2.512    0.602
       185  -8.6875    133.3535     43.6933   8.1089277738e+01   4.5561557470e+01    0.1385952    0.1079113 -82.37 0.0003486539    1.716    0.417
       186  -9.4820    107.8786     42.6482   8.6979794409e+01   5.1275049155e+01    0.3066452    0.2072721  68.73  0.001499963    2.041    0.510
       187  -9.9816     38.3913     41.6151   1.0953161769e+02   6.2681294836e+01     0.303039    0.1976168  42.76  0.001786848    2.124    0.529
       188  -9.7701     97.2120     39.5272   8.8853713708e+01   5.3838332650e+01    0.3633159    0.2164039  65.34  0.001621259    2.633    0.620
       189  -9.6013     82.8925     38.2237   9.2646813455e+01   5.6691863118e+01    0.2941771    0.2146606  69.67  0.001526892    2.338    0.572
       190  -9.5192    113.3945     36.2453   8.3433579400e+01   5.0939322212e+01    0.2844163    0.1982949 -86.23  0.001313915    2.617    0.618
       191  -9.9464     27.3083     36.6683   1.1222410909e+02   6.4612187650e+01    0.2461381    0.1888926  14.17  0.001744232    1.325    0.245
       192  -8.8371    105.3353     35.6527   8.5306510966e+01   5.2702967844e+01    0.1275216     0.105651 -77.39 0.0007048363    1.775    0.437
       193  -9.3152    120.6048     34.2308   8.1027684621e+01   4.9619856390e+01    0.2482231    0.1593233  63.67  0.001114263    1.668    0.400
       194 -10.2051     62.5202     33.6748   9.7711064013e+01   6.0669725415e+01    0.4020438    0.2136063  49.31  0.001988432    2.498    0.600
       195 -10.0074     51.3120     33.7882   1.0179652540e+02   6.2261138742e+01     0.313502    0.1986192  49.63  0.001716161    2.394    0.582
       196 -10.1089     74.7489     32.6519   9.3215571642e+01   5.8840341718e+01    0.3901494    0.2061007  52.06  0.001891151    2.349    0.574
       197 -10.1362     13.5218     30.9350   1.1600158982e+02   6.6712774543e+01    0.2790075    0.2347232 -66.92  0.001619049    1.988    0.497
       198  -9.2540    103.6649     30.4323   8.3964931456e+01   5.3675485949e+01    0.2500393    0.1205587  55.63  0.001132838    2.084    0.520
       199  -9.4934     43.2807     30.3927   1.0357494584e+02   6.3779698080e+01    0.2344963     0.134061  36.36  0.001365898    1.878    0.467
       200  -9.9498     83.0273     28.7015   8.9172276865e+01   5.7877289005e+01    0.3383559     0.228856  72.03  0.001629552    2.876    0.652
       201  -9.9858      4.3313     28.0332   1.1900878671e+02   6.7828204257e+01    0.2184737    0.1780125 -73.29   0.00155719    2.183    0.542
       202  -9.7336     93.3101     27.7153   8.5819531710e+01   5.6058840978e+01    0.3606362     0.223127  67.84  0.001716987    2.540    0.606
       203  -9.2330     39.9747     25.4832   1.0299164613e+02   6.4861014872e+01    0.1392779   0.09845579  51.19 0.0008097112    2.490    0.598
       204 -10.3546     50.6636     22.3409   9.7648753869e+01   6.3867615235e+01    0.3758351    0.1930933  40.33  0.002083261    2.004    0.501
       205 -10.2894     64.7893     21.6654   9.2359657669e+01   6.1826836309e+01    0.2947105    0.2041283  49.49  0.001779565    1.745    0.427
       206  -9.0199     20.7511     22.1602   1.0967923339e+02   6.7394594019e+01    0.1458329    0.1257436  75.21 0.0009491827    2.794    0.642
       207 -10.0888     75.9536     20.4739   8.8274749707e+01   6.0084563147e+01    0.4123836    0.2052064  54.46  0.001991963    2.433    0.589
       208  -9.4006     12.5411     21.4942   1.1303470157e+02   6.8210380412e+01    0.1880833   0.09426671  20.76  0.001031018    2.007    0.502
       209  -9.8074    189.0168     19.4887   6.4792519488e+01   3.5131924214e+01    0.1959704     0.081398  48.91 0.0008105272    2.588    0.614
       210  -9.6686     40.6571     19.0433   1.0016963202e+02   6.5610652343e+01     0.233465    0.1464877  37.09  0.001471492    1.742    0.426
       211  -9.6964     89.7137     18.3029   8.3421684878e+01   5.7777373688e+01    0.3214786    0.1575588  55.84  0.001556609    2.125    0.529
       212  -9.7864     31.4455     16.9922   1.0307469290e+02   6.6975850524e+01    0.1950196    0.1459772  34.02  0.001368203    1.665    0.399
       213  -9.6932     98.4236     16.1178   8.0318689391e+01   5.6273832174e+01    0.2490502    0.1629027  69.36    0.0013215    2.004    0.501
       214  -9.1090     18.0257     14.5187   1.0785573950e+02   6.8692462575e+01    0.1262772   0.08799053  43.19 0.0006880664    2.480    0.597
       215  -9.2968     40.7303     12.8613   9.7596461787e+01   6.6341598234e+01     0.186602    0.1185682  -8.63  0.001201081    1.417    0.294
       216  -9.1138     84.9691     11.5091   8.2219840295e+01   5.9346441455e+01    0.1904802    0.1051372  49.68  0.001038152    1.610    0.379
       217 -11.2801    166.6376    248.2557   1.2018627383e+02  -6.4057025828e-01    0.3409671    0.2439945  33.81  0.001123416    1.214    0.176
       218 -10.2828    245.5603    247.4636   1.0513366172e+02  -1.3065050676e+01    0.3637648    0.1481699  33.69   0.00180435    2.178    0.541
       219  -8.8607    107.5610    248.5386   1.3177523726e+02   9.1869316755e+00    0.1245086    0.1043432  55.54 0.0002784882    1.055    0.053
       220 -10.5735    173.3878    244.1114   1.1823670581e+02  -1.1287078271e+00    0.2263869     0.168559 -65.50   0.00128591    1.897    0.473
       221 -10.2697    167.9867    242.4865   1.1905856689e+02   6.2423633957e-02    0.2052018     0.111207  40.38 0.0005375599    1.561    0.359
       222  -9.7516    238.0094    240.0169   1.0521993237e+02  -1.1001748903e+01     0.241486     0.185136  46.86  0.001513764    1.685    0.406
       223  -9.3106    169.9885    232.5312   1.1710693579e+02   1.3774633113e+00    0.2124592    0.1162913  39.99 0.0006030643    1.584    0.369
