#   1 NUMBER                 Running object number                                     
#   2 MAG_AUTO               Kron-like elliptical aperture magnitude                    [mag]
#   3 X_IMAGE                Object position along x                                    [pixel]
#   4 Y_IMAGE                Object position along y                                    [pixel]
#   5 X_WORLD                Barycenter position along world x axis                     [deg]
#   6 Y_WORLD                Barycenter position along world y axis                     [deg]
#   7 A_WORLD                Profile RMS along major axis (world units)                 [deg]
#   8 B_WORLD                Profile RMS along minor axis (world units)                 [deg]
#   9 THETA_WORLD            Position angle (CCW/world-x)                               [deg]
#  10 FWHM_WORLD             FWHM assuming a gaussian core                              [deg]
#  11 ELONGATION             A_IMAGE/B_IMAGE                                           
#  12 ELLIPTICITY            1 - B_IMAGE/A_IMAGE                                       
         1 -11.7878     76.9146     21.9619   8.1143198129e+01   5.9800201054e+01    0.4370571    0.4141081 -77.77  0.002435275    1.501    0.334
         2 -10.4726     59.3234     24.1191   8.7595283460e+01   6.2566219509e+01    0.2486604    0.1523042  21.78  0.001455302    1.556    0.357
         3 -11.0395     14.1024     16.0617   1.0267020654e+02   6.9363411092e+01    0.2880101    0.1698425  29.82  0.001359498    1.797    0.443
         4 -11.4789     39.7970     22.5823   9.4239595851e+01   6.5601691334e+01    0.5859469    0.2805632 -10.07  0.002629228    3.270    0.694
         5 -11.6808     88.7917     13.8081   7.4936600959e+01   5.8357057641e+01    0.4110812    0.3381287  78.76  0.001797818    1.594    0.372
         6 -10.5741     92.9639      9.0492   7.2251733123e+01   5.7949399312e+01    0.2552954    0.1780227   7.50 0.0009525759    1.618    0.382
         7 -10.4386    155.2062     14.7164   6.2344006515e+01   4.3982998204e+01    0.2966595    0.1678222  52.96  0.000996248    1.612    0.380
         8 -10.8885     22.5249      9.6400   9.6099677421e+01   6.9242044132e+01    0.3033719    0.1663209  21.71  0.001876639    1.591    0.371
         9 -11.7446     40.2803      8.8645   8.8386805327e+01   6.7051209372e+01    0.4006245    0.2255097 -10.36  0.002454637    1.826    0.452
        10 -11.6974     35.0799     13.0405   9.2217850398e+01   6.7323577840e+01    0.3077615     0.227078 -31.76  0.001251508    1.617    0.382
        11 -11.8749     30.1581      7.1561   9.1721434582e+01   6.8584227604e+01    0.3050393    0.2438143  -2.58  0.001023177    1.193    0.162
        12 -10.9149    162.4334     13.1409   6.0937913518e+01   4.2499461476e+01    0.2235819    0.1738744  72.71 0.0001864649    1.068    0.064
        13 -10.2620     10.0352      1.9487   9.8463023292e+01   7.1432485057e+01    0.3741569    0.1825297  -7.46  0.002167637    2.300    0.565
        14  -8.7343      5.8760     14.1146   1.0578691496e+02   7.0360848544e+01    0.1782064     0.114071 -31.30  0.000711243    1.377    0.274
        15 -10.1347      2.5716      2.7192   1.0251721172e+02   7.2048262632e+01    0.2328191    0.1380091  27.77 0.0009171259    1.789    0.441
        16 -10.4092     14.8229      8.9611   9.9316900873e+01   7.0156704306e+01    0.2260481    0.1216789   1.36 0.0007748615    1.887    0.470
        17 -11.1106     11.3024      6.8606   1.0006124009e+02   7.0755001599e+01    0.2958468    0.2222186  -4.30  0.002349823    1.108    0.098
        18 -11.0080      4.0496      9.9968   1.0496202977e+02   7.1042189762e+01    0.2574544    0.1731979  12.10 0.0004575401    1.321    0.243
        19 -10.7689      2.8925      6.4603   1.0401612362e+02   7.1576931971e+01    0.2652109    0.1430331  10.91  0.001152843    1.649    0.394
        20  -9.9121    119.1031     12.1495   6.7650848169e+01   5.2251341851e+01    0.1842422    0.1366118  46.69 0.0002763858    1.179    0.152
        21 -11.8361     56.9303      4.1502   8.0491837324e+01   6.4934278661e+01      0.47224    0.2782666   5.90  0.002881813    1.824    0.452
        22 -10.7019    155.6702      8.4572   6.0679227349e+01   4.4468234335e+01     0.311148    0.1474373  41.30  0.001109859    2.670    0.625
        23 -10.7698    151.1351      7.0996   6.0958936844e+01   4.5609051057e+01    0.3187848    0.2293821 -42.45  0.001078315    1.583    0.368
        24 -11.0273    210.2020      7.4387   5.4411866345e+01   3.2492981633e+01    0.1804376    0.1234622 -55.73 0.0009218849    1.376    0.273
        25  -9.4870     88.5417      7.0150   7.2614462622e+01   5.8987967893e+01    0.1521536    0.1130465 -13.98 0.0004836262    1.517    0.341
        26 -10.7087     71.4996      6.4945   7.6952324758e+01   6.2229724389e+01     0.287333    0.1774819  34.42   0.00142848    1.343    0.255
        27  -9.5821     64.6257      6.8413   7.9129816139e+01   6.3409954679e+01    0.1411758    0.1004369 -28.90 0.0005677077    1.659    0.397
        28 -10.8781    145.0360      5.7877   6.1487013383e+01   4.7087935746e+01    0.1813293    0.1691836  51.32 0.0002772064    1.196    0.164
        29 -10.5909    235.5028      4.9438   5.1887000423e+01   2.7518011290e+01    0.1553175   0.09847556 -46.08 0.0008886165    1.565    0.361
        30 -10.7714    198.9813      3.0158   5.4537725500e+01   3.5357470348e+01    0.1777372    0.1145419 -75.68 0.0009629737    1.392    0.282
        31  -9.7465    120.9944      4.2262   6.4916903437e+01   5.2503507367e+01    0.1674703    0.1304074  58.97 0.0003836365    1.048    0.046
        32 -10.2010     16.5674      3.5117   9.6081574157e+01   7.0578192406e+01    0.1675685    0.1046887 -11.34 3.048112e-05    1.337    0.252
        33 -10.4164     20.0483      2.5153   9.4040756852e+01   7.0290225084e+01    0.2127189    0.1442628   2.67 0.0007251867    1.134    0.118
        34 -10.1402    230.5629      3.5092   5.1994875977e+01   2.8669369695e+01    0.1147199   0.08525438 -79.86 0.0001276566    1.008    0.008
        35 -10.3781    176.4812      2.5025   5.6698539308e+01   4.0349165805e+01    0.1813994    0.1257232  52.59 0.0007895607    1.524    0.344
        36  -9.6204     93.6972      1.9631   6.9654068249e+01   5.8360998271e+01     0.314871    0.1348362  15.45   0.00115719    5.117    0.805
        37 -10.0168     89.7892      2.2447   7.0647794667e+01   5.9114497857e+01    0.1682644    0.1539971 -82.67 0.0006913207    1.432    0.301
        38 -10.6711    161.4901      1.6595   5.8237635218e+01   4.3764402731e+01    0.2501977    0.1238546  65.84   0.00135526    1.612    0.380
        39 -11.6593     80.2182      1.7126   7.2801119618e+01   6.0999705241e+01    0.3075694    0.1373267  54.33  0.001118386    1.864    0.463
        40  -9.6154     67.0496      1.6515   7.6375733425e+01   6.3410557580e+01    0.1586008    0.1166002  37.57 0.0003892883    1.087    0.080
        41  -9.9274     50.6028      1.9331   8.1691883929e+01   6.6140282394e+01    0.2294226    0.1074475  29.53   0.00127721    1.940    0.484
        42 -10.0731    243.8048      1.5877   5.0711647787e+01   2.6240446040e+01    0.1591822   0.08179455 -88.63 0.0008440985    1.664    0.399
        43 -10.8658    130.2726      3.7219   6.3193456180e+01   5.0525885142e+01    0.2540947     0.129554  58.27  0.001133559    1.551    0.355
        44  -9.1615    112.6753      2.6912   6.5974848192e+01   5.4399359322e+01    0.1255067   0.07258143  39.20 0.0007037457    1.652    0.395
        45  -9.8278     99.8060      1.5508   6.8183492476e+01   5.7158830490e+01    0.1582825    0.1007901  69.06 0.0003471451    1.596    0.373
        46  -9.3993     28.5898      1.2199   8.9742630743e+01   6.9371601467e+01   0.09250078   0.07498261  38.45 0.0006856876    1.662    0.398
        47  -9.3518    187.0904      1.0000   5.5256497068e+01   3.8144386315e+01    0.1856758   0.05528459  71.32  0.000355455    2.759    0.638
        48 -10.6372     65.2519    111.1410   1.1282381737e+02   4.6303732196e+01    0.3975272    0.1532088 -54.20  0.001499472    2.395    0.582
        49 -10.6874      1.5079    249.5317   1.4617779358e+02   2.0836435856e+01    0.1976293    0.1319918 -85.22 0.0008714008    1.255    0.203
        50  -9.8885      1.5041    246.5038   1.4600750046e+02   2.1451503008e+01    0.1662991   0.08396471 -70.41 0.0009920709    1.818    0.450
        51  -9.3037     43.0561    113.5285   1.2045317366e+02   4.8518948241e+01     0.189905    0.1023963  51.97 0.0008092421    2.672    0.626
        52 -11.3543     20.3079    112.9813   1.2758952345e+02   5.0792483936e+01    0.2144347    0.1897869  35.92 0.0008178781    1.361    0.265
        53  -9.9173    248.6897    111.6723   7.1162625836e+01   9.1676847164e+00    0.1250703     0.102963 -14.47 0.0007040597    1.662    0.398
        54 -11.3520      4.1493    109.4283   1.3205080381e+02   5.2736661290e+01    0.2671358    0.2019554  27.91  0.001737541    1.631    0.387
        55 -10.6040     57.7675    107.8428   1.1443136922e+02   4.8071061039e+01     0.239083    0.1864404   5.98  0.001065401    1.459    0.315
        56 -11.1385     12.5455    108.3388   1.2921705944e+02   5.2439898756e+01    0.2163544    0.1599906   5.36  0.001342148    1.625    0.385
        57  -9.5217     39.7116    106.6635   1.2005472384e+02   5.0462123505e+01    0.1417192   0.08752444 -34.34 0.0007019571    1.634    0.388
        58 -10.1952     89.7261    104.9952   1.0364728580e+02   4.3834119958e+01    0.2111929    0.1919037 -34.73 0.0006432105    1.047    0.044
        59  -9.2168    186.7244    103.3044   7.9300310782e+01   2.3556764536e+01    0.1494193    0.1106876 -74.40  0.000374192    1.544    0.352
        60  -9.6511    113.4996    102.5058   9.6070330649e+01   3.9891727454e+01    0.1495541    0.1450264 -13.07 0.0008105334    1.026    0.025
        61 -10.4912     57.3559    101.9103   1.1312291336e+02   4.9460432072e+01     0.235224    0.1930161  40.23  0.001334528    1.385    0.278
        62 -10.2461     24.9835    101.9325   1.2392260552e+02   5.2931207935e+01    0.1935273     0.157615 -46.45 0.0003170541    1.020    0.020
        63  -9.9283     62.4807     98.5027   1.1057054090e+02   4.9522585300e+01    0.2440215    0.1317944 -62.48  0.001028204    2.267    0.559
        64  -9.2504    196.0271     98.3148   7.6423238916e+01   2.2422798730e+01    0.2325459     0.105133  36.83 0.0007047741    4.302    0.768
        65 -10.4427     99.6263     95.5530   9.8116345856e+01   4.4049512814e+01    0.5062159    0.2647857  57.04  0.001885879    2.803    0.643
        66 -10.1936     78.8745     94.8203   1.0426867859e+02   4.7847516722e+01    0.2074893    0.1776407 -14.25 0.0002404492    1.176    0.150
        67 -11.3279     17.9027     94.6828   1.2480626677e+02   5.5106610091e+01    0.2489306     0.232739 -16.30 0.0009356149    1.197    0.165
        68  -9.7475      3.4982     95.5289   1.2985920590e+02   5.5877425678e+01    0.1231521   0.09540368 -51.05 0.0002221384    1.011    0.011
        69 -10.8652     10.7279     90.4707   1.2640909451e+02   5.6529406534e+01    0.4826283    0.1740456 -61.36  0.002171834    2.295    0.564
        70 -10.5403     10.8160     84.8723   1.2519694086e+02   5.7716660598e+01    0.2254875    0.1626885 -80.47  0.001041612    1.730    0.422
        71 -10.7611     57.9774     91.7417   1.1029837911e+02   5.1585180493e+01    0.2916318    0.2127141 -11.42 0.0009435829    1.535    0.348
        72 -10.1494     29.0562     91.7773   1.2029950440e+02   5.4811183334e+01    0.2242209    0.1727546  28.15 0.0008450328    1.501    0.334
        73 -10.5241     25.9855     90.2290   1.2101662036e+02   5.5417089344e+01    0.2704452     0.192277  52.13  0.001535058    1.966    0.491
        74 -10.8250     76.4384     89.3111   1.0351259027e+02   4.9382256052e+01    0.2477043    0.2273211 -12.89 0.0005334523    1.022    0.022
        75 -10.4411      1.8149     89.7132   1.2934126463e+02   5.7232178866e+01    0.2080893    0.1281767 -56.75 0.0001792393    1.262    0.207
        76 -10.2495    107.5241     89.4685   9.4117018255e+01   4.3746208549e+01    0.1447514    0.1398379   1.08 7.502441e-05    1.002    0.002
        77 -10.0699     91.5344     95.5238   1.0052684707e+02   4.5541206389e+01    0.1448282    0.1361744 -16.97 4.328878e-05    1.013    0.013
        78 -10.7240     18.2998     87.6917   1.2315351955e+02   5.6585694000e+01    0.4102099    0.2079578 -38.66  0.002136667    1.744    0.427
        79 -11.0234     54.9131     85.1513   1.0955826422e+02   5.3358388755e+01     0.287134    0.2387016 -61.54 0.0008011195    1.395    0.283
        80 -10.0932     78.3272     83.5701   1.0125242911e+02   5.0225759665e+01    0.1997658     0.171591  82.16 0.0004540442    1.624    0.384
        81  -9.4368     72.9927     83.7435   1.0304111820e+02   5.1048017627e+01    0.2612505    0.1377489 -18.96  0.000834536    3.559    0.719
        82  -9.1214     25.3004     84.6928   1.1995370204e+02   5.6650334834e+01    0.1128423   0.09722069  81.22  0.000383089    1.596    0.374
        83 -10.5175      3.6290     83.2330   1.2741759421e+02   5.8504984380e+01    0.2523371     0.189601  77.28   0.00112273    1.921    0.480
        84 -11.2465     64.2074     80.0040   1.0489499985e+02   5.3109966096e+01    0.4254072    0.2596866 -49.45  0.002132959    1.645    0.392
        85  -9.7050    124.4136     79.1923   8.6617424390e+01   4.2168040373e+01    0.1965713     0.135178 -52.89  0.000466469    1.627    0.385
        86 -10.3009    177.0099     76.9349   7.4641941409e+01   3.0579463305e+01    0.2277095    0.2071966  87.46 0.0008819483    1.026    0.025
        87  -9.3254     28.3541     77.1504   1.1694024004e+02   5.7927303250e+01     0.157171     0.107279 -58.90 0.0001580088    1.517    0.341
        88 -10.9373     15.6186     76.2593   1.2146072475e+02   5.9161351857e+01    0.2877656    0.2035671 -22.60  0.001310926    1.328    0.247
        89  -9.8449    170.2078     76.2635   7.5728692612e+01   3.2271312490e+01    0.2026363    0.1611513 -77.68 0.0006019407    1.345    0.257
        90  -9.9970     89.3212     80.4727   9.6868981450e+01   4.8930664537e+01    0.2278917    0.1736867 -64.14 0.0007452225    1.722    0.419
        91 -11.0511     56.2350     75.2438   1.0625943886e+02   5.5146211085e+01    0.4203025    0.2731033  23.29  0.001570911    1.605    0.377
        92 -11.4957      5.6045     74.5444   1.2480412347e+02   6.0178117614e+01    0.3919945    0.2438649  32.25  0.002393626    2.017    0.504
        93  -9.8100     32.1803     73.1390   1.1443299843e+02   5.8358946094e+01    0.1712831      0.15912 -49.92 0.0002642103    1.280    0.219
        94  -9.7954     37.3131     75.3211   1.1312808075e+02   5.7405849539e+01    0.2041023    0.1461473 -12.42  0.001192947    1.411    0.291
        95 -10.7578     35.9789     71.9982   1.1269040925e+02   5.8194848615e+01    0.3496804    0.2107103 -23.08   0.00122183    1.720    0.419
        96  -9.3098    136.5377     74.4598   8.2314775755e+01   4.0323283574e+01    0.1427424    0.1369778  53.81 7.378231e-05    1.009    0.009
        97  -9.4221    217.0017     72.0466   6.7202545984e+01   2.2379335106e+01    0.1637808    0.1392102 -69.40 0.0005350938    1.023    0.023
        98 -10.4397    105.6940     71.8552   8.9449017015e+01   4.7369768884e+01    0.2460291    0.1939059  46.15 0.0004717146    1.251    0.201
        99  -9.4902     92.4698     72.5012   9.3495190363e+01   4.9815220376e+01    0.1382436    0.1289197   5.09 5.530626e-05    1.011    0.011
       100  -9.4250     81.3264     72.6685   9.7011319228e+01   5.1776881056e+01     0.131003    0.1119479  88.26 0.0007051156    1.710    0.415
       101 -10.6170     10.6221     66.8446   1.2101624660e+02   6.1381012035e+01    0.4069572    0.1849659 -61.44  0.001921445    2.288    0.563
       102 -11.3369      9.9425     60.0918   1.1950086078e+02   6.2712581665e+01    0.2889796    0.1778248 -26.54  0.000382062    1.422    0.297
       103 -11.5164      5.4910     63.4821   1.2217511823e+02   6.2361890392e+01    0.2812047    0.2112754  16.20  0.001208625    1.525    0.344
       104 -10.8324      3.0458     60.5195   1.2239238163e+02   6.3072530097e+01    0.1964938    0.1579285 -43.02 0.0006921245    1.134    0.119
       105 -10.0955    132.3888     65.0247   8.0588468218e+01   4.2810978221e+01    0.3611436    0.2148672  55.84  0.001681728    1.630    0.386
       106 -10.0949     40.6346     58.8694   1.0696761681e+02   6.0101316038e+01    0.2292933    0.1791786 -21.54 0.0009403051    1.084    0.077
       107 -10.3643     34.7904     64.6060   1.1098588032e+02   5.9716553769e+01    0.2544246    0.1725787 -27.95 0.0008710333    1.298    0.229
       108 -10.0990     39.0312     62.9302   1.0885328248e+02   5.9561991877e+01     0.222265    0.1491775  -4.00 0.0004010769    1.564    0.361
       109  -9.6162     75.9755     64.3549   9.6128424960e+01   5.4138178185e+01    0.1787536    0.1547112  16.74 0.0004350955    1.082    0.076
       110 -10.6441     13.9757     63.5848   1.1883736047e+02   6.1767591361e+01    0.2030941    0.1493353 -59.86 0.0004981598    1.500    0.333
       111  -9.9186     72.4637     63.0229   9.6861663823e+01   5.4941828696e+01    0.1929263    0.1238534 -37.99 0.0004265367    1.534    0.348
       112 -10.7588     62.7418     62.3754   9.9976864730e+01   5.6563908889e+01    0.2731645    0.1585252 -30.80  0.001384365    1.708    0.415
       113 -10.0747    100.8361     61.8151   8.7718931250e+01   5.0006600829e+01    0.2182135     0.197102 -51.98 0.0003931584    1.280    0.219
       114 -10.7487     54.3145     61.4717   1.0269100276e+02   5.7920397458e+01    0.3711674     0.197462  20.04  0.001774264    2.175    0.540
       115 -13.1209     20.3688     57.0939   1.1442640705e+02   6.2459292773e+01    0.4182839    0.2499036 -51.24  0.002473422    1.610    0.379
       116 -10.9557     83.6323     56.8856   9.1248088511e+01   5.4031917866e+01    0.2185154    0.2127157  24.28 0.0004389451    1.197    0.164
       117 -11.5678     88.5132     53.1436   8.8520684723e+01   5.3711958137e+01    0.4576841    0.2932874  34.72 0.0008427351    1.484    0.326
       118  -9.7742     24.7742     60.4266   1.1365162906e+02   6.1466127388e+01    0.2418766    0.1461983 -18.27 0.0008029345    1.663    0.399
       119  -9.2547     48.4754     58.4676   1.0386932594e+02   5.9211151277e+01    0.1265991    0.1067831 -11.71 0.0002614112    1.011    0.011
       120  -9.6281     66.9578     60.5241   9.7913492466e+01   5.6236763235e+01    0.1926855    0.1212099  32.84  0.001019031    1.557    0.358
       121  -9.6256     54.2837     55.9765   1.0090299844e+02   5.8855219483e+01     0.248502   0.09852405 -37.77  0.001084308    2.423    0.587
       122 -11.2274     17.4134     44.6704   1.1176511988e+02   6.4860092576e+01     0.476318    0.3683508  48.58  0.003113265    2.144    0.534
       123 -13.1730      5.4794     51.1177   1.1882699882e+02   6.4648314551e+01    0.4109106    0.2260571 -31.23 0.0006160624    1.494    0.331
       124 -11.0341     11.9704     48.1189   1.1518226172e+02   6.4717126322e+01    0.4074055    0.2098556  30.07   0.00204002    2.248    0.555
       125 -10.4256    225.6637     54.3063   6.2352813217e+01   2.3261222990e+01    0.2910992    0.2004852 -27.91  0.001588687    1.965    0.491
       126  -9.3800    174.4111     55.5218   6.9737203357e+01   3.4573122714e+01    0.1360873    0.1224322  89.67 0.0001068648    1.017    0.017
       127 -11.6568    114.6959     54.0132   8.1578885694e+01   4.8347369469e+01    0.3064386    0.2767388  36.78 0.0007956709    1.022    0.022
       128 -10.0606     34.4330     53.5200   1.0766255848e+02   6.1721175211e+01    0.2876387    0.1477397 -18.18  0.001351488    2.459    0.593
       129 -11.9008     66.1100     52.6097   9.5567242283e+01   5.7647593311e+01    0.4941591    0.2042332  36.68  0.001624357    2.357    0.576
       130  -9.9125    123.5900     52.1228   7.8841700201e+01   4.6699944141e+01    0.2048936    0.1697146  52.64 0.0006254482    1.120    0.107
       131  -9.1965    232.2963     51.6827   6.1074603875e+01   2.2253317230e+01    0.1332162   0.08005997 -69.39 0.0002701757    1.609    0.379
       132  -9.6483     98.2996     50.3517   8.4768923530e+01   5.2239886176e+01    0.1384327   0.09712633  13.18 0.0007037095    1.694    0.410
       133 -11.0765     77.8414     47.3036   8.9860556771e+01   5.6492811516e+01    0.4513844    0.2756813   0.50  0.001865484    2.301    0.565
       134  -9.7647     53.9719     48.2357   9.8383584131e+01   6.0134846484e+01     0.172744    0.1454082   0.92 0.0005673037    1.027    0.026
       135  -9.4821    154.5549     47.5471   7.1115700509e+01   4.0315303368e+01    0.1349857    0.1215875  73.87 6.527083e-05    1.011    0.011
       136 -10.6975    103.7866     46.8592   8.2145063377e+01   5.1625787504e+01    0.3560396     0.213186  35.62  0.001780834    1.662    0.398
       137  -9.0332     47.3373     47.2722   1.0052930432e+02   6.1188361227e+01    0.1258504   0.08265056  -2.30 0.0003295069    1.603    0.376
       138  -9.5644    135.4394     46.2177   7.4476003932e+01   4.4873870622e+01    0.1685073     0.125464 -50.20 0.0003299333    1.504    0.335
       139 -11.2918     25.9704     43.5434   1.0777331464e+02   6.4249608765e+01    0.3803182    0.2521791  36.82  0.002363511    1.910    0.476
       140 -10.0994     25.7731     29.7414   1.0286809915e+02   6.6345330734e+01    0.1788485    0.1335988 -24.42 0.0004370006    1.203    0.169
       141  -9.6545     28.9412     27.8164   1.0077448889e+02   6.6262894653e+01    0.1485183    0.1152752   4.23 0.0002548109    1.092    0.084
       142 -10.7755     22.9434     38.6761   1.0736007165e+02   6.5314552350e+01    0.1913963    0.1612328 -23.71 0.0004424582    1.231    0.187
       143 -11.3366     26.6315     35.1140   1.0450700922e+02   6.5480002226e+01    0.3259305    0.1901621 -12.24  0.001243404    1.732    0.423
       144 -10.6823    181.0904     41.3544   6.5227731387e+01   3.4994307856e+01    0.2904397     0.265046  19.76  0.001370522    1.453    0.312
       145 -10.2097     95.0426     42.1654   8.2984329356e+01   5.4001441092e+01    0.1916643    0.1681878  25.16 0.0008838373    1.018    0.018
       146 -10.0108     69.6286     41.7008   9.0584982723e+01   5.8679138553e+01    0.2519028    0.1663245   8.06 0.0008490686    1.697    0.411
       147  -9.8159      2.7492     42.2600   1.1736031781e+02   6.6361538900e+01    0.2270703    0.0890372  14.63  0.001183844    2.751    0.637
       148 -10.6675    139.7419     40.6237   7.2003507592e+01   4.4624703891e+01    0.2394125    0.2070446  89.53 0.0005790875    1.218    0.179
       149 -10.0940     36.1984     41.1914   1.0274636025e+02   6.3506686152e+01    0.1867404     0.135722  -9.44  0.001215142    1.189    0.159
       150  -9.3726     43.1379     40.6616   9.9802307815e+01   6.2734665685e+01    0.1630318   0.09679192  19.34 0.0006953281    1.656    0.396
       151 -10.1317    133.5288     39.1529   7.2822760307e+01   4.6213037884e+01    0.3371145    0.2072789  85.45   0.00152718    2.405    0.584
       152 -11.2527    134.1798     34.3583   7.1301060988e+01   4.6645778318e+01    0.2187039    0.1875235  37.04 0.0003552341    1.195    0.163
       153 -12.3164    122.4568     36.9905   7.4524015375e+01   4.8934752954e+01    0.6827329    0.4193341  66.03   0.00348156    1.703    0.413
       154 -10.9803     16.3440     33.3091   1.0831858495e+02   6.6752442756e+01    0.5527245    0.2460894  -0.99  0.002384627    3.749    0.733
       155 -10.5983     19.4497     31.8076   1.0639761793e+02   6.6688321767e+01    0.2409995     0.151045   4.42 0.0005095373    1.485    0.326
       156 -10.4733     91.5211     33.7435   8.1121448907e+01   5.5741194754e+01    0.2664327    0.2043104 -20.74 0.0007188395    1.393    0.282
       157  -9.9068     87.0995     31.6454   8.1638808572e+01   5.6837549888e+01    0.2765355    0.1649481  33.19  0.001226556    1.586    0.370
       158 -10.0858    145.0401     33.0733   6.8894007717e+01   4.4335059647e+01    0.1887879    0.1664882  67.06 0.0003352206    1.009    0.009
       159  -8.9753     50.3316     33.6612   9.4468066990e+01   6.2743865152e+01    0.1035632   0.09874009  84.74 0.0007051839    1.742    0.426
       160 -10.4873    166.2034     31.2360   6.4930302320e+01   3.9687966798e+01    0.2106238    0.1735773 -53.84 0.0003601376    1.281    0.219
       161 -11.3767     38.6025     30.9508   9.7990323475e+01   6.4683085350e+01    0.2619915    0.1647155   9.87 0.0002700691    1.538    0.350
       162 -11.2285     43.4164     30.3117   9.5840012397e+01   6.4142252129e+01    0.5887266    0.2901443  10.10  0.002585344    3.225    0.690
       163 -10.7726     43.4742     26.5217   9.4350824085e+01   6.4621556139e+01    0.2783442     0.180296  23.92  0.001546423    1.363    0.266
       164  -9.9228    187.7768     30.1947   6.1698403560e+01   3.4873862903e+01    0.2264169    0.1943403  60.23   0.00146353    1.264    0.209
       165  -9.7876     77.1540     31.0827   8.4378367903e+01   5.8739112038e+01    0.1811154    0.1426402  14.31 0.0003501084    1.166    0.143
       166  -9.8584    204.9973     30.4961   5.9707716139e+01   3.0981805398e+01    0.1849625   0.09175276 -84.63 0.0008104361    2.540    0.606
       167 -10.8277      2.8893     34.6756   1.1486032596e+02   6.7598767463e+01      0.43475    0.1522782 -36.72  0.002248344    2.276    0.561
       168 -12.0760      8.3125     29.1690   1.1045295665e+02   6.8052980962e+01    0.2303992    0.2044877   8.43  0.001832247    1.460    0.315
       169  -9.7853     69.5626     28.5234   8.5835878722e+01   6.0367859617e+01     0.167306    0.1406811  11.31 0.0005470748    1.049    0.047
       170  -9.7897    229.5570     26.2534   5.6344647779e+01   2.6245948355e+01    0.1453222    0.1141275 -32.13 0.0009416135    1.691    0.409
       171  -9.4589    147.0173     26.4597   6.6735999701e+01   4.4632281329e+01    0.1843102    0.1114317  64.47 -2.978192e-05    1.440    0.306
       172 -10.2640    100.7784     25.6834   7.5979389874e+01   5.4803401912e+01    0.1988032    0.1528381 -62.04  0.001156967    1.836    0.455
       173 -10.1285     17.6866    249.3240   1.4335130314e+02   1.9162995404e+01    0.1256495   0.06499728  67.84 0.0007041017    1.661    0.398
       174 -10.2855     74.7473     16.3969   7.9731781437e+01   6.0753281114e+01    0.2391703    0.1554659  17.40  0.000667577    1.567    0.362
       175  -9.4448     18.3721     26.2895   1.0479716560e+02   6.7583424949e+01     0.118577   0.06793316  -8.38 0.0007022207    1.719    0.418
       176  -9.6605    153.7692     25.5794   6.5393869580e+01   4.3186993895e+01    0.1810901    0.1103147  76.84 0.0005898179    1.626    0.385
       177 -10.8133    113.7462     24.1410   7.2464076569e+01   5.2256927138e+01    0.2626113    0.2067495   8.84  0.001031041    1.457    0.314
       178 -12.4141     11.0202    244.6566   1.4423397601e+02   2.0848176429e+01    0.5182649    0.3459069 -31.29  0.002787819    3.455    0.711
       179 -11.1822      2.1323     20.8140   1.1026412565e+02   6.9745513129e+01    0.2743338    0.1876667 -18.89  0.002052786    1.074    0.069
       180 -10.0784     20.0247     16.8203   1.0026958450e+02   6.8668143743e+01    0.1842899    0.1272366  19.98 0.0004430135    1.337    0.252
       181 -11.0850     13.3408     20.8767   1.0497473482e+02   6.8803412793e+01    0.2331687    0.1871784 -27.09  0.001074624    1.361    0.265
       182  -9.6405    136.3801    245.7264   1.1927757180e+02   2.9212978927e+00     0.139627   0.09433781  60.89 0.0006999281    1.701    0.412
       183  -9.7388     84.9353     21.1006   7.8537885150e+01   5.8399604530e+01     0.198595    0.1192416  29.14 0.0006396709    1.634    0.388
       184  -9.9460     30.9618     20.4253   9.6984507030e+01   6.6984019550e+01    0.1726907    0.1200426 -17.89 0.0005968094    1.253    0.202
       185  -9.3159    131.6962     20.6740   6.7811285531e+01   4.8689650915e+01    0.1290195   0.08509976  35.97 0.0007033103    1.644    0.392
       186 -10.5393    100.3037     19.1089   7.3906613074e+01   5.5566096630e+01    0.2752643    0.2035134 -58.18  0.001349902    1.907    0.476
       187  -8.9860     45.2691    244.3331   1.3785259357e+02   1.6915266755e+01    0.1094371   0.09114575 -53.56 0.0003143666    1.588    0.370
       188  -9.3983    199.6692     17.2974   5.7466386621e+01   3.3710603360e+01    0.1285114   0.07710285 -74.12 0.0005329367    1.640    0.390
       189 -10.5053    108.3553     16.4274   7.1191903893e+01   5.4153916065e+01    0.1759748    0.1536883  -1.90  0.001193105    1.283    0.221
       190  -9.9861     26.7476     16.4925   9.7164344807e+01   6.7961065630e+01    0.1727039    0.1323828  12.72 0.0007008241    1.164    0.141
       191 -12.0493      5.0253    241.0732   1.4507316844e+02   2.2214915498e+01    0.3692983    0.1730296  50.03  0.002150272    1.822    0.451
       192  -9.5180     60.6487    241.1618   1.3452495210e+02   1.5554498818e+01    0.2381987   0.07834002  38.97 0.0009788244    2.719    0.632
       193 -10.0311     62.6677     16.6628   8.3587351055e+01   6.2824179767e+01    0.1261902   0.07470284  18.40 0.0004939902    1.739    0.425
       194 -10.1947     49.1610     15.9900   8.8001877832e+01   6.5029366587e+01    0.1574452     0.143008   7.23 0.0005974683    1.328    0.247
       195  -9.6227    202.5737    240.2498   1.0470119298e+02  -6.7644315243e+00    0.1719342    0.1144091 -27.38 0.0008328037    1.536    0.349
       196  -9.9547    229.6795    248.0786   1.0081890801e+02  -1.1884375688e+01    0.1714488     0.133808 -17.60 0.0007398468    1.147    0.128
       197 -11.7821     26.3307    235.8257   1.4079349176e+02   2.1028658761e+01    0.3141556    0.2475273 -83.45  0.001371095    1.189    0.159
       198  -8.8522    204.3374    235.3163   1.0350057178e+02  -6.2032590405e+00    0.1370814    0.0931399  -1.76 0.0007048117    1.699    0.412
       199 -11.9249      4.1284    232.5020   1.4469863959e+02   2.4112186852e+01    0.3228643    0.1856694  69.23 0.0002762848    1.441    0.306
       200 -10.7650    231.7823     14.1297   5.3853901353e+01   2.7240292850e+01    0.1762972    0.1205874 -72.87 0.0004164141    1.174    0.148
       201 -10.2012    190.6636     13.9249   5.7700549943e+01   3.6068879638e+01    0.1689172    0.1352484 -76.64 0.0007094644    1.120    0.107
       202 -13.1164     10.0013    228.7996   1.4336691485e+02   2.4318817334e+01    0.6913403    0.4320762  69.15  0.004356393    1.330    0.248
       203  -9.9731    249.1893    234.0961   9.4840938027e+01  -1.2349619507e+01    0.1824135    0.1345965  -9.10 0.0004516717    1.169    0.144
       204 -10.1135    140.1320    227.6926   1.1574630309e+02   5.8873448599e+00    0.2955768    0.1694984 -54.22  0.001372407    1.887    0.470
       205 -10.0210     32.9593    225.1539   1.3861231459e+02   2.2606778454e+01    0.3238245   0.08514624  45.93  0.001279875    3.202    0.688
       206 -12.0823      8.2077    217.4630   1.4290054838e+02   2.6994627251e+01    0.3780501    0.2522547  88.88  0.002412807    1.181    0.154
       207 -10.7407     16.0537    212.7713   1.4097812540e+02   2.7267761206e+01     0.195588    0.1792022 -28.77  0.001358482    1.611    0.379
       208 -10.3761     20.5814    209.9356   1.3981109539e+02   2.7448328692e+01    0.2255263    0.1382727  58.83 0.0003455454    1.515    0.340
       209  -9.6486    246.7941    207.2587   9.0380029255e+01  -7.7488777032e+00    0.2076804   0.08337004 -33.37 0.0008739203    2.410    0.585
       210 -10.7065      3.0575    205.3187   1.4301612254e+02   3.0219257262e+01    0.1645202    0.1525498 -47.44  0.001197249    1.497    0.332
       211 -10.4489    241.6745     11.3214   5.2567946867e+01   2.5572691079e+01     0.123441    0.0643774 -69.55 0.0003852313    1.683    0.406
       212  -9.5845    196.8783    203.8711   9.9257913951e+01   7.6083419006e-01    0.1850201     0.173205  89.48 0.0006131674    1.339    0.253
       213 -11.4750      9.4467    203.6139   1.4158069432e+02   3.0018573971e+01    0.2286965     0.187539 -81.73    0.0009199    1.148    0.129
       214  -9.3512    123.4742    198.4927   1.1469749886e+02   1.5271007026e+01    0.1471619    0.1421321  72.55 0.0003476809    1.014    0.013
       215 -10.3708     23.0310    197.4079   1.3813863098e+02   3.0123797433e+01    0.2336148    0.1486072 -62.38 0.0005450209    1.473    0.321
       216 -12.1130     13.5574    194.8463   1.3996036889e+02   3.1671883436e+01    0.4040259      0.19562 -73.00  0.002083074    1.683    0.406
       217  -9.9676     15.3942    185.5978   1.3868452981e+02   3.3695022524e+01    0.2469628     0.104374 -78.47  0.001115021    2.097    0.523
       218 -11.9263      5.3826    167.8728   1.3923125529e+02   3.8813417218e+01     0.327737    0.2155886  67.66  0.001381976    1.553    0.356
       219 -10.7938     14.5086    164.0128   1.3660896414e+02   3.8993151265e+01    0.2070834    0.1039352 -70.17  0.001034569    1.600    0.375
       220  -9.5308    226.6422    163.7242   8.5395445053e+01   3.3931035504e+00    0.1394687     0.106328  -3.73 0.0007006777    1.654    0.396
       221  -9.5471     41.4516    157.9642   1.2887629335e+02   3.7830794936e+01    0.2108326    0.1195101 -67.37 0.0007345291    1.535    0.348
       222  -9.3371    247.4729    155.5193   8.0191063647e+01   1.3594692280e+00    0.1362078    0.1149066 -38.17 0.0001237733    1.019    0.019
       223 -11.2557      2.8366    153.8945   1.3837633830e+02   4.2357546464e+01     0.242989    0.1760796  36.75  0.001532664    1.642    0.391
       224 -11.1922     24.1062    150.7277   1.3247142577e+02   4.1395139050e+01    0.2564863     0.216667 -31.84 0.0007242776    1.390    0.281
       225 -10.8047     15.9517    150.4973   1.3460372296e+02   4.2164418302e+01    0.1709575    0.1318322  21.68  0.001041974    1.624    0.384
       226 -10.8743     22.2935    143.1957   1.3190136162e+02   4.3404746260e+01    0.2493604    0.1332514 -62.98  0.001255495    1.507    0.336
       227 -11.8087      2.2539    138.1493   1.3668728444e+02   4.6156421569e+01     0.344272    0.2394815  85.41  0.002022106    1.454    0.312
       228 -11.2374      3.0482    133.3622   1.3586150995e+02   4.7239483415e+01    0.3342077    0.1807887  45.83  0.001785041    2.238    0.553
       229  -9.6510    214.8252    140.8231   8.2672982791e+01   1.0134852251e+01    0.1982089    0.1672757 -72.72 0.0007301458    1.298    0.230
       230 -10.8908     11.7434    141.4236   1.3454241633e+02   4.4699732188e+01    0.2036521    0.1201436  30.42 0.0007874522    2.006    0.501
       231  -9.9814    215.8392    135.6440   8.1365272822e+01   1.0966767464e+01    0.3255311    0.2023855  64.15  0.001122778    2.070    0.517
       232  -9.5779    212.3622    133.7241   8.1565457313e+01   1.2044667418e+01    0.2162602    0.1401788  56.24 0.0007053195    1.740    0.425
       233 -11.6849      8.9841    135.5022   1.3450387420e+02   4.6325142583e+01    0.2559414    0.1562733 -68.50 0.0005065832    1.310    0.236
       234  -9.9300     35.2963    130.6570   1.2617062722e+02   4.5243072009e+01    0.2335564    0.1276624 -47.71 0.0005731785    1.651    0.394
       235 -11.5509     12.2045    129.8196   1.3279178866e+02   4.7447314571e+01    0.4028797    0.2169312  59.24   0.00189466    2.574    0.611
       236 -10.0809     28.9338    128.2891   1.2765044927e+02   4.6429466769e+01    0.1752609    0.1598329 -56.35  0.000398332    1.089    0.082
       237 -11.9109     23.2052    121.0056   1.2811878415e+02   4.8675128441e+01    0.5242323    0.3061122  83.60 0.0007784593    2.580    0.612
