#   1 NUMBER                 Running object number                                     
#   2 MAG_AUTO               Kron-like elliptical aperture magnitude                    [mag]
#   3 X_IMAGE                Object position along x                                    [pixel]
#   4 Y_IMAGE                Object position along y                                    [pixel]
#   5 X_WORLD                Barycenter position along world x axis                     [deg]
#   6 Y_WORLD                Barycenter position along world y axis                     [deg]
#   7 A_WORLD                Profile RMS along major axis (world units)                 [deg]
#   8 B_WORLD                Profile RMS along minor axis (world units)                 [deg]
#   9 THETA_WORLD            Position angle (CCW/world-x)                               [deg]
#  10 FWHM_WORLD             FWHM assuming a gaussian core                              [deg]
#  11 ELONGATION             A_IMAGE/B_IMAGE                                           
#  12 ELLIPTICITY            1 - B_IMAGE/A_IMAGE                                       
         1 -14.9107    196.5137     51.7212   2.6248150946e+01   2.8385928649e+01     8.321467     4.396411 -45.46   0.03274512    1.929    0.482
         2 -13.1963    243.0574     13.3549   1.1022377803e+01   2.1890902921e+01     3.072174    0.7667806 -48.15   0.01086051    3.618    0.724
         3 -14.5007    236.6028     35.1883   1.6675688088e+01   2.0705090624e+01      3.83338     1.715293 -35.14   0.01105971    2.100    0.524
         4 -14.6544    241.9341    136.7142   4.0037781633e+01   3.7548726317e+00      5.22036     4.402568  -0.59   0.02964056    1.180    0.153
         5 -12.8742    216.5106     36.3602   1.9311252114e+01   2.5438568754e+01     1.200813    0.8984448 -75.79  0.006353222    1.348    0.258
         6 -10.9696    139.2720     44.9816   3.5203875303e+01   4.4119341085e+01    0.3618726    0.2936516  -9.63  0.001467936    1.359    0.264
         7 -12.9571    222.7097     23.1790   1.5285568258e+01   2.5572280174e+01     1.231958    0.8059244 -11.62  0.005094902    2.156    0.536
         8  -9.6776    183.1631     22.8276   2.0127741759e+01   3.5690445507e+01     0.550816    0.3968447  76.66  0.001747222    1.313    0.238
         9 -10.4943    179.2347     23.0229   2.0758320220e+01   3.6693376876e+01    0.5758728    0.4942608 -72.77  0.003232416    1.186    0.157
        10  -9.8584    202.8148     18.1737   1.6271760932e+01   3.1147557195e+01    0.4716337     0.292121 -59.45  0.002299616    1.691    0.409
        11 -14.8540    246.1281     81.5310   2.6526352098e+01   1.1788679409e+01     2.524827     1.754643 -27.75   0.01291603    1.451    0.311
        12  -8.8604    189.9775     14.8436   1.6956609041e+01   3.4817627139e+01      0.24752    0.1923814 -57.43 0.0007557543    1.311    0.237
        13 -10.5502    120.1709      9.3675   2.6885917630e+01   5.3080643754e+01    0.3440288    0.3060125 -19.48 0.0009600987    1.244    0.196
        14  -9.0297    185.9117      6.1789   1.5066985222e+01   3.6764236474e+01    0.2148475    0.1703155 -76.52 0.0006756234    1.238    0.193
        15  -9.8613    181.4598      4.5833   1.5166337843e+01   3.8066695568e+01    0.3630517    0.2352427  39.61  0.001636373    1.765    0.433
        16  -9.6073    205.1173      6.0968   1.2884166986e+01   3.1873290607e+01    0.2767248    0.2030824  11.04  0.001044687    1.969    0.492
        17 -10.0903    105.4892      3.5866   2.8011026300e+01   5.6989221176e+01    0.4529512    0.1890037 -12.10  0.001847307    3.012    0.668
        18  -9.6897     93.3212      5.2177   3.1796538243e+01   5.9480706246e+01     0.232817    0.1681269  26.60 0.0005483992    1.242    0.195
        19  -9.1047    246.7109      3.1090   8.4844885612e+00   2.2205687040e+01     0.263444    0.2344444 -57.54   0.00178639    1.185    0.156
        20  -9.2162    118.8390      3.1493   2.4839967805e+01   5.3958177991e+01    0.2199516    0.1610591  33.66 0.0005147337    1.271    0.213
        21  -9.2559    211.7736      1.7273   1.1126844644e+01   3.0654340088e+01    0.3798639    0.1669449  87.68  0.001245899    2.505    0.601
        22  -8.7120    171.8281      2.2140   1.5709141907e+01   4.0772089506e+01     0.212233    0.1685139 -77.57  0.001138893    1.283    0.221
        23  -8.0841    245.3197    193.6837   5.1417263113e+01  -5.4766274614e+00    0.1113726    0.1058936 -82.56 0.0004425458    1.658    0.397
        24 -11.4826     45.1548    248.0790   9.6519264409e+01   1.8751152152e+01    0.4423196    0.2493292  67.08  0.003002432    1.375    0.273
        25 -11.8076    212.9466    187.7898   5.6233578206e+01   1.1562547620e+00    0.9515233    0.4494204  34.56  0.004100993    2.080    0.519
        26 -11.3885    212.8704    178.6427   5.4428825430e+01   2.6338404122e+00     0.720929    0.4766799 -24.59  0.003629284    1.621    0.383
        27 -10.7519    206.7338    179.6755   5.5835103492e+01   3.6575650206e+00    0.4164253    0.3047695 -61.80  0.001456799    2.036    0.509
        28 -13.3458    227.5783    173.9492   5.0679425199e+01   5.7204554596e-01     2.514565     1.150839  41.31  0.006862775    2.088    0.521
        29  -9.7985    133.6444    247.8179   8.1045198631e+01   5.9108210628e+00     0.416174    0.2239799  72.13    0.0018469    3.389    0.705
        30 -10.0495    106.2812    243.0643   8.5521301789e+01   1.1048416388e+01    0.2082618    0.1846488  83.09  0.000519907    1.245    0.197
        31  -8.7370    207.0666    171.4928   5.4097796610e+01   4.9637951580e+00    0.2195929    0.1328507  42.92 0.0007484116    1.565    0.361
        32  -8.5907     86.3199    169.1075   8.0500690234e+01   2.8773114378e+01    0.1809241    0.1552402 -84.29 0.0003483809    1.086    0.079
        33  -8.2321    165.5215    167.4738   6.1953744016e+01   1.4258033669e+01    0.1488294    0.1381195  50.40  0.000809148    1.053    0.050
        34  -9.4115    222.9149    162.7131   4.9186734567e+01   3.2772184781e+00    0.2558802    0.2269304  46.65 0.0005929751    1.248    0.199
        35 -10.9128    196.6285    159.6506   5.3684571360e+01   9.1888640539e+00    0.4148082    0.3871203  36.50  0.001254216    1.074    0.068
        36 -11.4839    190.7237    154.0559   5.3680732102e+01   1.1478389192e+01    0.7329947    0.5893349  58.91  0.003706342    1.373    0.272
        37  -9.2883    167.4180    153.5475   5.8608038389e+01   1.6623612996e+01    0.2983179    0.2310248 -79.44 0.0007702891    1.749    0.428
        38 -11.8210      2.9309    146.3904   9.7129444584e+01   4.3441584502e+01    0.7641594    0.2517532 -74.71   0.00366833    2.329    0.571
        39 -10.5014    133.9088    145.3356   6.4663846416e+01   2.5469349361e+01     1.140633    0.3095777 -54.79   0.00284871    5.336    0.813
        40 -10.2614    203.7606    152.6198   5.0695394064e+01   8.9486182237e+00    0.4344733    0.3362344 -67.93  0.001592199    1.804    0.446
        41  -9.6790    179.2563    147.0095   5.4545311565e+01   1.5332644385e+01    0.2089172    0.2027003   1.31 0.0004453817    1.040    0.038
        42 -11.1727     67.8319    143.9639   8.1118646890e+01   3.7274226934e+01    0.7097161    0.4205243  64.09   0.00325812    1.994    0.498
        43 -12.8804     62.3687    131.6905   8.0511083380e+01   4.0885285723e+01     1.960576     1.289832  37.95   0.01044948    1.651    0.394
        44  -9.4280    203.7465    143.5599   4.8648422512e+01   1.0592254860e+01    0.2622595    0.2440786  64.27 0.0009605283    1.204    0.169
        45  -9.6476    200.9753    139.9184   4.8361600499e+01   1.1869003990e+01    0.3784856    0.2468144 -55.86  0.001130208    1.937    0.484
        46  -9.9193    192.5989    144.0052   5.1022281841e+01   1.2958937567e+01    0.3490058    0.2167652  43.19 0.0005536583    1.566    0.362
        47 -11.3893     14.3165    142.9923   9.4205329861e+01   4.3314597565e+01    0.3086082    0.1923873 -77.16  0.001703601    1.269    0.212
        48 -10.2859    154.8482    134.1642   5.7100451424e+01   2.3392868596e+01    0.3883953    0.2899644 -38.52 0.0006077799    1.405    0.288
        49  -7.7513    198.2888    135.2875   4.7817011946e+01   1.3328482808e+01    0.1511414     0.117331   9.77 0.0001639962    1.536    0.349
        50 -11.6069     48.5240    134.9831   8.4705474374e+01   4.1814801232e+01    0.5887027     0.342794 -68.69  0.001675544    1.505    0.335
        51  -9.1476    190.2146    131.4617   4.8565794690e+01   1.5885342749e+01    0.3807063    0.2381543 -71.92  0.001323867    3.151    0.683
        52  -9.6339    198.1616    130.1559   4.6617155747e+01   1.4317719821e+01    0.3500298     0.289606 -76.44 0.0009718287    1.543    0.352
        53 -11.2909    121.0895    112.4275   6.0266929831e+01   3.5438679106e+01    0.5275798    0.4302639 -43.54   0.00262378    1.226    0.184
        54 -10.6440    136.0244    127.7258   6.0157082499e+01   2.8906290575e+01    0.7643093    0.2135254 -51.69  0.002024671    4.368    0.771
        55 -11.9784    126.0992    105.9989   5.7256389566e+01   3.5796638696e+01     1.832351     1.056799  49.27   0.00756694    1.780    0.438
        56 -10.7733    135.0000    111.0451   5.6254868698e+01   3.2770583346e+01     0.874797    0.2342723 -44.30  0.002440324    3.757    0.734
        57  -9.8894    160.5435    128.6481   5.4440509982e+01   2.3266375906e+01    0.4505716    0.3699442 -38.16  0.001798184    1.257    0.205
        58  -7.9027     91.2589    129.6240   7.2321989804e+01   3.7071174514e+01    0.1482283     0.108244  88.89 0.0006461521    1.660    0.398
        59 -10.7885    134.9438    102.3883   5.3958870045e+01   3.4632706435e+01    0.5885039    0.3867247 -33.47  0.001743357    1.658    0.397
        60 -12.2638     33.0221    137.7840   8.9065757661e+01   4.2817134400e+01    0.5120282    0.3938126  30.01  0.001514422    1.588    0.370
        61  -9.7876    211.1594    136.1506   4.5473983647e+01   1.0311319626e+01    0.3951949    0.2100867 -30.50  0.001604098    2.004    0.501
        62 -10.0081     25.0507    243.9594   9.9506682889e+01   2.1818793873e+01      0.13756    0.1215443 -69.99  0.001142605    1.725    0.420
        63  -9.2655    201.9461    125.9692   4.4846182107e+01   1.4233817453e+01    0.2275334    0.2205161 -52.44 0.0005942804    1.091    0.084
        64  -9.1685    179.4142    124.4529   4.9154116349e+01   1.9751835007e+01    0.2548043    0.2466241 -82.23 0.0001550307    1.097    0.089
        65 -12.6852     41.2993    135.3544   8.6633111448e+01   4.2529182236e+01    0.9089296    0.6143739 -78.66  0.003316619    1.315    0.239
        66 -13.8789    234.6597    102.9559   3.3359544533e+01   1.0870573358e+01     2.245396     1.244145 -55.95  0.005273031    2.335    0.572
        67  -8.3931    205.8301    122.1015   4.3141442149e+01   1.4055977617e+01    0.2206104    0.2010881 -71.17 0.0004148247    1.241    0.195
        68  -9.4208    199.6148    144.2903   4.9647394873e+01   1.1361266347e+01    0.3375559    0.1831625 -37.37  0.001400735    1.874    0.466
        69 -10.1141    201.7303    116.3593   4.2520275111e+01   1.6062199523e+01    0.4601506    0.3834012  71.84  0.002282603    1.378    0.274
        70  -9.6923    218.9746    113.7936   3.8654853435e+01   1.2541364721e+01    0.4651648    0.3204236 -69.64  0.001981623    2.131    0.531
        71  -9.1236    215.8097    107.4962   3.7668315309e+01   1.4374137601e+01     0.345202     0.200119 -26.76  0.001087283    1.899    0.473
        72  -9.5771    213.8446    115.3722   3.9974298191e+01   1.3432754426e+01    0.2589481    0.2342498 -44.91  0.000572142    1.115    0.103
        73 -10.0374    126.2539    114.8496   5.9508964578e+01   3.3825723770e+01    0.2736163     0.209594  56.30 0.0006281254    1.373    0.272
        74 -10.2308     60.8915    114.9079   7.7846420297e+01   4.5013919004e+01    0.2046652    0.1886408 -78.34  0.001264847    1.060    0.056
        75  -9.4085    114.3290    113.4897   6.2360917365e+01   3.6569651157e+01    0.2669583    0.1387786 -48.67 0.0007258052    1.892    0.471
        76 -10.0053    156.8075    110.2624   5.0653936059e+01   2.7948097224e+01    0.2729335    0.2147543 -52.01 0.0006186282    1.332    0.249
        77  -9.9254    227.4142    116.6842   3.7868354405e+01   1.0152285757e+01    0.5101826    0.3627552 -78.12  0.002258738    2.197    0.545
        78 -11.0101    143.8860     98.8915   5.0719163926e+01   3.3318423020e+01    0.8057526    0.4217454 -46.80  0.002161871    1.975    0.494
        79  -9.3514    110.4558    108.3195   6.2123679363e+01   3.8490837031e+01     0.263479    0.2439817  54.59 0.0008388098    1.109    0.098
        80 -10.4045    149.7436    107.0385   5.1495724741e+01   3.0270574012e+01    0.3587725    0.3367946  10.76 0.0006745688    1.128    0.113
        81  -9.8134    120.5582     96.5765   5.6191033327e+01   3.9001400820e+01    0.2999659     0.245002 -62.64  0.001300909    1.350    0.259
        82  -9.9226    138.7196     90.0804   4.9524781373e+01   3.6309963739e+01    0.3950541    0.2484714 -49.25  0.000793063    1.685    0.407
        83 -10.1917    157.8606     87.2383   4.4044324729e+01   3.2277270881e+01    0.5593779    0.2266509 -34.66    0.0013616    2.687    0.628
        84 -11.0044    134.9465    119.9673   5.8541108057e+01   3.0841647687e+01    0.5510193    0.3969631 -45.15  0.001522854    1.401    0.286
        85 -11.0520     40.1359    247.6620   9.7306990570e+01   1.9432916098e+01    0.3162929    0.1804845  63.10  0.001545084    1.289    0.224
        86  -9.7533    165.5220     82.8393   4.1045556311e+01   3.1197702173e+01    0.5278659    0.2328611 -45.35  0.001728527    2.410    0.585
        87  -9.0128    143.2329     85.1166   4.6937380470e+01   3.6230607718e+01     0.314262    0.2290951  58.38  0.001142824    1.445    0.308
        88  -9.0826    198.5112     79.8120   3.3603625307e+01   2.3394636480e+01    0.3018624    0.2375173  18.72 0.0008967125    1.593    0.372
        89 -10.0479    153.2562     77.2461   4.2181391206e+01   3.5284515149e+01     0.340186    0.2525937 -47.60 0.0004135687    1.414    0.293
        90 -10.1746    136.5782     69.3090   4.3787436485e+01   4.0782175332e+01    0.4505672    0.3081012  69.81 0.0003414174    1.864    0.463
        91 -10.0671    140.4731     77.9840   4.5492275676e+01   3.8254572168e+01    0.4718932    0.3244756   7.15  0.001618226    2.212    0.548
        92  -9.3898    140.6654     73.7541   4.4149854070e+01   3.8996491458e+01    0.2852811    0.2197845 -33.72 0.0003920119    1.329    0.248
        93 -11.7288    198.9141     31.8633   2.0436642562e+01   3.0495606798e+01    0.6520413    0.5138686 -65.72  0.002064454    1.279    0.218
        94 -12.3664    159.3873     96.6477   4.6353510286e+01   3.0077127624e+01     1.508267     0.862678 -43.14 0.0007678758    1.772    0.436
        95 -14.1076    198.7953     94.1125   3.7369113818e+01   2.0823990494e+01     4.325078     1.026574  45.94   0.01095548    4.805    0.792
        96  -8.0975    126.7183     73.6739   4.7723984518e+01   4.2268898735e+01    0.1546487    0.1195462   5.15  0.000224413    1.598    0.374
        97  -9.2432    158.5626     71.3193   3.9192676219e+01   3.5022257431e+01    0.2767349    0.1497047 -39.68 0.0007452039    1.877    0.467
        98 -11.3526    152.8873     63.3026   3.8011171955e+01   3.7828827009e+01    0.8219783    0.3408639 -33.24  0.002069305    2.542    0.607
        99 -11.8665     59.1373    232.6430   9.3053707954e+01   1.9699102166e+01    0.5724471    0.4378939  41.37  0.002494645    1.501    0.334
       100  -9.6435    163.1384     66.8556   3.6850646382e+01   3.4631139668e+01    0.2887006    0.2268147 -45.02 0.0003500843    1.319    0.242
       101 -10.9470    161.5448     61.5312   3.5575381687e+01   3.5925107931e+01    0.5416051    0.3996406  77.26  0.002478398    1.577    0.366
       102  -9.3708    102.0554     64.0669   5.1649342052e+01   4.9337347013e+01    0.2453514    0.2286352 -74.95  0.001368394    1.293    0.226
       103  -9.6461    142.8667    179.8535   6.9336711635e+01   1.6369311473e+01    0.2205817    0.2091438  52.09 0.0003557609    1.053    0.050
       104  -9.4131    216.5266     62.2568   2.5985447745e+01   2.1731175287e+01    0.3091953    0.2318276 -36.41  0.001003665    1.318    0.241
       105 -10.5581    144.2947     59.3591   3.8742861346e+01   4.0629375065e+01    0.3413219    0.3056176 -53.67 0.0005677229    1.207    0.172
       106 -12.7261    177.2605     89.1987   4.0323660127e+01   2.7078099883e+01     1.682971     1.067566  -5.38  0.001222621    2.751    0.636
       107  -9.4157    135.1363     59.7017   4.1069185577e+01   4.2802145310e+01    0.2441427    0.1966609  70.09 0.0007418023    1.411    0.291
       108  -8.0529     72.5330     58.4393   5.9358601835e+01   5.5653277565e+01      0.13597    0.1213193 -18.97 9.362181e-05    1.010    0.010
       109 -10.9221    178.4597     53.1189   2.9725866341e+01   3.2869014361e+01    0.5664085    0.3975381  17.07  0.001690966    1.994    0.498
       110  -9.5836    196.4651    176.1593   5.7176387038e+01   6.2892100216e+00    0.3436117    0.2310823  80.37   0.00132776    3.283    0.695
       111 -10.9562    153.5664     43.8756   3.1718168494e+01   4.0682568625e+01    0.4374556    0.3794064  73.86  0.002313861    1.183    0.155
       112 -10.1335    149.9945     40.2204   3.1277798843e+01   4.2108794734e+01    0.2774345    0.2236053 -27.02 0.0003697459    1.325    0.245
       113 -12.1757    162.8900     51.1707   3.2114857031e+01   3.7210452414e+01    0.9397036    0.7143618  55.32  0.001212109    1.244    0.196
       114 -10.1701    151.1751     54.5652   3.5645945828e+01   3.9683527502e+01    0.3025283    0.2661292  29.11 0.0009696468    1.169    0.145
       115 -10.6200    147.9531     51.7696   3.5465695478e+01   4.0931941498e+01    0.3412492    0.3201582 -51.88  0.001220521    1.138    0.121
       116  -8.7963     77.8704     46.1635   5.3204809514e+01   5.6996912556e+01    0.3351077   0.08391435 -38.21  0.001053191    3.929    0.745
       117 -10.4600    158.0016     46.0143   3.1490808880e+01   3.9235841483e+01    0.4777611    0.2871489  32.31  0.001581789    2.064    0.516
       118  -9.5708    125.4858     44.5520   3.8393005129e+01   4.7505821265e+01    0.4103295    0.1532969 -23.02  0.001223687    4.134    0.758
       119 -11.6760     66.9987    235.0121   9.1851597935e+01   1.8215360533e+01    0.4687691      0.39362  82.32  0.003508399    1.221    0.181
       120  -9.4259     91.1589     42.2294   4.7340620173e+01   5.5234825908e+01    0.3527996    0.1870355 -35.60  0.001362942    1.859    0.462
       121 -11.0683    133.0934     39.4250   3.4755385571e+01   4.6430754812e+01    0.3657044    0.2934439 -61.64  0.001865226    1.533    0.347
       122  -8.4115     87.4891     38.5391   4.7122313478e+01   5.6508994017e+01     0.138208    0.1215461   4.83 7.718634e-05    1.011    0.011
       123 -10.5061    142.8055     44.6088   3.4276115540e+01   4.3297181249e+01    0.3125263    0.2447305  75.54  0.001543581    1.442    0.307
       124  -7.9773    236.6322    232.2897   5.9923201375e+01  -8.9950477435e+00    0.1078148   0.09044843  51.13 0.0007024303    1.709    0.415
       125  -9.7066    123.2330     37.8142   3.6589821032e+01   4.9009976582e+01    0.2378162    0.1549256 -70.49 0.0009491904    2.776    0.640
       126 -10.3172    165.0194     25.8828   2.3874744523e+01   4.0070433606e+01    0.5163371    0.3071483 -57.99  0.002248076    2.101    0.524
       127  -9.2337    169.5312     22.4633   2.2084983908e+01   3.9292906017e+01    0.4118637    0.2491226 -15.60  0.001874142    2.051    0.513
       128 -10.0767    158.9959     22.7835   2.3938341015e+01   4.1996422076e+01    0.3716768     0.264684 -30.80  0.001473107    1.523    0.343
       129  -9.4576    165.2806     20.5873   2.2195592071e+01   4.0613304200e+01    0.4223653    0.2701039  82.74    0.0017313    1.713    0.416
       130  -9.6380    161.0631     18.7005   2.2300992903e+01   4.1917351464e+01    0.2947353    0.2596793  54.40 0.0009047794    1.063    0.059
       131 -13.8323    233.0940     86.0822   2.9502422755e+01   1.3997565020e+01     1.208784    0.8262551 -56.35  0.002294271    1.574    0.365
       132  -8.8092    130.9348    231.4519   7.9585730499e+01   8.9869200683e+00    0.1738383     0.148364  57.04 0.0003101519    1.075    0.070
       133  -8.9185    240.9098    228.6442   5.8557809068e+01  -9.2246355797e+00    0.1702743    0.1260704  24.61  0.000706493    1.100    0.091
       134  -9.4413    197.6997     18.9559   1.7103588217e+01   3.2368124758e+01    0.3115813    0.2269359  46.92 0.0009196521    1.484    0.326
       135 -10.2668    204.5842     23.0938   1.7352471928e+01   3.0122280495e+01    0.3753464    0.2643807 -83.06  0.001322767    1.443    0.307
       136  -7.8461    217.6777    228.2929   6.2650133322e+01  -5.4762742737e+00    0.1120885   0.09358656  55.33 0.0007015588    1.613    0.380
       137  -9.1729    249.3196    221.9973   5.5945530415e+01  -9.7247168423e+00    0.1961642    0.1664079  44.87  0.001325573    1.626    0.385
       138  -8.3155    121.2976     19.6634   3.0461212589e+01   5.1749323787e+01    0.1351275    0.1077548 -66.18 0.0003466741    1.654    0.395
       139  -8.0023    187.2906     18.2270   1.8249314164e+01   3.5141024723e+01    0.1350044   0.09649251  47.66 0.0001671643    1.449    0.310
       140 -11.5943     35.5001    214.6474   9.5919606640e+01   2.6021417573e+01    0.7427717    0.4346599  51.51  0.004835473    1.447    0.309
       141  -8.5747    224.0392    218.5060   5.9823402494e+01  -5.2551018209e+00    0.1713407    0.1042817  57.38 0.0008096608    2.661    0.624
       142  -8.6355     75.2290    213.9590   8.8396720229e+01   2.1009181711e+01    0.1480141   0.09320959 -74.53 0.0004174333    1.598    0.374
       143  -9.2868    148.0082    175.7565   6.7446411755e+01   1.6180129076e+01     0.464567    0.2156164  55.21  0.001722057    2.552    0.608
       144 -10.1472    249.5868    210.9931   5.3926312274e+01  -8.4290980580e+00    0.2859108    0.2273285  41.29  0.001329527    1.497    0.332
       145  -8.8954    191.1430    211.9289   6.4902039541e+01   1.4393479297e+00    0.1919397    0.1640533  49.56 0.0004498295    1.249    0.200
       146  -9.6121    229.4511    207.6341   5.6892545504e+01  -4.7066502735e+00    0.2554007    0.1916318  48.41 0.0007665974    1.569    0.363
       147  -9.5248    207.1952    206.2987   6.0811427498e+01  -6.1857487450e-01     0.384223    0.2333028  60.07  0.001743217    2.589    0.614
       148  -7.8915     57.6870    208.2723   9.1250468110e+01   2.4545123216e+01    0.1243189   0.07182714  66.61  0.000214412    1.554    0.357
       149  -9.3438    247.1005    202.3778   5.2762438803e+01  -6.9326435610e+00    0.3801225    0.1526068  52.07  0.001346853    4.593    0.782
       150 -10.8701    193.2339    195.0492   6.1487900443e+01   3.7307715223e+00    0.9404477    0.5462324 -64.02  0.003584087    3.794    0.736
