#   1 NUMBER                 Running object number                                     
#   2 MAG_AUTO               Kron-like elliptical aperture magnitude                    [mag]
#   3 X_IMAGE                Object position along x                                    [pixel]
#   4 Y_IMAGE                Object position along y                                    [pixel]
#   5 X_WORLD                Barycenter position along world x axis                     [deg]
#   6 Y_WORLD                Barycenter position along world y axis                     [deg]
#   7 A_WORLD                Profile RMS along major axis (world units)                 [deg]
#   8 B_WORLD                Profile RMS along minor axis (world units)                 [deg]
#   9 THETA_WORLD            Position angle (CCW/world-x)                               [deg]
#  10 FWHM_WORLD             FWHM assuming a gaussian core                              [deg]
#  11 ELONGATION             A_IMAGE/B_IMAGE                                           
#  12 ELLIPTICITY            1 - B_IMAGE/A_IMAGE                                       
         1 -14.5165    162.7514     52.3028   7.7887553796e+01   3.7891777937e+01     2.534673     1.543829  13.19  0.007633236    2.345    0.574
         2 -13.8749    175.9750     35.5263   6.9707372243e+01   3.6779928577e+01    0.8778433    0.8482522  79.86  0.002539099    1.112    0.100
         3 -13.4036    180.3071     28.2750   6.6578921252e+01   3.6515412751e+01    0.6462507    0.5202569  24.19  0.001588071    1.291    0.225
         4 -12.6407    189.8518     14.8423   6.0829912215e+01   3.5436642116e+01    0.4098502    0.3126718 -40.85  0.001185392    1.356    0.262
         5 -13.8465    194.7858      4.2979   5.6928136148e+01   3.5126479815e+01    0.9958249     0.626943  68.85  0.004185116    1.509    0.337
         6 -10.4843     20.9784    215.5164   1.4110615134e+02   2.8605381666e+01    0.1694333    0.1119003  80.96  0.001080903    1.289    0.224
         7 -18.7238     64.0206    245.0760   1.3532364885e+02   1.9645388200e+01      5.50255     4.217332  40.55   0.04653486    1.305    0.234
         8 -10.4929    155.2428    197.2023   1.1362567483e+02   1.4360909817e+01    0.1699468    0.1328329  54.05  0.001063025    1.369    0.270
         9 -12.8904    193.5311    192.9111   1.0545671744e+02   8.6019635563e+00    0.6431999    0.4631099 -44.42  0.003165795    1.866    0.464
        10 -10.1584    180.0238    192.2937   1.0796334343e+02   1.0962207900e+01    0.1930832    0.1706526  62.35 0.0005588424    1.516    0.340
        11 -10.9885    167.5475    190.9691   1.1021990855e+02   1.3258112557e+01    0.3078217    0.2067734  17.77  0.001638236    1.612    0.380
        12 -11.1110    162.2159    209.8058   1.1404530006e+02   1.1411965250e+01    0.3002443    0.1723888  54.79  0.001587313    2.122    0.529
        13 -10.8268    159.2317    206.1606   1.1411532457e+02   1.2400477155e+01    0.2988729    0.1698689  45.06  0.001674177    1.521    0.343
        14 -10.8563    163.9148    204.8763   1.1302504914e+02   1.1834537715e+01    0.2021069    0.1768676  35.50 0.0004070343    1.142    0.124
        15 -12.5213    206.9416    180.2134   1.0069317271e+02   8.0028249319e+00    0.7591754    0.3491346  29.93   0.00274563    2.080    0.519
        16 -12.5685     12.3047    205.6102   1.4221375735e+02   3.1019051189e+01    0.3801097     0.252526  34.14  0.003000621    1.604    0.377
        17 -10.8536    196.6718    175.3625   1.0177238137e+02   1.0468524335e+01    0.3328531    0.2599132  73.82  0.001413913    2.337    0.572
        18 -12.0536    196.1710    171.0070   1.0105875879e+02   1.1177803196e+01    0.4344516     0.424275  66.63  0.001027494    1.438    0.305
        19 -10.3911     25.5336    206.3125   1.3990672309e+02   2.9740250733e+01    0.0969079   0.07258735  58.02 7.178953e-05    1.087    0.080
        20 -10.2610      1.6977    177.2040   1.4306598484e+02   3.6911410825e+01    0.1033636   0.08886082  73.80 0.0008842327    1.210    0.174
        21 -10.6741    194.4630    165.9603   1.0043352776e+02   1.2221740069e+01    0.2538381     0.225029  73.60   0.00092779    1.683    0.406
        22 -11.3585    230.8927    167.8959   9.3959049067e+01   5.4363517079e+00    0.4391007    0.1371107 -41.40  0.001458331    5.131    0.805
        23 -10.4232     22.2597    205.0373   1.4043329876e+02   3.0255294640e+01    0.1196536   0.08931611  64.16 0.0002876064    1.027    0.027
        24  -9.9275    201.1577    164.7743   9.8885253998e+01   1.1164858191e+01    0.1979232    0.1533827  87.00 0.0008057716    2.809    0.644
        25 -11.4834    121.3130    164.7347   1.1596698650e+02   2.5449284371e+01    0.3827687    0.1794935  49.87  0.001132598    2.173    0.540
        26  -9.1334     25.3247    162.2654   1.3749194606e+02   3.7939770221e+01   0.09566471   0.08007497 -47.42 0.0003374298    1.565    0.361
        27 -10.8692     14.0029    160.0186   1.3978142174e+02   3.9303213018e+01    0.1882616    0.1253745 -85.70 0.0004428128    1.273    0.214
        28 -10.9016    237.4229    159.2178   9.1073708172e+01   5.3831387003e+00    0.1695058    0.1149069 -32.55 0.0005945419    1.649    0.394
        29 -10.5782    223.8598    164.1243   9.4475741496e+01   7.1476469063e+00    0.1838642    0.1685228   8.62 0.0005040846    1.284    0.221
        30 -13.2006    134.0067    145.4946   1.0967503803e+02   2.6951527445e+01     1.148828     0.324886 -54.58  0.003261779    5.419    0.815
        31  -9.5593      5.5784    154.8360   1.4130099674e+02   4.0947584421e+01   0.08400461   0.07465369 -13.95 0.0006580404    1.641    0.391
        32 -10.5450     10.9670    152.3446   1.4000254628e+02   4.1068032290e+01    0.2990684    0.1341457  53.51  0.001524947    1.968    0.492
        33 -10.9932    174.6665    148.5902   1.0105606611e+02   1.8702959518e+01    0.3101604    0.2481945 -71.17  0.001317929    1.921    0.479
        34 -10.3092     33.0810    203.5843   1.3840278736e+02   2.9504073825e+01    0.1352859    0.0885419  34.81 0.0009778906    1.558    0.358
        35 -12.4916    145.2664    146.4017   1.0719933328e+02   2.4715494903e+01    0.5262893    0.3437127  57.30  0.002502607    1.816    0.449
        36 -12.4366    142.3838    138.9724   1.0639106906e+02   2.6659891942e+01    0.3623624    0.3075639 -65.06  0.001807438    1.410    0.291
        37 -10.1468      1.7669    147.6470   1.4176650324e+02   4.2645264446e+01    0.1965655   0.09522537 -75.72  0.001213409    1.729    0.422
        38 -12.2946      3.6482    112.7227   1.3921621987e+02   4.9892082768e+01    0.3649103      0.30021  37.85  0.002764396    1.414    0.293
        39 -13.3039      4.5882    127.8315   1.4000398775e+02   4.6582780284e+01     1.285979     0.479614 -79.07  0.006709473    2.166    0.538
        40 -11.8960    139.8735    200.3442   1.1714124278e+02   1.6335052759e+01     0.254979    0.2071192  18.37  0.001676751    1.312    0.238
        41 -12.3183    102.2161    139.2590   1.1637789900e+02   3.3596212866e+01    0.2757403    0.2454714  21.41 0.0004566517    1.218    0.179
        42 -11.7516     91.4046    137.8041   1.1889831941e+02   3.5545612371e+01     0.428735    0.1289245  43.29    0.0011885    3.170    0.684
        43 -12.5501     11.0842    142.7971   1.3940760887e+02   4.3016303458e+01    0.3721152    0.3209836  14.58  0.001385449    1.540    0.351
        44 -12.1593    106.1332    130.9134   1.1386297126e+02   3.4729131012e+01     0.436862     0.330335  58.87  0.001583343    1.417    0.294
        45 -11.4239    106.8111    125.7283   1.1268317672e+02   3.5720303221e+01    0.3007917    0.2428242 -32.34 0.0006734486    1.393    0.282
        46 -11.7931     15.1441    130.9921   1.3763272416e+02   4.5223943660e+01    0.2477341    0.1494562 -61.60 0.0009051466    1.581    0.367
        47 -12.6273    135.4139    122.4307   1.0455188058e+02   3.1235905658e+01    0.6819332    0.2411137 -49.08  0.002329023    3.124    0.680
        48 -12.2268    118.5797    129.5827   1.1037669200e+02   3.2893396232e+01    0.3597963    0.3364837 -23.66 0.0009708657    1.138    0.121
        49 -11.4622    160.4108    127.2024   9.9587090906e+01   2.5313837014e+01    0.3805528    0.2759779 -53.31  0.001262236    1.674    0.403
        50 -12.8901    126.0669    127.8074   1.0809429991e+02   3.1912566251e+01    0.6786584     0.396996  66.98  0.002540014    3.112    0.679
        51 -11.1161    209.0782    198.3098   1.0345540931e+02   5.3397355225e+00    0.1838019     0.176107  54.00   0.00085335    1.600    0.375
        52 -11.5417    142.5967    127.5611   1.0391257120e+02   2.8822984515e+01    0.2988046    0.2429891  68.61 0.0007261565    1.519    0.342
        53 -11.1527    112.8351    118.8850   1.0966108768e+02   3.6149547486e+01    0.3189463     0.236832  59.74 0.0004757466    1.534    0.348
        54 -19.1725     42.5771    100.1287   1.2660576009e+02   4.9930958686e+01     17.12473     1.495137 -67.06   0.03352442   11.594    0.914
        55 -12.0091      5.9028    140.1299   1.4043735381e+02   4.3918031431e+01     0.279294    0.2000381  69.06   0.00162002    1.186    0.157
        56 -11.0813    168.7110    113.5035   9.4393339296e+01   2.6049469091e+01    0.4061525    0.3193132  87.82  0.001170525    2.002    0.501
        57 -10.8406    164.4609    111.4632   9.4857144688e+01   2.7340802664e+01    0.4120186    0.2956011  87.41   0.00166486    2.645    0.622
        58 -11.1006    134.6225    106.5139   1.0096567510e+02   3.4593688318e+01    0.5109091     0.144052 -46.25  0.001517427    3.756    0.734
        59 -11.6645     84.6908    110.6477   1.1582623397e+02   4.2492080996e+01    0.2703522    0.2507087 -22.67  0.001571334    1.176    0.149
        60 -11.7166     87.8995    108.2129   1.1439475746e+02   4.2561596912e+01     0.424974     0.251841  45.49  0.001198546    1.761    0.432
        61 -10.6665    205.4208    110.1102   8.5831863080e+01   1.8565241033e+01    0.3240107    0.2093408  39.70  0.000944572    1.480    0.325
        62 -10.4744     86.2516     77.2664   1.0744694223e+02   4.9702506497e+01    0.1861676    0.1670925 -84.95  0.000686481    1.312    0.238
        63  -9.5758    108.2807     74.3754   9.9547404560e+01   4.6421486091e+01    0.1560045     0.113456 -10.67 0.0006937175    1.706    0.414
        64 -10.1146      7.0373    212.7448   1.4336518960e+02   3.0257994271e+01   0.09909631   0.07364179  32.47 0.0008254474    1.595    0.373
        65 -11.8593    158.8547    238.1069   1.1823283716e+02   8.2087994250e+00    0.2059266    0.1689828 -40.18  0.001042175    1.647    0.393
        66 -11.5653    169.0829    236.0735   1.1617532333e+02   6.9636345053e+00    0.1849075    0.1670773  21.01 0.0003519996    1.266    0.210
        67 -10.1741     13.4308     59.8504   1.3009159231e+02   6.1281933233e+01    0.1671827    0.1534292  84.44  0.000412932    1.229    0.187
        68 -10.0708    120.9888     24.8262   7.7745758917e+01   5.2268881094e+01    0.2137548    0.1987646  79.69 0.0005376422    1.309    0.236
        69 -10.1185    220.5143    229.0143   1.0623858111e+02   1.6454713408e-01     0.209228    0.1046703 -38.65  0.001200354    2.809    0.644
