#   1 NUMBER                 Running object number                                     
#   2 MAG_AUTO               Kron-like elliptical aperture magnitude                    [mag]
#   3 X_IMAGE                Object position along x                                    [pixel]
#   4 Y_IMAGE                Object position along y                                    [pixel]
#   5 X_WORLD                Barycenter position along world x axis                     [deg]
#   6 Y_WORLD                Barycenter position along world y axis                     [deg]
#   7 A_WORLD                Profile RMS along major axis (world units)                 [deg]
#   8 B_WORLD                Profile RMS along minor axis (world units)                 [deg]
#   9 THETA_WORLD            Position angle (CCW/world-x)                               [deg]
#  10 FWHM_WORLD             FWHM assuming a gaussian core                              [deg]
#  11 ELONGATION             A_IMAGE/B_IMAGE                                           
#  12 ELLIPTICITY            1 - B_IMAGE/A_IMAGE                                       
         1 -14.3299    199.0325     16.2238   6.6091425012e+01   3.3576257670e+01       2.7559     1.607429  28.94   0.01176303    2.611    0.617
         2 -13.7761      5.2521     10.4740   1.1953496116e+02   7.2935926639e+01     1.934739      0.95456 -37.47   0.01203133    1.538    0.350
         3 -11.2176     81.7835    248.7020   1.3937557438e+02   1.5052714054e+01    0.3789009    0.1869154  66.74  0.002177269    2.001    0.500
         4 -11.6232    140.5388    249.7726   1.2937267872e+02   6.1956785652e+00    0.3983614    0.1856476  45.72  0.002208035    1.650    0.394
         5 -11.0684    125.4968    250.0051   1.3200818969e+02   8.4823247650e+00    0.3147842    0.1301998  43.35  0.001654403    1.878    0.467
         6 -11.3878     97.9379    248.6151   1.3662442962e+02   1.2794178196e+01    0.2977277    0.2228601  69.92  0.001280971    1.165    0.142
         7 -10.9968    101.2785    246.0128   1.3581477527e+02   1.2725727923e+01    0.2880601    0.1882202 -71.43  0.001462648    1.758    0.431
         8 -14.6817     33.2637    247.1266   1.4720263221e+02   2.1397275773e+01     8.471101     2.852082  30.93   0.03044827    7.424    0.865
         9 -10.1651     33.5923    228.9444   1.4614069137e+02   2.4537586146e+01    0.2025058    0.1217357  65.54 0.0006205661    1.228    0.185
        10 -10.9420    119.9282    238.1476   1.3174213751e+02   1.1180036723e+01    0.2606698    0.1596868 -77.97  0.001523831    2.125    0.530
        11 -12.0503     82.2531    243.5977   1.3888427180e+02   1.5829122962e+01    0.4906936    0.2472101  67.03  0.002806498    1.963    0.491
        12 -15.6010      4.5990    179.0881   1.4840551403e+02   3.7175136731e+01     6.834761      1.83007 -76.69      0.03156    2.906    0.656
        13 -11.2635    124.7980    243.6858   1.3146828024e+02   9.5517235476e+00    0.2668088    0.1675196  80.84  0.001546479    2.129    0.530
        14  -9.7545     94.6231    216.6266   1.3411547543e+02   1.8789297052e+01    0.2374689    0.1510268  75.06  0.000925274    1.603    0.376
        15  -9.0937    152.7111    212.9616   1.2245521556e+02   9.9147533690e+00     0.163599    0.1506267  56.51 0.0003129532    1.095    0.087
        16 -10.5887    193.5097    195.7172   1.1184806978e+02   5.3904844219e+00    0.7067762    0.3519213 -62.00  0.002101385    6.702    0.851
        17 -11.5367     68.7983    196.3833   1.3705381538e+02   2.6456297114e+01    0.3257762     0.229405 -50.33  0.001519388    1.891    0.471
        18 -11.0591    106.6316    247.4833   1.3502541448e+02   1.1705642747e+01    0.2732913    0.1597984  74.01   0.00161554    1.966    0.491
        19 -11.6782     73.8666    188.9655   1.3521787874e+02   2.7286176794e+01    0.2641098    0.2161411 -61.69 0.0007108377    1.413    0.292
        20  -9.8450    229.0505    228.5202   1.1104670034e+02  -5.0964763313e+00    0.2717085    0.1493982 -52.42  0.001280663    3.813    0.738
        21 -13.2508     70.1750    174.4055   1.3429792587e+02   3.0914078736e+01    0.4616471    0.2722869 -46.99  0.001629571    2.245    0.555
        22 -10.9301     82.6937    176.6517   1.3182757441e+02   2.8626067412e+01    0.2286476    0.2004789  89.11 0.0003657534    1.094    0.086
        23 -12.3655     58.3556    132.7477   1.3132808612e+02   4.1989999269e+01     1.971639    0.6520648 -76.40  0.004644574    7.891    0.873
        24 -12.8650     67.4584    144.2090   1.3078915950e+02   3.8116886678e+01     1.077697    0.6025889  85.98  0.003898713    2.328    0.570
        25  -8.5299     81.6274    170.2722   1.3120878823e+02   3.0176223140e+01    0.1406991    0.0872253  68.10 0.0006999941    1.680    0.405
        26 -11.6753     33.3612    156.3184   1.4052085090e+02   3.9399847433e+01    0.4355561    0.1751932 -80.02  0.001992679    2.348    0.574
        27  -9.9582    101.2334    151.3602   1.2366263887e+02   3.1282912793e+01    0.2929009    0.2549084 -56.79 0.0009037937    1.210    0.173
        28  -9.3187    104.0052    147.0247   1.2220471043e+02   3.1787642330e+01    0.3040827    0.1794791 -36.33   0.00127575    2.452    0.592
        29 -11.9654     90.1388    150.7406   1.2624371213e+02   3.3251886154e+01    0.2729093     0.245524 -47.35 0.0005150155    1.302    0.232
        30 -11.2957     44.1778    149.4676   1.3722224311e+02   3.9789448375e+01    0.2603395    0.2102678  66.59  0.001125703    1.185    0.156
        31  -8.7764    192.2175    144.1655   1.0174029209e+02   1.4510796149e+01    0.1911175    0.1718921 -77.59 0.0003812591    1.304    0.233
        32  -9.8571    111.6895    136.5999   1.1826396058e+02   3.2779263443e+01    0.3031022    0.2366228 -17.93  0.001466612    1.863    0.463
        33 -10.5217     99.2839    133.8373   1.2084500874e+02   3.5624389982e+01    0.2668091    0.2261804 -36.74 0.0004264065    1.382    0.276
        34 -13.9112      3.2606    234.2967   1.5131211600e+02   2.6739988128e+01     1.808935    0.3826332 -75.43  0.008733454    3.862    0.741
        35 -11.1977     50.2811    129.7679   1.3299157592e+02   4.3667243642e+01    0.2691226    0.2034922  64.44 0.0006229637    1.348    0.258
        36  -9.0395    117.3246    129.3472   1.1529639085e+02   3.3361241219e+01    0.1492486    0.1195538 -14.15 0.0007049741    1.746    0.427
        37  -9.2799    108.2195    123.7482   1.1638685176e+02   3.6349746805e+01     0.201429    0.1845288 -88.76 0.0003584973    1.060    0.056
        38 -13.9053     10.2352    207.0049   1.4892646892e+02   3.1084452134e+01     1.734839     1.255497  -5.95   0.01063942    3.551    0.718
        39 -10.9874    168.2850    113.3088   9.9266855746e+01   2.5829747290e+01    0.3912428    0.3110475 -75.75 0.0008219376    1.528    0.345
        40 -12.2264     88.7741    167.3000   1.2916572068e+02   2.9744024472e+01     1.168705     0.555748  58.51  0.004971543    2.398    0.583
        41 -13.4514     46.2895    231.0301   1.4411651683e+02   2.2682417733e+01    0.7706329    0.2862129  49.68  0.001824845    2.032    0.508
        42 -14.7445     51.0382    220.4967   1.4254709300e+02   2.4036918663e+01     1.951094     1.358471  88.10  0.009465873    1.240    0.193
        43 -11.2897      1.6540     45.6613   1.3298739583e+02   6.6550405854e+01    0.5839706    0.1054964 -66.59  0.001794909    5.837    0.829
        44  -9.9460    163.5059    249.0455   1.2529476638e+02   2.6873569808e+00    0.1434646    0.1173215 -51.33 0.0007010293    1.583    0.368
