#   1 NUMBER                 Running object number                                     
#   2 MAG_AUTO               Kron-like elliptical aperture magnitude                    [mag]
#   3 X_IMAGE                Object position along x                                    [pixel]
#   4 Y_IMAGE                Object position along y                                    [pixel]
#   5 X_WORLD                Barycenter position along world x axis                     [deg]
#   6 Y_WORLD                Barycenter position along world y axis                     [deg]
#   7 A_WORLD                Profile RMS along major axis (world units)                 [deg]
#   8 B_WORLD                Profile RMS along minor axis (world units)                 [deg]
#   9 THETA_WORLD            Position angle (CCW/world-x)                               [deg]
#  10 FWHM_WORLD             FWHM assuming a gaussian core                              [deg]
#  11 ELONGATION             A_IMAGE/B_IMAGE                                           
#  12 ELLIPTICITY            1 - B_IMAGE/A_IMAGE                                       
         1 -10.8732      5.3048     36.3477   2.5620555676e+02  -5.2806244164e+01   0.01999867    0.0125102  51.33 0.0007041476    1.697    0.411
         2 -11.2690    196.7105    250.4400   2.7302863423e+02  -5.6170934228e+01   0.03606376   0.01651325 -54.92  0.001139745    2.089    0.521
         3 -11.3234    178.7497    248.5820   2.7235696220e+02  -5.5646424603e+01   0.04607088   0.01649578 -57.68  0.001299092    2.644    0.622
         4 -10.9235    227.5016    244.3680   2.7370136094e+02  -5.7228320838e+01   0.03261714   0.01711808 -59.18  0.001089438    1.894    0.472
         5 -10.8111    233.5084    238.3145   2.7355978732e+02  -5.7521990144e+01   0.03359494   0.01654681 -59.69  0.001085183    2.029    0.507
         6 -11.3383    207.5354    237.4297   2.7265082892e+02  -5.6735495138e+01   0.05784783   0.02117587 -42.35  0.001474268    3.449    0.710
         7 -11.7772    194.3295    237.9880   2.7225924102e+02  -5.6315277701e+01   0.06186178   0.02490694 -54.15  0.001860051    2.341    0.573
         8 -11.4749    219.0058    235.2087   2.7289930961e+02  -5.7130065499e+01   0.05316774   0.02161482 -65.35  0.001488346    2.836    0.647
         9 -10.5157     10.3199    234.6615   2.6701947735e+02  -5.0527101257e+01   0.01959136   0.01318516 -28.44 0.0007049862    1.711    0.416
        10 -11.2102    238.6402    231.0828   2.7331826743e+02  -5.7809774383e+01   0.03387579   0.02435119 -46.92  0.001328114    1.397    0.284
        11 -10.9647    165.0041    227.9861   2.7079667736e+02  -5.5566367850e+01   0.02271202   0.02167857 -58.23  0.001017531    1.042    0.040
        12 -11.3547    209.8360    227.5672   2.7216548840e+02  -5.6979232414e+01   0.04537791   0.01270153 -51.55  0.001143672    3.284    0.695
        13 -10.6320    219.1696    225.3642   2.7234180341e+02  -5.7308153743e+01   0.02727315   0.01569983 -49.99 0.0009496778    1.713    0.416
        14 -11.0002    203.8104    220.8259   2.7158763998e+02  -5.6907142685e+01   0.02651743   0.02115564 -32.15  0.001077644    1.350    0.259
        15 -11.0485    195.4158    220.6229   2.7131198965e+02  -5.6647325983e+01   0.03838276   0.01146459 -48.56 0.0009567803    3.356    0.702
        16 -11.5806    219.8029    215.1386   2.7177139014e+02  -5.7505160449e+01   0.05675175   0.01991129 -49.92  0.001573526    2.768    0.639
        17 -11.3058    179.3145    211.7807   2.7031361836e+02  -5.6287480890e+01   0.05002067   0.02619334 -73.39  0.001572338    2.330    0.571
        18 -10.7423    194.6611    211.3040   2.7075473997e+02  -5.6780546270e+01   0.01935156   0.01351596 -29.03 0.0007039582    1.674    0.403
        19 -10.4849    242.5088    210.4783   2.7224500114e+02  -5.8293966129e+01   0.01788783   0.01777227  75.78 0.0008101867    1.014    0.014
        20 -11.2493    198.9405    205.3591   2.7054359426e+02  -5.7014858535e+01   0.04235892   0.01686694 -61.00  0.001238509    2.463    0.594
        21 -11.5980     89.4164    200.2201   2.6716241219e+02  -5.3587913828e+01   0.02601776   0.01768055   6.88  0.000953484    1.678    0.404
        22 -11.2461     74.6787    195.3428   2.6652311108e+02  -5.3182199215e+01   0.01978228   0.01326109 -28.82 0.0007050172    1.725    0.420
        23 -11.2033    167.1874    187.4079   2.6855607331e+02  -5.6293150174e+01   0.02743671   0.01570745 -50.93 0.0009509086    1.711    0.416
        24 -12.8037    140.6962    185.3771   2.6769577227e+02  -5.5470957143e+01   0.04186102    0.0279751 -29.26  0.001524927    1.750    0.429
        25 -11.2219    175.9694    184.3041   2.6862931888e+02  -5.6623996506e+01   0.02678762    0.0239168 -63.39  0.001023616    1.119    0.106
        26 -11.9927    105.4872    186.4977   2.6682017502e+02  -5.4313165376e+01   0.01809924   0.01768003 -29.18 0.0001483018    1.020    0.020
        27 -11.0390    184.5388    183.6963   2.6884434161e+02  -5.6908492740e+01   0.03301217   0.01637638 -62.82  0.001035928    2.000    0.500
        28 -10.3932    244.6526    182.6894   2.7064736872e+02  -5.8836583451e+01   0.01932745   0.01374592  65.75 0.0007045342    1.710    0.415
        29 -11.7073    160.9569    181.4888   2.6803574974e+02  -5.6184850237e+01   0.02801279   0.01781605 -63.03 0.0007816851    1.560    0.359
        30 -12.3840    143.0150    171.5110   2.6696259363e+02  -5.5755671924e+01   0.02889163   0.01779988 -63.71  0.001038534    1.609    0.378
        31 -11.2170    151.3161    169.6618   2.6708092012e+02  -5.6053059862e+01   0.01965242   0.01341159 -28.33 0.0004796974    1.701    0.412
        32 -12.9738    128.8114    168.3170   2.6640014113e+02  -5.5340529165e+01   0.03857915   0.02634389 -37.03  0.001447149    1.579    0.367
        33 -12.4933     75.6970    167.5720   2.6502295430e+02  -5.3612585672e+01     0.032849   0.02235203 -11.52  0.001194688    1.772    0.436
        34 -12.4708     95.1814    165.0305   2.6535602166e+02  -5.4287736638e+01   0.03210653   0.02015932 -19.77  0.001093837    2.025    0.506
        35 -11.9833    177.6831    161.8105   2.6735150715e+02  -5.7027129430e+01   0.03066031   0.02253828  44.22  0.001203507    1.392    0.281
        36 -12.6127    101.1691    169.1797   2.6573902986e+02  -5.4424831209e+01   0.02707065   0.02107208 -34.14   0.00108604    1.355    0.262
        37 -11.5964     99.3289    158.6674   2.6509877246e+02  -5.4513599542e+01   0.01989051   0.01317636 -30.77 0.0007051845    1.719    0.418
        38 -11.9438     82.5267    158.5080   2.6468117785e+02  -5.3963081410e+01    0.0181192   0.01765364 -28.32 0.0004113396    1.024    0.023
        39 -12.2933    188.5078    156.9767   2.6736970299e+02  -5.7451374153e+01   0.03794121   0.02372307 -46.47  0.001258756    1.619    0.383
        40 -12.5583    155.9684    156.6793   2.6644653719e+02  -5.6397594431e+01   0.02682253   0.02386482 -61.52 0.0009622833    1.117    0.105
        41 -12.8500    137.5503    153.3526   2.6576198026e+02  -5.5843740221e+01   0.04226948   0.02670594 -25.01   0.00129531    1.953    0.488
        42 -12.9485    117.8715    153.3139   2.6525499597e+02  -5.5198446669e+01   0.03306247   0.02568022   0.42  0.001323483    1.407    0.289
        43 -12.6169    108.1405    153.8986   2.6504501747e+02  -5.4870256327e+01   0.02952805   0.02456864 -28.52  0.001027269    1.265    0.209
        44 -13.0385    122.9994    151.4782   2.6527858951e+02  -5.5392936977e+01   0.03626956   0.02619571  -4.93  0.001381281    1.597    0.374
        45 -11.8793    162.5140    150.0182   2.6622865319e+02  -5.6709128061e+01   0.02652634   0.01531431 -12.03 0.0008101254    2.520    0.603
        46 -12.5594     98.8875    149.1349   2.6454533533e+02  -5.4631676786e+01   0.02999992   0.02467891 -32.46   0.00124472    1.268    0.211
        47 -12.8555    177.7699    146.9126   2.6646011436e+02  -5.7252904127e+01   0.03537364    0.0260045  -8.00  0.001356813    1.585    0.369
        48 -12.1166    201.3054    145.8736   2.6706164210e+02  -5.8034457927e+01   0.03420793   0.02396771 -50.19  0.001319115    1.413    0.292
        49 -12.4719    155.8402    143.8190   2.6568021464e+02  -5.6580539230e+01   0.02700496   0.02140091 -29.69  0.001089657    1.351    0.260
        50 -12.3446    139.8690    144.1574   2.6528238128e+02  -5.6051184508e+01   0.03011549   0.02483869 -32.78  0.001249967    1.266    0.210
        51 -11.9899    182.9752    142.4880   2.6633628148e+02  -5.7487965200e+01   0.02810221    0.0123555 -43.19 0.0008101303    2.532    0.605
        52 -12.1498    124.5834    141.7884   2.6475458451e+02  -5.5581048515e+01   0.02633832   0.01765082   3.98 0.0009540251    1.704    0.413
        53 -12.5611    166.9997    140.9751   2.6580799504e+02  -5.6987404199e+01   0.03122665   0.02108997 -29.67   0.00114083    1.697    0.411
        54 -12.1924    116.4005    139.8031   2.6443554328e+02  -5.5338371065e+01   0.02727178   0.01576719  35.40 0.0009512149    1.686    0.407
        55 -12.6374     96.9569    134.5104   2.6366005667e+02  -5.4766388551e+01   0.03615823   0.02580554  -5.09  0.001370944    1.600    0.375
        56 -12.4312    143.8171    131.9897   2.6466191365e+02  -5.6351962013e+01   0.03213937   0.02014899 -20.66  0.001095253    2.009    0.502
        57 -14.4961    172.9704    127.6131   2.6515708087e+02  -5.7374451504e+01   0.07306469   0.04742188   0.83  0.002613021    1.842    0.457
        58 -11.9287    131.5081    130.5052   2.6426368835e+02  -5.5965521003e+01   0.01803018   0.01784716 -29.59 0.0008106164    1.004    0.004
        59 -13.6669    181.3328    125.0900   2.6522613910e+02  -5.7685341772e+01    0.0395688   0.03279756 -24.09  0.001650103    1.289    0.224
        60 -11.5823    194.6772    121.3412   2.6535613329e+02  -5.8177346184e+01   0.01989321    0.0132586 -29.79 0.0007050696    1.725    0.420
        61 -12.6174    141.7070    119.7169   2.6387361349e+02  -5.6450184600e+01   0.03832506   0.02155006 -10.95  0.001182716    2.500    0.600
        62 -12.5248    148.1723    144.1529   2.6549799508e+02  -5.6324094591e+01     0.027084   0.02145851 -29.45  0.001092803    1.352    0.260
        63 -11.3155    130.3174    116.6675   2.6341119557e+02  -5.6112577054e+01   0.01981024   0.01316563 -31.26 0.0007047672    1.690    0.408
        64 -12.4658    186.4008    115.2076   2.6474949609e+02  -5.7991251537e+01   0.02650725   0.01761518   4.95  0.000955751    1.714    0.417
        65 -12.8769    153.8611    114.5969   2.6386787438e+02  -5.6922695055e+01   0.03177488   0.02262511  12.47  0.001219344    1.476    0.322
        66 -13.7658    160.5454    109.0260   2.6369551782e+02  -5.7219686741e+01   0.04687684   0.03660555  -2.66   0.00188958    1.395    0.283
        67 -13.5609    143.2606    102.9115   2.6289449023e+02  -5.6724917233e+01   0.05179276   0.03588077 -20.14  0.001491368    1.672    0.402
        68 -14.1577    162.0810    101.4099   2.6326443311e+02  -5.7372232234e+01   0.07129854   0.02966967 -50.41  0.002146796    2.335    0.572
        69 -13.6809    159.6793     91.4484   2.6258731081e+02  -5.7422074026e+01   0.07304014   0.02717618 -35.78  0.001699434    4.229    0.764
        70 -13.4213    184.4290     89.3734   2.6307237177e+02  -5.8275504504e+01   0.03447654   0.03063678 -83.11  0.001089972    1.161    0.139
        71 -11.8545    125.5842     88.7752   2.6161989291e+02  -5.6312588957e+01    0.0260891   0.01754827   0.86 0.0009502023    1.667    0.400
        72 -12.8937    151.2936     87.6662   2.6215061187e+02  -5.7189602140e+01   0.03470317   0.02294621   1.39  0.001259842    1.713    0.416
        73 -13.3214    159.6351     82.1062   2.6200335453e+02  -5.7539612536e+01   0.03904929   0.02924508 -10.78  0.001529736    1.484    0.326
        74 -12.3707    143.3473     81.8178   2.6160201904e+02  -5.6996093805e+01   0.02663859   0.02324919 -47.34  0.001139521    1.141    0.124
        75 -12.6120    151.2970     79.4604   2.6164092754e+02  -5.7292643209e+01   0.03352222   0.02193928 -14.71  0.001192602    1.819    0.450
        76 -14.2526    170.9716     72.0186   2.6163779939e+02  -5.8046474095e+01   0.05585588   0.04335406  16.49  0.002275116    1.302    0.232
        77 -15.6731    191.7720     75.4746   2.6236787766e+02  -5.8700679329e+01   0.09761035   0.08674181 -35.05  0.004266975    1.142    0.125
        78 -12.3821    140.9763     74.9630   2.6112333721e+02  -5.7000449419e+01   0.03184215   0.02047376 -32.87  0.001141108    1.725    0.420
        79 -12.8146    151.0895     72.3508   2.6119223544e+02  -5.7373147012e+01   0.03669397   0.02796317   3.01  0.001461823    1.394    0.283
        80 -12.8146    129.8261     75.0409   2.6087701873e+02  -5.6623391204e+01   0.05979532   0.02826585  -6.18  0.001617994    3.243    0.692
        81 -13.7845    163.7025     71.2772   2.6141840747e+02  -5.7811115243e+01   0.04479095   0.03623341 -32.65  0.001547456    1.287    0.223
        82 -13.0747    146.5066     67.0046   2.6075319581e+02  -5.7283124546e+01     0.040882   0.02922222 -23.66  0.001561981    1.554    0.357
        83 -12.6356     12.6759     65.7270   2.5799287688e+02  -5.2757430252e+01   0.05156192    0.0253707  15.70  0.001671192    2.059    0.514
        84 -13.9424    207.6896     58.7939   2.6167551929e+02  -5.9444167055e+01   0.05238537    0.0358538  67.78  0.001941066    1.708    0.414
        85 -12.7663    153.5583     57.7622   2.6033030632e+02  -5.7631268710e+01   0.03767579   0.01632059  25.42  0.001160016    2.175    0.540
        86 -12.7432    158.7011     61.9969   2.6071482639e+02  -5.7754987899e+01   0.02680409   0.02475178  10.99  0.001180504    1.090    0.082
        87 -11.9195      8.5982     56.2995   2.5738981757e+02  -5.2717749170e+01   0.03601112   0.01795051   9.55   0.00114424    2.160    0.537
        88 -11.9737     19.3555     48.7588   2.5714764853e+02  -5.3161890357e+01   0.05410116   0.01814167   5.94  0.001257476    4.141    0.758
        89 -12.1014     12.6524     47.9851   2.5698870564e+02  -5.2941142747e+01   0.05663562   0.01838955   9.35  0.001367504    3.790    0.736
