#   1 NUMBER                 Running object number                                     
#   2 MAG_AUTO               Kron-like elliptical aperture magnitude                    [mag]
#   3 X_IMAGE                Object position along x                                    [pixel]
#   4 Y_IMAGE                Object position along y                                    [pixel]
#   5 X_WORLD                Barycenter position along world x axis                     [deg]
#   6 Y_WORLD                Barycenter position along world y axis                     [deg]
#   7 A_WORLD                Profile RMS along major axis (world units)                 [deg]
#   8 B_WORLD                Profile RMS along minor axis (world units)                 [deg]
#   9 THETA_WORLD            Position angle (CCW/world-x)                               [deg]
#  10 FWHM_WORLD             FWHM assuming a gaussian core                              [deg]
#  11 ELONGATION             A_IMAGE/B_IMAGE                                           
#  12 ELLIPTICITY            1 - B_IMAGE/A_IMAGE                                       
         1 -12.5186    184.5667     32.9701   6.6992937292e+01   3.5375108010e+01     0.910445    0.8115269  75.99  0.003536227    1.078    0.072
         2 -12.3980    190.8617     22.8375   6.3641219317e+01   3.5090006769e+01    0.6984702     0.670629 -15.66   0.00139964    1.335    0.251
         3  -9.8466    102.7274    238.5897   1.3024453905e+02   1.0857081304e+01    0.2164408     0.157683 -52.16 0.0008436435    1.646    0.393
         4 -19.3834     21.0615    135.0104   1.3546160667e+02   4.5596943081e+01     19.36813     2.306706 -68.05   0.04438015    8.075    0.876
         5 -11.0911    168.5033    233.4713   1.1614982952e+02   5.7084695842e-01    0.3472858    0.2272507  53.24  0.001723005    1.603    0.376
         6 -10.8891    144.5797    228.8558   1.2034435766e+02   5.6484167867e+00    0.4059043    0.2556445 -40.84  0.002027514    1.916    0.478
         7 -10.2144    151.9943    228.5625   1.1875950603e+02   4.3883942439e+00    0.3024297    0.1548842  53.76  0.001308791    2.136    0.532
         8  -9.2847     83.2274    229.1211   1.3304936647e+02   1.5864129799e+01     0.205351     0.164493  43.46 0.0003752148    1.322    0.243
         9  -9.7124    159.0331    229.8768   1.1751223973e+02   2.8917235435e+00     0.348596    0.1914539 -76.46  0.001109573    5.297    0.811
        10  -9.0080     66.5746    222.7375   1.3570426712e+02   1.9685507356e+01    0.1770408    0.1081284 -86.33 0.0009215894    1.607    0.378
        11  -8.8995     88.3473    218.6865   1.3074528316e+02   1.7305042309e+01    0.1453857    0.0894726  69.55  0.000704685    1.717    0.418
        12  -8.1744    114.9942    210.9677   1.2394887285e+02   1.4564245275e+01    0.1694075    0.1504156 -82.78 0.0005419282    1.117    0.105
        13  -8.8441    108.9063    209.5949   1.2507954238e+02   1.5918708276e+01    0.2822174    0.1685472  76.04  0.001204688    2.296    0.564
        14  -8.5210    107.9373    202.6741   1.2425537860e+02   1.7630124543e+01    0.2764216     0.131238  33.06  0.001085215    2.506    0.601
        15  -8.8213     60.7784    199.4132   1.3428565708e+02   2.5730764862e+01    0.1550716    0.1286565  31.67 0.0002428014    1.519    0.342
        16 -10.8613    196.2132    195.5221   1.0367253554e+02   2.5736249202e+00    0.5635108    0.4382028  46.86  0.002467064    1.330    0.248
        17  -8.6962    102.4046    195.2774   1.2436715600e+02   2.0271996205e+01    0.3404286    0.1877725  69.31  0.001334555    2.567    0.610
        18  -9.4718     79.2784    185.3948   1.2822920999e+02   2.6357273828e+01    0.1979561     0.120401  51.04 0.0009489389    1.624    0.384
        19  -9.5606    210.0368    182.5263   9.8281558300e+01   2.4518925471e+00    0.4931706    0.3092515   0.58  0.001946543    2.807    0.644
        20  -7.7999     90.2850    183.6828   1.2537081434e+02   2.5029122035e+01    0.1477756    0.1028781  78.04 0.0003151599    1.586    0.370
        21  -8.4644     99.4176    180.7274   1.2270875123e+02   2.4212806204e+01    0.1959759    0.1318064 -51.64 0.0008024112    1.524    0.344
        22 -10.8253     82.7882    179.8876   1.2656120714e+02   2.7138889753e+01     0.612493    0.4523429  -7.09   0.00285188    2.395    0.582
        23 -10.5151     86.0046    174.5068   1.2492039285e+02   2.7935257012e+01    0.4084548    0.3224162  31.76  0.001135252    1.477    0.323
        24  -8.9873    197.9357    175.2305   9.9190977690e+01   6.2220324735e+00    0.2671148    0.2113885 -43.42 0.0009239288    1.243    0.196
        25 -11.0714    164.6730    236.1704   1.1735253575e+02   7.5930760668e-01    0.4183583    0.2023256  31.66  0.001811517    2.225    0.550
        26  -9.3386    105.9814    171.4841   1.1948806259e+02   2.5291965374e+01    0.2204307    0.1159023  60.83 0.0008101763    2.532    0.605
        27  -9.0428    204.5079    169.4837   9.6643368238e+01   6.0648541305e+00    0.1455106    0.1399664 -33.59 0.0002535495    1.038    0.036
        28 -10.6890     92.6715    165.2696   1.2167271824e+02   2.9103369748e+01    0.3578087     0.333359 -86.71 0.0007314256    1.039    0.037
        29 -12.1427     81.0390    159.9591   1.2368173478e+02   3.2284581106e+01    0.7102184     0.541064  75.38  0.001367481    1.408    0.290
        30 -12.1704     68.6285    144.0786   1.2407725236e+02   3.8042601531e+01    0.9288041    0.6109031  87.41  0.003334726    1.925    0.481
        31 -11.6887     71.4169    136.5537   1.2186642849e+02   3.9488670596e+01    0.8181561    0.5264946  79.05  0.003584218    2.232    0.552
        32  -9.6343     63.5392    155.6729   1.2745918679e+02   3.5892244869e+01    0.2446719    0.1543739  59.64  0.001145224    1.791    0.442
        33  -9.7002    134.2077    145.1313   1.0698969412e+02   2.6170813202e+01    0.7299536    0.1661176 -52.05  0.001758679    4.921    0.797
        34  -9.9313    180.7047    232.8054   1.1357973392e+02  -1.4348726792e+00    0.2521232    0.1996778  65.97  0.001420893    1.601    0.375
        35  -9.6215    144.2280    144.8270   1.0445108043e+02   2.4136607681e+01     0.309551    0.2608895  87.08 0.0005710533    1.336    0.252
        36 -10.2119    108.8952    141.1008   1.1260184535e+02   3.2140060451e+01    0.5693313    0.2815826 -39.51   0.00208257    2.425    0.588
        37 -10.6043     97.2980    141.9989   1.1589546035e+02   3.4020318471e+01    0.2886433    0.2748538 -19.60 0.0004258523    1.188    0.158
        38 -11.2472    125.9849    230.1298   1.2439627509e+02   8.6548454905e+00    0.5190167    0.4160302 -79.24  0.003019489    1.356    0.263
        39 -10.0639    115.4436    131.5482   1.0866759381e+02   3.3170421393e+01    0.3613158    0.2898345 -20.94 0.0009682982    1.540    0.351
        40 -10.1905    119.3621    127.9661   1.0676556322e+02   3.3235808776e+01    0.4452572    0.2755275 -54.85  0.001727466    1.613    0.380
        41 -10.1372    104.4579    128.9406   1.1102113227e+02   3.5880537684e+01    0.5211893    0.3707357 -86.91  0.001643095    1.929    0.482
        42 -10.4846     97.7735    157.7412   1.1896664999e+02   3.0082805347e+01    0.5621343    0.3797331 -31.46  0.001399064    2.026    0.506
        43  -8.7756     82.6932    133.6987   1.1813079976e+02   3.8476277179e+01    0.1455448    0.1113529 -27.18 0.0002864483    1.597    0.374
        44 -10.6179     67.3171    125.4516   1.2075836619e+02   4.2758223004e+01    0.3325603      0.20299 -49.13  0.001595611    1.494    0.331
        45  -9.1643    110.9122    119.8794   1.0704829228e+02   3.6781001319e+01    0.2280985    0.2059509 -13.46 0.0004540458    1.241    0.194
        46  -8.6963    167.9610    112.9772   9.1080675500e+01   2.5871832804e+01    0.2617468    0.1924757 -78.65  0.001133813    1.745    0.427
        47 -10.3795     66.4896    104.7957   1.1631086559e+02   4.7697073086e+01    0.2568273    0.2049141  32.58  0.001430079    1.387    0.279
        48  -9.6564    175.3169     73.8202   7.9244919110e+01   3.1584470402e+01    0.2917157    0.2273269 -82.15 0.0007171803    1.421    0.296
        49 -12.1370    173.4699     42.5788   7.1177911230e+01   3.6810229285e+01    0.6911738    0.4440052  52.89  0.002033944    1.508    0.337
        50 -10.0407    139.6207    248.6368   1.2418947012e+02   2.8381144908e+00    0.3172008     0.192338  54.76  0.001668627    1.598    0.374
