#   1 NUMBER                 Running object number                                     
#   2 MAG_AUTO               Kron-like elliptical aperture magnitude                    [mag]
#   3 X_IMAGE                Object position along x                                    [pixel]
#   4 Y_IMAGE                Object position along y                                    [pixel]
#   5 X_WORLD                Barycenter position along world x axis                     [deg]
#   6 Y_WORLD                Barycenter position along world y axis                     [deg]
#   7 A_WORLD                Profile RMS along major axis (world units)                 [deg]
#   8 B_WORLD                Profile RMS along minor axis (world units)                 [deg]
#   9 THETA_WORLD            Position angle (CCW/world-x)                               [deg]
#  10 FWHM_WORLD             FWHM assuming a gaussian core                              [deg]
#  11 ELONGATION             A_IMAGE/B_IMAGE                                           
#  12 ELLIPTICITY            1 - B_IMAGE/A_IMAGE                                       
         1 -12.4894     74.9304     50.9367   8.4244670086e+01   5.7760330452e+01     1.370066     0.776107 -58.65  0.006178897    1.865    0.464
         2 -12.2092     89.9818     58.9682   8.1892521530e+01   5.3320945344e+01     1.076241    0.8826979  75.68   0.00574755    1.381    0.276
         3 -13.1004     42.8139     46.0338   9.5254913374e+01   6.3584138092e+01      1.06284    0.6994445  58.78  0.001086715    1.897    0.473
         4 -12.1125    124.9649     27.8357   6.0157506116e+01   5.0904281593e+01    0.7699216    0.5643026  44.10  0.002170445    1.398    0.285
         5 -12.0189    120.5184     57.5573   7.2535863556e+01   4.7068601201e+01     2.184414     1.349811 -77.40  0.007926812    3.004    0.667
         6 -12.9223    116.5682     42.0839   6.7951353449e+01   5.0745267677e+01     1.110048    0.8012702 -89.78  0.004995267    1.882    0.469
         7 -11.6706    145.7405     47.1163   6.2909752797e+01   4.2630381734e+01     1.202398    0.5080104 -26.79  0.004150328    2.629    0.620
         8 -12.1842     60.9474     45.3496   8.7531077087e+01   6.1239934853e+01     1.066179    0.5022939 -50.97  0.004730548    1.902    0.474
         9 -10.8796    139.2200     33.0600   5.9109139244e+01   4.6443814865e+01    0.6095089    0.5087875 -25.32  0.001777541    1.206    0.171
        10 -11.9420    132.3513     14.6435   5.3033200884e+01   5.0692459034e+01     1.448314    0.6486089  71.40   0.00525798    2.503    0.601
        11 -11.1261    154.2792     25.3211   5.3293196923e+01   4.3429920819e+01     1.031723    0.7511774  39.81  0.004828019    1.454    0.312
        12 -11.4451    137.5941     22.2200   5.5156773019e+01   4.8350135784e+01     1.207641    0.3499334  52.87  0.003196715    3.114    0.679
        13 -10.1955    146.8344     16.4660   5.1147856688e+01   4.6538183206e+01    0.5710957    0.4440446  40.78  0.002800565    1.326    0.246
        14 -11.0788    164.9605     17.8524   4.8818182951e+01   4.1364775085e+01    0.6253995    0.3315168  36.85  0.002408888    2.262    0.558
        15 -12.6476    163.3843     28.1478   5.2806998176e+01   4.0584436800e+01    0.8078265    0.4323043  43.30 0.0006890412    2.033    0.508
        16 -10.6487     22.2552      4.9844   8.9132449427e+01   7.4487514409e+01    0.3027943    0.1959587 -64.17 0.0006832121    1.763    0.433
        17 -10.4769     47.1806     19.0951   8.2602776016e+01   6.8626107592e+01     0.364693    0.2796223 -42.75   0.00132249    1.142    0.124
        18 -11.7514     26.3980     28.0736   9.7043286238e+01   6.9324573215e+01    0.4987104    0.4591925 -76.47   0.00285634    1.157    0.136
        19 -11.5937     36.5577     19.1968   8.8022827162e+01   7.0052572624e+01    0.7068216    0.3899465 -50.46  0.002784081    1.553    0.356
        20 -12.4095     48.6479     13.0486   7.8759471882e+01   6.9517160169e+01    0.7581468    0.3788857  39.36  0.003636495    2.256    0.557
        21 -10.8534     32.4775     12.4032   8.6919415559e+01   7.1891505616e+01    0.2325622    0.2040209  74.63  0.000543381    1.510    0.338
        22 -11.6870     14.2345     23.6837   1.0217764443e+02   7.1325843473e+01     0.478881    0.2668375 -36.13 0.0002333171    1.929    0.482
        23 -11.5895     19.8903     22.4349   9.8533138187e+01   7.1141905677e+01    0.6602961    0.2984796 -53.27  0.001835671    1.744    0.427
        24 -12.1443    105.9831     20.2320   6.1554690299e+01   5.6736125639e+01    0.5255471    0.3813385 -32.67 0.0004058705    1.336    0.251
        25 -12.9232     19.0072     12.5606   9.5020085072e+01   7.3300614769e+01    0.9826106     0.653488 -13.70  0.004022793    1.916    0.478
        26 -10.9940    198.6929     28.9290   4.8087906079e+01   3.0924934028e+01    0.6824409    0.4271212  -7.59  0.002547774    1.810    0.448
        27 -10.9923    178.5985     21.2791   4.8133205579e+01   3.7213234253e+01    0.7286321    0.4048868  28.16   0.00280374    2.404    0.584
        28 -11.4295    182.9293     25.0960   4.8854186483e+01   3.5598188584e+01    0.6595135    0.4001303  50.76  0.002870532    1.669    0.401
        29 -10.9038    214.5472     23.3650   4.4606429769e+01   2.7386631697e+01    0.5184641    0.3711177   8.70  0.002539206    1.622    0.384
        30 -10.5890     87.1811      7.5317   6.0598308925e+01   6.2890327635e+01    0.6021459    0.3610491  61.71  0.002631185    1.824    0.452
        31 -11.4352     90.9074     20.8505   6.6215156780e+01   6.0149788776e+01    0.7145397    0.4775674 -24.33  0.003456406    1.521    0.342
        32 -11.4673     85.9576     14.3413   6.4562089474e+01   6.2224329687e+01    0.6455259    0.3789063 -23.35   0.00195231    1.753    0.429
        33 -11.9102     68.1204     17.8916   7.2784529931e+01   6.5318929742e+01    0.5031165    0.4984051  -5.29  0.002033456    1.115    0.103
        34  -9.8844    120.2129     18.9699   5.7468115497e+01   5.3349705218e+01    0.5549918     0.237416 -27.07  0.002064454    2.305    0.566
        35 -12.2657    238.3660     15.7881   4.0301079063e+01   2.2222597128e+01    0.9670237    0.5083621  70.04  0.002969394    2.022    0.505
        36 -11.9398    234.0285      7.0470   3.8199785125e+01   2.4064518377e+01    0.8739038    0.4579932  89.12  0.003932207    2.192    0.544
        37 -11.9425    246.9312      6.7489   3.7243308679e+01   2.1021284664e+01    0.6709138    0.4721819  13.41  0.002653465    1.695    0.410
        38 -10.9306    218.8254      3.4087   3.8270373034e+01   2.8187255517e+01    0.3588482    0.3135274 -21.78  0.001095961    1.124    0.111
        39 -11.0593    223.5431      1.9908   3.7507069543e+01   2.7108606392e+01    0.6159387    0.2795475  83.33  0.002539299    2.424    0.587
        40  -9.6085    191.5275     16.7216   4.4998877640e+01   3.4163656249e+01    0.3506652    0.2401339  14.37  0.001595381    1.765    0.433
        41 -11.3851    192.5429      7.6921   4.1910239230e+01   3.4772514884e+01    0.6813382    0.4082382  21.23  0.001747913    2.143    0.533
        42 -10.2332    225.6966     15.2970   4.1193702277e+01   2.5362857339e+01    0.4635644    0.2233044 -27.92  0.001561024    1.827    0.453
        43 -11.0060    241.9935      3.9992   3.6822242402e+01   2.2416919115e+01    0.4087796     0.212458  86.42  0.001893652    2.169    0.539
        44 -10.9251    240.3019     32.7766   4.4781916567e+01   2.0104698026e+01    0.4719711    0.3707808 -84.94   0.00264212    1.454    0.312
        45 -12.3142    104.5888     12.6831   5.8354887931e+01   5.8103523358e+01    0.5977274    0.4807465 -39.06  0.001785878    1.252    0.201
        46  -9.9859     62.7264      6.9113   6.8934352682e+01   6.8090083729e+01    0.3355422    0.2409945  -3.64  0.001305458    1.603    0.376
        47  -9.8779     61.8045     11.9386   7.2187919655e+01   6.7475205777e+01    0.3244651    0.1364758 -37.30 0.0005977664    2.162    0.538
        48 -10.2256     65.9473     10.1345   6.9480211463e+01   6.6985300535e+01    0.3835279    0.2536712  52.89  0.001141881    1.695    0.410
        49 -11.4697    211.8814      9.8565   4.0776981037e+01   2.9403899785e+01    0.5053222     0.308235   9.64 0.0006905143    2.077    0.518
        50  -9.4202     95.1966     11.9526   6.0541103420e+01   6.0455456864e+01    0.3451137    0.1760481  30.68  0.001295455    2.749    0.636
        51  -9.5624     72.2916     10.2479   6.7100704524e+01   6.5717166478e+01    0.2468259    0.1894662 -27.98   0.00136102    1.210    0.173
        52  -9.9763    168.9982      9.6989   4.5277847588e+01   4.1097206694e+01    0.4062084    0.1927153  46.69  0.001552331    2.212    0.548
        53  -9.8137    163.2312      7.2185   4.5102571631e+01   4.2954491469e+01    0.5930471    0.2569369 -17.40  0.001784705    2.423    0.587
        54 -11.4014     40.6304      5.9651   7.8803476325e+01   7.1973387312e+01    0.4849189    0.2473184 -27.78  0.001443813    2.281    0.562
        55  -9.4497     78.4901      7.4929   6.3369988855e+01   6.4817045946e+01    0.2466521    0.1774371  47.01 0.0007585271    1.427    0.299
        56 -11.3434     75.5649      3.3964   6.2032817915e+01   6.5990021403e+01    0.7010527     0.399817  48.73  0.003246224    1.775    0.437
        57  -9.3753      1.1239      7.4380   1.0482374711e+02   7.5667047504e+01    0.2045201    0.0535905 -63.82 0.0005284497    2.714    0.631
        58 -10.2943    183.4862      5.0436   4.1947300683e+01   3.7506043911e+01     0.442744    0.2515654 -31.55  0.001333407    1.664    0.399
        59  -9.2188    153.1437      7.1050   4.6442260170e+01   4.5789636616e+01    0.3619687     0.158774  51.51   0.00135589    2.200    0.545
        60 -10.4774    176.0942      5.3165   4.2845968927e+01   3.9535267484e+01    0.4985103    0.2853114 -89.32  0.002006012    1.966    0.491
        61  -9.3179    169.9336      3.4188   4.2865715897e+01   4.1431769482e+01    0.3851151    0.1412902 -55.79  0.001136345    3.850    0.740
        62  -9.9455    121.9455      1.2298   4.9033965262e+01   5.4930902276e+01    0.9686458   0.06632653  61.28  0.002370071    5.386    0.814
        63 -10.1647    113.4837      3.5201   5.1812079991e+01   5.6927935961e+01    0.3921315    0.2977322 -76.59  0.001680941    1.582    0.368
        64 -10.9559    106.2568      1.8555   5.2576051199e+01   5.8956460904e+01    0.9222444    0.3721803  69.90  0.002283745    2.832    0.647
        65  -9.3899     50.4130      6.3769   7.4088576634e+01   7.0368193569e+01    0.1891582    0.1253785  45.50 0.0006136779    1.699    0.411
        66 -10.5797    142.2190      3.3087   4.6522245307e+01   4.9200996489e+01    0.4415456    0.2957113  50.82  0.001645871    1.456    0.313
        67 -10.0258    206.7048      2.7609   3.9034137699e+01   3.1405288336e+01    0.4910103     0.232956 -80.37  0.001876923    2.614    0.617
        68  -9.1484    157.4730      2.5171   4.4052921334e+01   4.5012034181e+01    0.2629182    0.2250974  58.94  0.001374341    1.145    0.126
        69  -8.8124    161.0522      1.0000   4.3017696873e+01   4.4142258393e+01    0.3543295   0.08328781  72.81 0.0009634523    4.170    0.760
        70 -11.1207      2.8942      1.7995   1.0120210198e+02   7.6747655091e+01    0.3466586    0.1931347  -0.04  0.002002237    2.379    0.580
        71 -10.1573     13.1272      1.8117   9.3616606644e+01   7.5987161742e+01     0.237246    0.1644643   5.89  0.001398698    1.763    0.433
        72 -11.6297    133.4847      2.6937   4.7656937612e+01   5.1667331318e+01    0.4537247    0.3048384  57.26  0.001293215    1.422    0.297
        73  -9.8160     82.1135      1.3181   5.8696170506e+01   6.4811067860e+01    0.1876589     0.126815  57.81 0.0003642476    1.548    0.354
        74 -10.8051     32.9857    144.2200   1.1429578269e+02   4.2661418969e+01    0.2685001    0.2194739  61.54 0.0008315929    1.149    0.129
        75  -9.8661    133.3192    140.3730   9.0268045512e+01   2.8612740470e+01     0.258029    0.2435214   5.88 0.0009733934    1.258    0.205
        76 -11.9198     24.2256    136.7677   1.1585119354e+02   4.5061702280e+01    0.6379486    0.3039875  55.18  0.002296541    1.767    0.434
        77 -12.6695     29.9104    132.9932   1.1413719161e+02   4.5304050152e+01    0.4235871    0.2652945  78.97 0.0003857529    1.354    0.262
        78  -9.5534     79.3175    137.6610   1.0233169890e+02   3.8239398313e+01    0.2559679    0.1697802  86.61  0.001425056    1.598    0.374
        79  -9.9552     81.7865    135.3941   1.0140537052e+02   3.8336683084e+01    0.2585247    0.1648252  35.44  0.001066991    1.693    0.409
        80 -10.3694     47.3261    135.6935   1.1001187247e+02   4.2861737382e+01    0.3774209    0.1711329 -69.22  0.001335351    2.060    0.515
        81 -10.4365     39.8611    137.4681   1.1204584139e+02   4.3329654111e+01    0.2257708    0.1862575  66.78 -7.238545e-05    1.100    0.091
        82  -9.0362    192.4266    136.4835   7.7765302129e+01   1.7661615929e+01    0.1311948    0.1175186  28.28 0.0001368098    1.020    0.020
        83  -9.0729    216.6069    135.2109   7.3379136226e+01   1.3092917004e+01    0.1704478    0.1151476 -10.47 0.0005182853    1.586    0.369
        84 -10.5261     92.7089    129.4203   9.7787183863e+01   3.7856768981e+01    0.3596643    0.2402488 -78.20    0.0016585    1.637    0.389
        85 -10.4755     68.6215    135.2876   1.0464356720e+02   4.0248961003e+01    0.2602024    0.1711759  58.01  0.001512979    1.358    0.263
        86  -9.0919    107.6718    145.9832   9.6904393646e+01   3.2126030956e+01    0.1748931    0.1544401  78.04 0.0004794956    1.089    0.082
        87  -9.7336     73.9115    132.5071   1.0294525916e+02   4.0087140276e+01    0.2612065    0.2216661  72.85  0.001695103    1.011    0.011
        88 -10.0838     62.4741    131.4792   1.0569623223e+02   4.1874433253e+01    0.3511396    0.2250974 -56.09  0.001870927    1.735    0.424
        89  -9.0405    103.9961    130.5691   9.5228976522e+01   3.5740245384e+01     0.198724    0.1201916  43.80 0.0004041264    1.547    0.353
        90 -10.2983     81.8417    125.7251   9.9919752285e+01   4.0335311264e+01    0.4084418    0.3256502  27.04  0.002154848    1.582    0.368
        91  -8.9771    223.8696    126.8407   7.0453696444e+01   1.2707998821e+01       0.1638    0.1484318 -35.40 0.0004327559    1.315    0.240
        92  -9.8734     22.9564    126.9492   1.1542136584e+02   4.7249442620e+01    0.1889192    0.1318751  63.28  0.001266031    1.197    0.164
        93 -10.3007     18.7147    124.4501   1.1633334115e+02   4.8161969834e+01    0.2580104    0.1529372 -80.15  0.001104629    1.441    0.306
        94 -10.8056     55.8652    123.6111   1.0639678479e+02   4.4408721594e+01    0.4702894    0.3504924  27.37  0.001972498    1.683    0.406
        95 -11.0374     46.1718    120.0877   1.0855770485e+02   4.6343814496e+01     0.682197     0.307983  70.93  0.002475976    2.815    0.645
        96 -11.8679    104.3699    122.1154   9.3609449176e+01   3.7375181565e+01     0.386206    0.3545481  64.11 0.0008057035    1.067    0.063
        97  -9.6126     67.2555    124.2180   1.0347159573e+02   4.2776683694e+01    0.2766116    0.1826498  18.83  0.001410149    2.370    0.578
        98  -8.8314     94.3109    123.3029   9.6342321396e+01   3.8852516082e+01    0.1219522    0.1076525 -11.45 0.0005236071    1.609    0.379
        99 -10.6009      4.6444    120.8703   1.1978856140e+02   5.0047609998e+01    0.6317292    0.1816826 -62.85  0.002861028    3.339    0.700
       100 -11.7192      2.3922    112.1390   1.1988766387e+02   5.2078554243e+01    0.4239545    0.2454155  59.03  0.002147316    1.473    0.321
       101 -11.8019      3.8343    105.7961   1.1908373103e+02   5.3362147640e+01    0.4027573    0.3144764  67.44  0.001864208    1.138    0.121
       102 -10.6250     42.3505     94.0546   1.0608878608e+02   5.2621205756e+01    0.5010819    0.2944485  75.99  0.002448338    1.852    0.460
       103 -11.7717      9.6725     97.3065   1.1670670200e+02   5.4840542499e+01     1.058453    0.4553306  81.98  0.005276867    2.205    0.546
       104 -12.0854      7.2487     88.8714   1.1672511681e+02   5.6907500980e+01    0.5749079     0.407876  42.00  0.002392617    1.507    0.336
       105 -11.1413     17.2388    100.9089   1.1473577795e+02   5.3457054338e+01    0.4411655    0.2438944  31.61 0.0005655471    1.986    0.497
       106 -11.5682     34.9363     92.4151   1.0819992866e+02   5.3784768627e+01     1.562415    0.5943946 -81.27  0.006302952    2.963    0.663
       107 -12.3498     42.2637     85.3495   1.0467431150e+02   5.4633689042e+01      1.62766    0.5415416  27.33  0.006230309    3.942    0.746
       108 -12.1854     22.1423     95.1525   1.1261879075e+02   5.4351738346e+01    0.6389606    0.5073025   7.33  0.004224373    1.779    0.438
       109 -12.4090     18.2787     89.8809   1.1325084042e+02   5.5872836288e+01    0.5247878    0.2852011 -54.71   0.00048811    1.897    0.473
       110 -11.3522     22.5354    114.0527   1.1443475974e+02   5.0083879967e+01     0.398367    0.2623903  11.78  0.001731402    2.292    0.564
       111 -12.0322     28.5010    113.0352   1.1266143904e+02   4.9759078799e+01    0.9153378    0.3836745  72.18  0.004071725    2.789    0.642
       112 -12.7773     25.4869    107.5036   1.1295420036e+02   5.1270337868e+01    0.7719772    0.5743441 -39.42  0.003760898    1.857    0.462
       113 -12.1120     18.7306    106.1566   1.1479201251e+02   5.2160549990e+01    0.2637334    0.2310988 -62.01 0.0002562355    1.353    0.261
       114  -9.0757    221.4666    120.4920   6.9445707865e+01   1.3956991881e+01    0.1311383    0.1171324  13.09 0.0001624369    1.029    0.028
       115  -9.2338    148.2089    119.9612   8.2960334374e+01   2.9321162924e+01    0.2199077     0.163191  -6.12 0.0006953463    1.981    0.495
       116  -9.1646     71.9886    120.2138   1.0161886354e+02   4.2971276392e+01     0.187718    0.1535346  -8.08 0.0008662308    1.970    0.492
       117  -9.4239    184.8620    118.8631   7.5345709566e+01   2.1765136125e+01    0.1868644     0.170514 -83.14  0.001087848    1.338    0.253
       118  -9.4581    210.4890    118.0042   7.0658087452e+01   1.6504107720e+01     0.190143    0.1059121 -50.82 0.0008103687    2.646    0.622
       119 -10.2060    113.3097    115.9762   9.0189843195e+01   3.6991759664e+01    0.2769356    0.1916509  45.86 0.0002586785    1.380    0.275
       120  -9.7830     94.6596    112.0297   9.4151320081e+01   4.1152086918e+01    0.3502547    0.2508117  51.83  0.001897885    1.326    0.246
       121 -10.5002    107.7925    112.1099   9.0768853895e+01   3.8799983871e+01    0.4862653    0.3152431 -87.66  0.001832629    2.198    0.545
       122 -10.8442    102.4100    109.0094   9.1504718020e+01   4.0422851044e+01     0.565183     0.481726  17.32  0.003172763    1.536    0.349
       123  -8.8611     58.4930    116.4626   1.0470606227e+02   4.5633141209e+01    0.1289163    0.1067457  78.80  4.69899e-06    1.032    0.031
       124  -9.4317     67.6339    114.3176   1.0186287430e+02   4.4871895559e+01    0.2892922    0.2011178  72.45  0.001622184    1.427    0.299
       125  -9.8076     66.9744    110.5228   1.0142643352e+02   4.5799368590e+01    0.3008709    0.2144062  38.05   0.00171307    1.508    0.337
       126  -9.4221     36.5382    114.2287   1.1052834253e+02   4.8692537471e+01    0.2888384    0.1274366  69.94  0.001278166    2.699    0.629
       127  -9.3102    126.8991    113.7984   8.6439260254e+01   3.4795290529e+01    0.2116065    0.1908213  26.94 0.0009808742    1.251    0.201
       128 -11.2250    171.1012    110.0793   7.5947578912e+01   2.6108229482e+01    0.5671237    0.3696298  35.98  0.001895729    1.595    0.373
       129  -9.6571     82.4683    102.4813   9.5573074029e+01   4.5236029462e+01    0.2854928     0.165973 -39.76  0.001281581    2.354    0.575
       130 -11.3423     79.5968    108.2293   9.7495769852e+01   4.4434470394e+01    0.6498681    0.3768106  45.07  0.002352384    1.677    0.404
       131 -10.6821     91.0399    103.7541   9.3445978154e+01   4.3536112714e+01     0.401648    0.3478379  36.84  0.001450005    1.301    0.231
       132 -10.2937     85.8765    103.8804   9.4900605633e+01   4.4375286196e+01    0.4165322    0.2739314 -35.55  0.001538194    2.164    0.538
       133 -10.1962    120.2999    109.3992   8.7059578054e+01   3.6962522519e+01    0.3029899    0.1920567 -46.59  0.001465003    1.670    0.401
       134  -9.7064     48.9463    112.2581   1.0677989268e+02   4.7747443669e+01    0.2590603    0.1849814  45.67  0.001307639    1.391    0.281
       135 -10.4068    157.6172    106.3568   7.7812330193e+01   2.9694639165e+01    0.3822814    0.2814565  -6.42  0.001540422    1.868    0.465
       136  -9.5149    150.3166    108.6315   7.9924042730e+01   3.0885982587e+01    0.1482768    0.1122225 -84.40 5.423656e-05    1.782    0.439
       137 -10.5272    143.2930    105.9966   8.0851976392e+01   3.2872309215e+01    0.3245365    0.2539701  68.55  0.001340023    1.384    0.278
       138 -11.9029    145.2913    100.6829   7.9102250345e+01   3.3410241943e+01    0.5372253    0.4967172   9.11  0.001924668    1.204    0.170
       139  -9.6176     45.9192    105.3686   1.0669243624e+02   4.9644650921e+01    0.3049221    0.1576675 -52.19  0.001520803    2.132    0.531
       140 -10.2283     57.4889    102.4936   1.0282435085e+02   4.8874575523e+01    0.3471575    0.1635313 -68.58 0.0008131752    1.999    0.500
       141 -10.4501     58.8328     98.5695   1.0174769181e+02   4.9584475784e+01    0.6506331    0.3204974  59.03  0.002912197    2.372    0.578
       142 -10.9638     89.7679     89.4202   9.0587729085e+01   4.6859424857e+01    0.7563661    0.3785693 -40.41  0.003064911    2.558    0.609
       143  -9.3525     81.4702     97.6292   9.4854878729e+01   4.6462681111e+01    0.2070314     0.126983 -59.81 0.0001459125    1.570    0.363
       144  -9.7286     77.4538     96.9880   9.5890336201e+01   4.7244693213e+01    0.2787687    0.1944796  46.15 0.0005199673    1.440    0.306
       145 -10.6193     82.7098     93.2411   9.3539839604e+01   4.7226580113e+01    0.4045419    0.2669187  42.86  0.001080596    1.557    0.358
       146 -10.6576     76.9258     93.0057   9.5202259973e+01   4.8212461600e+01    0.4621542    0.3710318 -21.20  0.001771631    1.807    0.447
       147 -10.3932     64.7582     99.3562   1.0011170579e+02   4.8600117072e+01    0.3247859    0.2225181  26.32  0.001280523    1.875    0.467
       148 -10.7115     68.1358     95.0820   9.8278016228e+01   4.9079920868e+01    0.4836771    0.2730924  46.87  0.002405029    1.771    0.435
       149 -11.1086     50.9861     96.1179   1.0372392593e+02   5.1141218036e+01     1.046319    0.3946315 -74.07  0.004083761    2.975    0.664
       150  -9.4602    120.8306    101.1887   8.5032535308e+01   3.8489271000e+01    0.1924771    0.1752341   2.58 0.0007459038    1.348    0.258
       151  -9.9970    210.8916     97.5337   6.5751634812e+01   1.9138009268e+01    0.4147565     0.260235  31.80  0.001850916    1.712    0.416
       152 -10.2694    117.4843     93.0342   8.3871096620e+01   4.0805531070e+01     0.449309    0.2753527  37.56  0.001252664    1.827    0.453
       153 -10.7699    121.2250     88.9008   8.1835792210e+01   4.0855872625e+01    0.4185887    0.3225204  34.88  0.001856887    1.449    0.310
       154 -10.8087    120.8409     85.3131   8.0968218632e+01   4.1649681879e+01    0.4165441    0.2567214  45.65  0.001895728    1.628    0.386
       155 -10.3799    126.0078     93.5052   8.1834768613e+01   3.8936018453e+01    0.3468071    0.3026294  55.67   0.00110617    1.111    0.100
       156 -10.6492    122.4806     93.5439   8.2726799887e+01   3.9670381472e+01    0.3354656    0.2480714 -50.18 0.0008882024    1.375    0.273
       157  -9.5328    160.5274     93.5161   7.3955122158e+01   3.1245415165e+01    0.3491153     0.213584  67.00  0.001354278    2.021    0.505
       158 -10.6789    153.0329     91.6507   7.5057436337e+01   3.3292128126e+01    0.6130861    0.3691681  55.81  0.002551573    1.664    0.399
       159  -9.4387    137.3895     93.8727   7.9181303450e+01   3.6406870978e+01    0.2956904    0.2198886  14.89 0.0008034035    1.912    0.477
       160 -12.0160    101.8851     89.9691   8.7273884666e+01   4.4522622158e+01     0.832427    0.6611297  32.69  0.001172342    1.457    0.314
       161 -10.2056    104.6315     76.2917   8.2823432471e+01   4.6843622934e+01    0.4282316    0.3893108 -58.86  0.002404727    1.072    0.067
       162 -10.5629    113.7977     83.7943   8.2401810222e+01   4.3433809207e+01    0.4176024    0.3060805 -47.50   0.00121123    1.367    0.268
       163 -10.9620    109.3767     80.5652   8.2708141549e+01   4.5001430696e+01    0.3913998    0.3659941  42.95 0.0006545933    1.139    0.122
       164 -10.1376     93.9064     76.4849   8.6006669942e+01   4.8893612571e+01    0.6145301    0.3237823  38.64  0.002358327    2.135    0.532
       165 -10.2706    142.9856    249.3348   1.0238863585e+02   1.1587051147e+01    0.1532015   0.09231061  42.25  0.001166446    1.124    0.110
       166 -10.6952     46.9079     74.2333   1.0092182667e+02   5.6666688179e+01    0.3033203     0.178184 -61.17  0.001591502    1.491    0.329
       167 -10.3796     67.3343     81.9176   9.5708419088e+01   5.2169551519e+01    0.9740243    0.7220218 -57.20  0.005450496    1.276    0.216
       168 -13.1607     52.5426     73.5694   9.8783915546e+01   5.6121038699e+01    0.5349409    0.2948335 -68.18  0.001218486    1.699    0.411
       169  -8.6841    242.6687    247.6647   8.7491321179e+01  -1.6112148267e+00    0.1017072   0.05040219  21.50 0.0007052172    1.732    0.423
       170 -11.1203     78.9289     83.1055   9.2315359787e+01   5.0090937672e+01    0.6393448    0.4950591  79.34  0.002171025    1.397    0.284
       171 -11.7036     73.7116     78.1388   9.2736735648e+01   5.2039620101e+01     1.303061    0.6810932 -32.61    0.0046933    3.740    0.733
       172 -11.5976     85.3479     73.3699   8.7759143311e+01   5.1129402252e+01    0.6142582    0.4939464  47.15  0.002014802    1.299    0.230
       173 -11.0764     80.3609     67.2461   8.7604126569e+01   5.3334096068e+01    0.5560552     0.489234  46.68  0.002040054    1.214    0.176
       174  -9.3285    199.9668     87.9505   6.5097808958e+01   2.2921549296e+01    0.2158458    0.2072866  21.18 0.0005341372    1.034    0.033
       175 -10.2555    184.1205     86.4209   6.7449604234e+01   2.6859958546e+01    0.5727808    0.2915308 -44.64  0.002329766    2.152    0.535
       176 -10.4169    165.6139     83.4119   7.0169420538e+01   3.1747889512e+01     0.421638    0.3332455 -49.38  0.001494956    1.342    0.255
       177 -11.1241    143.1430     84.0110   7.5175817211e+01   3.6936911661e+01    0.3247999    0.3004272  83.81 0.0006342107    1.117    0.105
       178 -10.4531    127.4904     83.0397   7.8651106003e+01   4.0653867412e+01    0.4325407     0.277322 -46.93  0.001762228    1.576    0.366
       179 -10.7749    127.3496     77.3661   7.7058737964e+01   4.1776592498e+01     0.905367    0.4734438 -65.82  0.002879333    3.812    0.738
       180 -10.7839    120.0971     68.8809   7.6353264446e+01   4.5031189644e+01    0.4393334     0.325701 -76.26 0.0006556543    1.709    0.415
       181 -11.3690    123.8262     67.8370   7.5054927350e+01   4.4388205837e+01    0.6876817    0.4662227  32.97  0.002950571    1.792    0.442
       182 -10.4117    232.3591     76.8867   5.7395973017e+01   1.7000774959e+01    0.5548819    0.2370518 -38.61  0.002286324    2.312    0.567
       183  -9.4841      8.5801     76.5724   1.1503651115e+02   5.9624009858e+01    0.2562307    0.1102553 -51.79 0.0008697348    2.423    0.587
       184  -9.3167     19.9760     71.5009   1.1023014641e+02   5.9975238462e+01    0.1497261    0.1205486  -6.41 0.0008058902    1.717    0.417
       185 -11.7181     14.0749     74.7569   1.1285094600e+02   5.9667073826e+01     0.471767    0.3065704 -78.09  0.001593101    1.243    0.195
       186 -10.4325     14.2705     67.3610   1.1176040080e+02   6.1363458841e+01    0.3168274    0.2692949  18.44  0.002096539    1.504    0.335
       187  -8.9422    170.5089     77.9369   6.7653236542e+01   3.1455299352e+01    0.2222206    0.1474087 -32.04 0.0005748965    1.528    0.346
       188 -11.7889      1.9632     71.2985   1.1685744685e+02   6.1228747954e+01    0.5812435    0.1636901 -77.21  0.002500449    2.732    0.634
       189 -12.4335      6.1433     62.4204   1.1423839500e+02   6.3030378118e+01    0.6307691    0.4270611 -41.91  0.002794989    1.702    0.412
       190  -9.6922    192.4433     65.6331   6.0180021953e+01   2.7873619139e+01    0.2844891    0.2280003 -69.70 0.0009660658    1.487    0.327
       191 -12.0860    186.5829     70.5133   6.2573823837e+01   2.8633444209e+01    0.8886522    0.6299923 -28.41  0.003162967    1.400    0.286
       192  -9.9604    184.0886     61.5282   6.0351201318e+01   3.0556465955e+01    0.2923999    0.2779364 -20.64 0.0007076685    1.039    0.037
       193  -9.4307    241.9643     75.3054   5.5764261131e+01   1.5098736063e+01     0.183793    0.1684423  12.60 0.0003935154    1.074    0.069
       194  -9.6509    113.6332     75.0431   7.9957490940e+01   4.5231875713e+01    0.3447088    0.1994187  40.99  0.001484036    1.877    0.467
       195 -10.8569     22.1490     36.8362   1.0201447051e+02   6.7775627805e+01    0.5974335    0.2554942  50.76  0.002586797    3.358    0.702
       196 -11.9929     40.8562     70.3868   1.0229006071e+02   5.8253039414e+01    0.7279965    0.2645629 -57.89  0.001693908    2.298    0.565
       197 -11.4371     32.3749     71.9950   1.0572939701e+02   5.8763567711e+01    0.5441808    0.2638921  32.32  0.002228297    2.289    0.563
       198 -11.9516     21.5079     46.6810   1.0487435682e+02   6.5594496677e+01    0.6460656    0.5368055 -17.74  0.002463625    1.499    0.333
       199  -9.6515    175.3557    246.8736   9.7152650282e+01   7.4168262147e+00    0.1851883    0.1015547  44.84  0.001092273    1.356    0.262
       200 -11.0574     40.7027     56.9232   9.9212328453e+01   6.1371313864e+01    0.4590509    0.2989829  55.33  0.001527044    1.767    0.434
       201 -11.7352     33.0722     58.7620   1.0273746213e+02   6.1762055333e+01    0.5652809    0.3474823   1.84 0.0002976247    2.713    0.631
       202 -11.1226     19.6263     54.9651   1.0748983754e+02   6.3837627582e+01    0.5886593     0.345174  59.28  0.003171124    1.966    0.491
       203 -11.7119     27.5424     54.4558   1.0403845409e+02   6.3284420033e+01    0.8518538    0.5794895  -6.91  0.004760731    2.193    0.544
       204 -11.2036     50.9295     61.3441   9.6368423662e+01   5.9123106233e+01    0.3853969    0.2817283  56.62  0.001388932    1.512    0.339
       205 -11.4896     46.2004     58.4951   9.7438131307e+01   6.0365498698e+01    0.4488074    0.3017263 -52.94 0.0009338096    1.352    0.260
       206 -10.3459     53.5158     49.6014   9.1930785946e+01   6.1406706866e+01    0.5273417    0.3267957  76.65  0.002318617    2.716    0.632
       207  -9.0584    151.2022     73.6201   7.0357126017e+01   3.6873503059e+01    0.2222983    0.1342941  44.54 0.0008503308    1.693    0.409
       208  -9.7447    162.2623     70.7949   6.7191584088e+01   3.4634748006e+01    0.3113183    0.2579663 -74.56  0.001120995    1.406    0.289
       209  -9.8759    172.4810     68.4919   6.4512747643e+01   3.2452344760e+01    0.4103746     0.299731  27.03  0.001575223    1.596    0.373
       210  -9.9145    172.0004     65.4785   6.3694421019e+01   3.3036630097e+01    0.4358598    0.3705293  71.94  0.002238099    1.248    0.198
       211  -9.1842    115.2276     69.3842   7.7810341716e+01   4.6009506354e+01    0.2107615    0.1394461  61.55 0.0005885526    1.663    0.399
       212 -11.4706    219.8565     66.4590   5.6330000249e+01   2.1111914958e+01    0.6064474    0.3721424  60.72  0.002227393    1.725    0.420
       213  -8.9724    208.1817     68.5690   5.8569424035e+01   2.3619088676e+01     0.213686    0.1252692  46.06 0.0009520079    1.731    0.422
       214 -10.7888     21.2776     65.5930   1.0877875404e+02   6.1242369352e+01    0.3031493    0.1936103  75.03 0.0007436749    1.628    0.386
       215  -9.9556     25.9669     65.4810   1.0693959239e+02   6.0872251837e+01    0.2080074    0.1657121 -75.87 0.0004817589    1.039    0.037
       216  -8.6811    111.6294     67.3012   7.8144459339e+01   4.7200227805e+01    0.1546771    0.1154015 -87.80 0.0007031612    1.745    0.427
       217 -11.1373     59.2551     63.2801   9.3790716916e+01   5.7554570577e+01    0.5673056    0.4490658 -72.93  0.002843387    1.201    0.167
       218 -11.2817     58.2697     77.8606   9.7781525067e+01   5.4380769749e+01    0.5788731     0.416401 -71.98  0.001998264    1.283    0.221
       219 -10.1338    105.8846     63.8369   7.8661453813e+01   4.9113871683e+01    0.3786804     0.279589 -36.53  0.001712135    1.409    0.290
       220 -11.4427    234.1589     61.1616   5.3073567155e+01   1.8437397187e+01     0.612072    0.4670063  80.43  0.003299853    1.597    0.374
       221  -9.8718    199.3290     63.4637   5.8463626780e+01   2.6459337132e+01    0.4989707    0.3007697  83.30  0.002025907    2.406    0.584
       222 -10.3554    159.1761     62.0186   6.5106946386e+01   3.6825365663e+01    0.5242048     0.278638  42.14   0.00205873    2.065    0.516
       223  -9.3221    198.8164    244.4489   9.3360794722e+01   4.4185035043e+00    0.1974177   0.07042802  44.15  0.001134705    2.092    0.522
       224 -11.4629    127.9789    241.7349   1.0410004834e+02   1.4468565710e+01    0.3287923    0.2496412  49.53  0.002774026    1.119    0.106
       225  -9.1038    163.5158    243.5182   9.8631674322e+01   9.3824758466e+00    0.1034631   0.07092741  41.07 2.980808e-05    1.028    0.027
       226 -10.5038    139.5045     44.0679   6.3165252759e+01   4.4714751294e+01     0.535726    0.2979448  37.85  0.002022784    2.165    0.538
       227  -8.4347    200.3143    241.3381   9.2782140516e+01   4.4822951566e+00    0.1026446   0.05892809  22.36 0.0004256463    1.696    0.410
       228 -10.8910    134.5145     50.2040   6.6498963964e+01   4.4984305451e+01    0.5033937     0.359256 -75.33  0.002209833    1.861    0.463
       229 -11.4431    153.1578     36.1399   5.7494596272e+01   4.2301073892e+01    0.3448947    0.2893503 -46.90 0.0004319282    1.206    0.171
       230 -11.1080    157.4233     55.4142   6.3328766630e+01   3.8317427306e+01    0.6673508    0.5662143  86.86  0.003362594    1.303    0.233
       231 -10.5967    155.4985     49.9276   6.1880925064e+01   3.9663622110e+01    0.3653289     0.272793 -11.55 0.0007621428    1.533    0.348
       232  -9.8637    105.4813     56.4651   7.6312313645e+01   5.0647864423e+01    0.6083404    0.2168955 -52.92  0.001790057    3.956    0.747
       233  -8.4102    219.6806     57.2795   5.3832086126e+01   2.2275533712e+01    0.1434018    0.1052374 -58.54 0.0003896015    1.580    0.367
       234 -10.0458    188.0004     55.6718   5.7933254962e+01   3.0377854341e+01    0.2694059    0.2487268  22.47 0.0004216658    1.110    0.099
       235 -10.0376     66.9967     54.7883   8.8413437078e+01   5.8265131692e+01    0.3388217     0.189629 -62.13 0.0009375371    1.870    0.465
       236  -9.3999    139.0368     77.3157   7.4205635703e+01   3.9111114583e+01    0.2120946    0.1887572  56.77 0.0002335719    1.108    0.098
       237  -9.6790    237.8123     54.3159   5.0831046081e+01   1.8380289113e+01     0.271643    0.1979323 -48.91 0.0007800197    1.453    0.312
       238 -10.8362    240.3627     50.4329   4.9518390686e+01   1.8228085633e+01    0.3706188    0.3074043 -14.71  0.000980502    1.116    0.104
       239 -10.1154    248.3409     52.6543   4.9254173613e+01   1.6210681384e+01    0.2675006    0.2228031 -35.36 0.0008246505    1.140    0.123
       240 -10.4820    244.9755     51.2742   4.9248040749e+01   1.7100910143e+01    0.3099664    0.2442003 -73.75  0.001631587    1.540    0.351
       241  -9.7240     59.6368     24.0114   7.9309436068e+01   6.5739241871e+01    0.2408114    0.1875833 -39.71 0.0004347042    1.155    0.134
       242  -9.6123     60.2858     20.0029   7.7082455897e+01   6.6363904387e+01    0.3199364    0.2295456 -77.11  0.001472577    2.246    0.555
       243  -9.7084     67.9801    240.4893   1.1377022502e+02   2.2264931378e+01    0.1507741   0.06898322  41.99 0.0006221113    1.571    0.363
       244 -11.5627     60.5001     36.2618   8.4285494040e+01   6.3202131857e+01    0.4004346    0.2433574 -47.08 0.0005235432    1.478    0.323
       245 -11.2527     57.3387     30.6203   8.3273474737e+01   6.4837125198e+01    0.4679174    0.3503455  -4.53  0.002160132    1.807    0.446
       246 -11.5596     48.7862     30.3065   8.6922597671e+01   6.6178262595e+01    0.5906394    0.3128757  30.94  0.002265772    2.318    0.569
       247  -9.7521    211.3300     53.1029   5.3751707396e+01   2.4818316637e+01    0.2885461    0.2214883  77.26  0.001467119    1.470    0.320
       248 -11.2568    201.6695     46.8908   5.3237261789e+01   2.8018116946e+01    0.8404658    0.5861264 -38.69  0.004067163    1.389    0.280
       249 -10.7289    174.0565     47.9974   5.7821776841e+01   3.5072575158e+01    0.6616183    0.5189869  63.31  0.003258281    1.290    0.225
       250  -9.8791    176.7930     43.5645   5.5917844116e+01   3.4955939840e+01    0.3687506    0.2649306  60.03  0.001737598    1.390    0.280
       251 -12.6808    119.8463     37.8835   6.5463864063e+01   5.0649263869e+01     0.864667    0.6308666 -82.63  0.002991938    1.827    0.453
       252 -10.5022     90.9181     47.4970   7.7554105317e+01   5.5438896169e+01    0.3164017     0.237817 -52.10 0.0005653732    1.305    0.233
       253  -9.4588      2.5651     48.7703   1.1381940284e+02   6.6365691842e+01    0.2461784    0.2024395  18.58  0.001762189    1.551    0.355
       254  -8.8516      2.7029     44.6943   1.1311496466e+02   6.7292581020e+01      0.21614     0.131431 -43.12 0.0009112236    1.735    0.424
       255  -9.7129      6.1615     42.3538   1.1108142031e+02   6.7644120276e+01    0.3824367    0.2071815  88.05  0.001867498    1.863    0.463
       256  -9.2854    161.7820     47.8924   5.9981328332e+01   3.8323376519e+01    0.2762193    0.1927678 -78.17 0.0004972472    1.878    0.468
       257  -9.6699    162.8379     43.8781   5.8425076024e+01   3.8625136803e+01    0.3284156     0.282873  44.62  0.001672165    1.179    0.152
       258 -10.3593     14.4901     46.0150   1.0792397432e+02   6.6280628568e+01    0.3664088    0.1766559 -37.90  0.001679406    2.548    0.608
       259  -9.8296     17.6600     42.0377   1.0555022453e+02   6.6959498830e+01      0.37718    0.2192983 -34.09  0.002049132    2.083    0.520
       260  -9.0007    209.2765     47.3833   5.2362061099e+01   2.6028401324e+01    0.1932057    0.1420241  81.24 0.0007760868    1.560    0.359
       261  -9.7161    234.1097     44.8283   4.8684998717e+01   2.0280873705e+01    0.1907853      0.15581  28.03 0.0004855298    1.317    0.241
       262 -11.4125    156.0337     41.9395   5.9019945016e+01   4.0710499484e+01    0.5124483    0.3868714 -39.04 0.0009496971    1.311    0.237
       263  -9.2034    101.4884     44.5005   7.3126170712e+01   5.3777712511e+01    0.2321481    0.1785361 -68.45 0.0008978881    1.546    0.353
       264 -10.3908     97.8252     41.6102   7.3109376727e+01   5.5105503573e+01    0.3588082    0.2643217  66.16 0.0005741347    1.570    0.363
       265 -10.6860     92.9660     41.3595   7.4532206695e+01   5.6186846076e+01    0.4524834    0.3525733  50.24  0.001759946    1.346    0.257
       266 -10.8893    189.1087     40.4793   5.3029106213e+01   3.2089536489e+01    0.6316973    0.2404251 -23.30  0.002165158    2.687    0.628
       267  -9.8560     86.1587     30.8195   7.2355270032e+01   5.9517409177e+01    0.4313788    0.3007935  -9.19  0.001999522    1.942    0.485
       268 -10.8146     80.8034     39.9157   7.8031320226e+01   5.8904696429e+01    0.5610189    0.4479616  51.68  0.002798656    1.351    0.260
       269 -10.8582     77.2503     34.4017   7.7026333297e+01   6.0636046420e+01    0.4759148    0.2747686  45.02  0.001334139    1.862    0.463
       270 -10.1203     81.2275     30.9850   7.4124279566e+01   6.0491089729e+01    0.4405851    0.2357817 -50.03  0.001900788    1.977    0.494
       271  -9.9367    231.4052     39.2594   4.7440654530e+01   2.1524496010e+01    0.3213426    0.1956345 -43.18  0.001158125    1.592    0.372
       272 -11.2355    175.9701     35.9652   5.3524378043e+01   3.6173318743e+01    0.7487339    0.5319505 -79.80  0.002448809    1.697    0.411
       273  -9.4472    182.4976     32.4273   5.1365867659e+01   3.4852336843e+01    0.2392924    0.2310651  56.64  5.81471e-05    1.051    0.049
       274  -9.5380    133.1750     36.8431   6.1874477344e+01   4.7459644720e+01    0.4471914    0.2789634 -73.62  0.001718213    2.472    0.595
       275  -9.6922    206.8284     37.0029   4.9581752127e+01   2.7880058296e+01    0.2405284    0.2165014  64.34 0.0007115223    1.153    0.133
       276  -9.2350    172.3062    239.3122   9.6824369494e+01   8.5782036655e+00    0.1001429   0.06292781  24.47 0.0003480822    1.619    0.382
       277 -11.0145    148.9533    237.6138   1.0034325352e+02   1.2043932907e+01    0.3561604    0.1594359  43.03    0.0019107    1.553    0.356
       278 -10.6813    198.2305    232.4752   9.2048875677e+01   5.5645497848e+00    0.2705288    0.2007518  35.44  0.002200149    1.106    0.096
       279 -10.4295    144.5643     25.5366   5.5130488448e+01   4.6044885409e+01    0.6265685    0.3543971  69.77  0.002568519    1.878    0.467
       280  -9.6765     15.1207    233.7137   1.2204017367e+02   2.8822969487e+01    0.1546464    0.1072672  80.15  0.001022898    1.365    0.267
       281 -10.0123    247.5315    231.3390   8.4736108598e+01  -1.1033370723e+00    0.1428287   0.08765445 -22.77 0.0007190448    1.951    0.488
       282  -9.9753    205.4733    234.0039   9.1140667104e+01   4.4061831656e+00     0.167449   0.09654348  37.66  0.000537497    1.222    0.182
       283  -9.6899     23.7361    231.7177   1.2059275959e+02   2.8285303643e+01    0.1362676   0.06722437  57.11  0.001038966    1.323    0.244
       284  99.0000      6.5444     36.3739   1.0969704986e+02   6.8985593988e+01    0.9196593    0.3300524 -69.89  0.004353384    2.145    0.534
       285  -9.4329    241.3222    230.6624   8.5510386283e+01  -2.3480670835e-01   0.08517364   0.07114768  44.46 0.0004354792    1.715    0.417
       286  -9.0759    190.1473    229.8270   9.2972305701e+01   6.9693745005e+00    0.1459086   0.09416411  27.23 0.0008707984    1.327    0.246
       287  -9.6644    108.3811    230.2038   1.0635281191e+02   1.8549857337e+01    0.1235791   0.08849442  83.91  0.000524038    1.672    0.402
       288 -10.1546    234.3304    222.9652   8.5469419465e+01   1.3040363275e+00    0.1426088    0.1022063  21.35 0.0005265433    1.079    0.073
       289 -10.3535    165.2937    212.4156   9.4871989446e+01   1.2529321076e+01    0.2534234    0.1420486  50.75  0.001000812    1.597    0.374
       290  -9.7073    153.0611    207.8387   9.6402129944e+01   1.4969885262e+01    0.1758879    0.1252155  53.83  0.001117248    1.303    0.233
       291  -9.6285     61.0109    206.9584   1.1295483407e+02   2.8024591415e+01    0.1624892    0.1121727  57.62 0.0004590983    1.031    0.030
       292 -10.1159    238.6523    204.6868   8.2233313447e+01   2.1923924926e+00    0.1949645    0.1260972 -27.64  0.001396074    1.866    0.464
       293 -12.1092      4.7333    184.3729   1.2242869081e+02   3.7671462595e+01    0.5369379    0.3100914  59.70   0.00319252    1.199    0.166
       294 -12.3234    105.9592     32.7358   6.7077067327e+01   5.4817156937e+01    0.7340243    0.4526437  12.03  0.002691136    2.932    0.659
       295 -12.5276    114.4889     25.0171   6.1489104109e+01   5.3958268272e+01    0.7480547    0.3484366  56.34 0.0005998755    2.119    0.528
       296 -10.8937    245.6477    200.6001   8.0603755618e+01   1.5225786436e+00    0.1908043    0.1352518  13.81 0.0006782844    1.144    0.126
       297  -8.8558    207.4274    201.4724   8.6499315668e+01   7.1904777717e+00    0.1123085   0.08402547  29.04 0.0004209034    1.022    0.022
       298  -9.4913     66.3924     28.1768   7.8439153936e+01   6.3797980456e+01    0.3233159    0.2101576  22.89  0.001532591    2.119    0.528
       299  -9.1197    216.5990     32.2349   4.7022863190e+01   2.5923286768e+01    0.1958466    0.1344558  -7.87 0.0004327637    1.554    0.357
       300 -10.1711     68.6385     33.0065   7.9674509138e+01   6.2481678737e+01    0.4589863    0.3439465  52.21   0.00249015    1.503    0.335
       301 -10.4054    189.1734     28.0841   4.9019402455e+01   3.3564291673e+01     0.513356    0.3129734   8.48  0.002092296    2.194    0.544
       302 -10.4626    234.4550    196.9863   8.1679323603e+01   3.4818206103e+00    0.3523479    0.1928084  26.10  0.001657436    1.556    0.357
       303 -10.2332    177.0833     29.8476   5.1284206177e+01   3.6632896306e+01    0.4608827    0.2715342  47.70  0.001304037    1.747    0.428
       304  -8.7452     83.6131    195.8203   1.0786079515e+02   2.6944143728e+01    0.1357811   0.09224955  83.95 0.0004637552    1.534    0.348
       305  -9.3782     35.8585     31.3473   9.3451399370e+01   6.7615027177e+01    0.1869576    0.1528764  66.40  0.001148569    1.496    0.332
       306  -9.4428    221.7998     29.6004   4.5700518845e+01   2.4900351525e+01    0.2438245    0.1827151 -10.02 0.0005981082    1.361    0.265
       307 -10.5917     98.5402     27.7513   6.7068333830e+01   5.7340061392e+01    0.5063445    0.2746893 -47.11 0.0009059198    1.964    0.491
       308 -10.3108    230.6227     26.8843   4.4057124959e+01   2.3008423966e+01    0.3745609    0.2114383 -34.59 0.0009398495    1.575    0.365
       309  -9.3969     41.2759     28.0636   8.9524070936e+01   6.7650981802e+01    0.3519999    0.1124632 -43.07  0.001142227    3.178    0.685
       310 -10.0302    250.4889     26.7463   4.2283722184e+01   1.8366360425e+01    0.2714088    0.1448473 -17.27 0.0005895948    1.764    0.433
       311 -10.5027      4.5119    204.5439   1.2304075530e+02   3.4280788636e+01    0.1979171    0.1221783 -75.75  0.001306573    1.840    0.457
       312  -8.9329     44.9407     24.4233   8.6188470808e+01   6.7905670461e+01    0.2251843    0.1564055 -57.10 0.0005336956    1.394    0.283
       313  -9.8712    161.5218     23.4777   5.1408348353e+01   4.1666813122e+01     0.221866    0.1933465 -77.40 -9.706451e-08    1.206    0.171
       314  -9.9274    169.8083    191.5198   9.1335197176e+01   1.4367841469e+01    0.2986946    0.1509996  34.28 0.0009967564    1.820    0.450
       315  -9.8234    239.9049    184.6400   7.8902605228e+01   3.7714301185e+00    0.1805509    0.1270926   8.70 0.0005781506    1.259    0.206
       316  -9.8504     80.3523     19.4094   6.9004790957e+01   6.2646451784e+01       0.3339    0.2365946  43.39 0.0009244801    1.483    0.326
       317 -10.1302    212.9249    181.1034   8.2472442028e+01   8.4365218728e+00    0.2520112    0.1244984  24.97  0.001266313    2.306    0.566
       318  -8.9053     55.4269     24.2775   8.1268942367e+01   6.6375853541e+01    0.1858234    0.1171934 -53.80 0.0009356409    1.594    0.373
       319 -10.5257    243.2034     22.1358   4.1647168390e+01   2.0480289721e+01     0.400192    0.1589793  62.36  0.001671327    2.567    0.610
       320  -9.2624    223.1729     22.2214   4.3424102905e+01   2.5316879298e+01    0.2916695     0.174654 -45.95  0.000628358    1.615    0.381
       321  -9.8029    250.2434    179.2318   7.6497397779e+01   2.6737602643e+00    0.2758213    0.1349877 -15.01  0.001581581    2.185    0.542
       322  -9.5921     74.5122     19.5479   7.1175422966e+01   6.3807678245e+01     0.241432    0.1940828 -10.96 0.0006667414    1.332    0.249
       323  -9.5972     28.2155    176.1506   1.1743833302e+02   3.6960726625e+01    0.1930599    0.1372728  64.72 0.0009202592    1.015    0.015
       324  -9.7705    124.3373     20.6826   5.7284588369e+01   5.2056073620e+01    0.3010223    0.2329082 -76.20  0.001444762    1.545    0.353
       325  -9.9901     51.8707    173.4418   1.1236133106e+02   3.4871829856e+01    0.3040686    0.1384385  87.40  0.001592482    2.490    0.598
       326  -9.0543    230.4509    175.4915   7.8786559212e+01   6.1442846188e+00    0.1169511   0.09076822  21.86 6.324145e-05    1.008    0.008
       327 -10.3413     16.5089    203.0424   1.2086154384e+02   3.3434696161e+01    0.2393458   0.08127616 -83.33  0.001390926    2.839    0.648
       328  -9.8368    247.4139    173.9270   7.5995363863e+01   3.5887285343e+00    0.4251752   0.09654032  37.21  0.001578898    4.205    0.762
       329  -9.9059     39.2362    173.2385   1.1498959704e+02   3.6342242193e+01     0.192018    0.1367559  80.14 0.0009026701    1.189    0.159
       330  -9.5629     94.4944     36.0239   7.1876538687e+01   5.6832502230e+01    0.2681543    0.2036312  74.89  0.001079874    1.640    0.390
       331  -9.3578    211.3682     18.9073   4.3581252106e+01   2.8661568333e+01    0.2014366    0.1721155 -24.09 0.0003802779    1.127    0.113
       332  -9.0077    194.4458     19.1718   4.5467428327e+01   3.3119557613e+01    0.2635639     0.141996 -50.88 0.0005958672    1.971    0.493
       333 -10.3279     35.2568    170.0506   1.1561746890e+02   3.7362594154e+01    0.3326355    0.1526718  81.74  0.001836012    2.134    0.531
       334  -9.8627      9.0911    156.3384   1.2049954451e+02   4.2474933788e+01    0.2393115    0.1563465 -78.41  0.001722716    1.486    0.327
       335 -11.5986      9.6570    166.9343   1.2082749818e+02   4.0408461109e+01    0.4578235    0.2767106  73.18   0.00214102    1.243    0.195
       336  -9.3299    205.2489     17.4093   4.3737318239e+01   3.0415309489e+01    0.1992909    0.1383003 -88.13 0.0007026392    1.579    0.367
       337 -11.2244     13.8851    159.1640   1.1958453052e+02   4.1514140369e+01    0.3907179    0.2222505 -83.86  0.001730874    1.555    0.357
       338 -10.4158    186.3243     15.1788   4.5084964510e+01   3.5741965127e+01    0.2636682    0.2468174 -86.49  0.000323545    1.067    0.063
       339  -9.0305    197.8369    167.8924   8.2743509453e+01   1.2532147224e+01    0.1509226    0.1398835  51.83  0.001050925    1.304    0.233
       340  -8.9252    174.2346     15.6462   4.6741363779e+01   3.9029362441e+01    0.2102221    0.1306095  58.49 0.0006590482    1.569    0.363
       341  -9.9730    188.5433    165.1695   8.3881425312e+01   1.4531096976e+01    0.3908184    0.1949929 -18.52  0.001669734    3.503    0.715
       342  -8.3359    156.3250    166.3109   9.0000208549e+01   2.0158409187e+01    0.1242078   0.09095031  19.05 0.0003949348    1.657    0.397
       343  -8.5356    152.4297    166.5274   9.0784546646e+01   2.0817142274e+01    0.1252145    0.1056158  41.02 0.0001051285    1.047    0.044
       344 -10.0739     18.8396    164.9807   1.1880615262e+02   3.9951808313e+01    0.2297528    0.2008641  26.18  0.001836249    1.618    0.382
       345  -9.5559     40.1224    162.4533   1.1405013532e+02   3.8281761300e+01    0.3673869    0.1267786 -84.51  0.001654459    3.280    0.695
       346 -10.4630     27.7782    162.1562   1.1672636607e+02   3.9629924323e+01    0.3282476    0.1780384 -88.37  0.002084464    1.642    0.391
       347  -9.9393    205.4559    162.7196   8.0545094004e+01   1.1807743491e+01    0.3228326    0.1804404  26.11  0.001518896    1.912    0.477
       348 -10.6575    136.4685     56.2516   6.8140173078e+01   4.3476122481e+01    0.6534305    0.4250216 -11.49  0.002189502    2.178    0.541
       349 -10.3372    246.4375    159.2523   7.3509907191e+01   5.1339171986e+00    0.2956378     0.107071 -25.38  0.001394517    2.810    0.644
       350  -9.5491     79.3296    160.3610   1.0519099252e+02   3.3769289364e+01    0.2533939    0.1377929  68.68  0.001320916    2.011    0.503
       351  -9.5864    215.1284    158.3028   7.8145179493e+01   1.0605460609e+01    0.2113333    0.1540452  -3.54 0.0009084801    1.428    0.300
       352  -9.2314    223.9970    156.9668   7.6478033164e+01   9.1884579870e+00    0.1499103    0.1241822  15.12  0.001004737    1.047    0.045
       353 -12.1802     22.6931    149.2911   1.1706776383e+02   4.2649143540e+01    0.5519938    0.3604279 -52.89  0.002744522    2.089    0.521
       354 -11.0750     10.9289    126.9428   1.1852151389e+02   4.8280823012e+01    0.5145825    0.2086452 -63.03  0.001855107    2.462    0.594
       355 -10.4702     15.2146    147.7266   1.1869837064e+02   4.3643423684e+01    0.3271324     0.175395  47.52  0.001410216    1.551    0.355
       356 -11.7106     12.6280    138.8740   1.1881056549e+02   4.5658619010e+01    0.8797151    0.3802735  78.58  0.004811543    2.044    0.511
       357 -10.4786    104.3559    154.1355   9.8856987043e+01   3.1147875581e+01    0.3032148    0.2480931 -86.05  0.001945754    1.267    0.211
       358 -10.7091     31.5944    153.0453   1.1527822191e+02   4.1025617922e+01    0.4310888    0.2396079  77.62  0.002655633    1.567    0.362
       359  -9.3362     74.7927    153.5255   1.0542317641e+02   3.5717795507e+01    0.2127569    0.1561266 -79.65 0.0008391617    1.355    0.262
       360  -9.8309     70.5969    151.2918   1.0612841713e+02   3.6733061800e+01     0.280849    0.1127506  47.76 0.0008599418    2.110    0.526
       361 -11.9127      3.8481    147.2206   1.2127451118e+02   4.4689348222e+01    0.6322426    0.3443439  86.98  0.003611492    1.476    0.322
       362 -10.4744      5.5000    141.5578   1.2064198509e+02   4.5692085383e+01    0.2026905    0.1539229  68.14 0.0007417701    1.075    0.069
       363 -12.9012      3.8338    137.0672   1.2082726458e+02   4.6732120476e+01    0.3069353    0.1989075 -78.00 0.0005268472    1.430    0.301
       364 -11.2817     47.5108    148.0022   1.1117690834e+02   4.0302505247e+01    0.5432653    0.4232479  79.45  0.003788305    1.075    0.070
       365  -9.8306    214.7442    150.8060   7.6795694399e+01   1.1554459952e+01    0.2579383    0.1884087  35.67  0.001044369    1.184    0.155
       366  -9.3482    234.4355    150.0218   7.3546196527e+01   8.1142090476e+00    0.2517087    0.1422607  -3.13  0.001301323    2.115    0.527
       367  -9.6281    239.8103    146.8410   7.2123483049e+01   7.5124474220e+00    0.1863944    0.1386891  16.47 0.0005459655    1.163    0.140
       368 -10.6193    249.5150    142.4160   6.9845159832e+01   6.2893504705e+00    0.4695973    0.2134749 -21.87  0.002385016    2.161    0.537
       369 -11.1588     63.1383    150.4502   1.0776358372e+02   3.7890710857e+01    0.3692352    0.2990577  28.33  0.001686383    1.576    0.366
