#   1 NUMBER                 Running object number                                     
#   2 MAG_AUTO               Kron-like elliptical aperture magnitude                    [mag]
#   3 X_IMAGE                Object position along x                                    [pixel]
#   4 Y_IMAGE                Object position along y                                    [pixel]
#   5 X_WORLD                Barycenter position along world x axis                     [deg]
#   6 Y_WORLD                Barycenter position along world y axis                     [deg]
#   7 A_WORLD                Profile RMS along major axis (world units)                 [deg]
#   8 B_WORLD                Profile RMS along minor axis (world units)                 [deg]
#   9 THETA_WORLD            Position angle (CCW/world-x)                               [deg]
#  10 FWHM_WORLD             FWHM assuming a gaussian core                              [deg]
#  11 ELONGATION             A_IMAGE/B_IMAGE                                           
#  12 ELLIPTICITY            1 - B_IMAGE/A_IMAGE                                       
         1 -15.7365    248.5405     63.8928   6.3504538586e+00   1.7521786314e+01     7.193348    0.4758023 -34.32   0.01868105    7.224    0.862
         2 -14.3108    245.7540    100.4452   1.4160486638e+01   1.3050753910e+01     3.093572    0.3056169 -43.23  0.007210091    9.054    0.890
         3 -12.9544     12.0793     23.7107   5.6958251473e+01   7.5176211575e+01    0.6926394    0.3252913 -34.27  0.003092065    2.413    0.586
         4 -11.5095      1.6411     24.9718   6.6627200190e+01   7.5737976917e+01    0.4603277     0.139716 -66.36   0.00181498    3.057    0.673
         5 -11.3521     19.8058     14.4717   4.5138516765e+01   7.6048937181e+01    0.3168775    0.2000164 -19.10  0.001627296    1.953    0.488
         6 -12.7715      6.3464     11.3839   5.5466153109e+01   7.8206566530e+01    0.6693317     0.412321 -26.27   0.00372251    1.683    0.406
         7 -11.9274     10.0744      2.2379   4.4981640667e+01   7.9432949043e+01     0.499422    0.2293976  26.07  0.002401308    2.322    0.569
         8 -11.2193     13.6969     12.7868   4.9294929274e+01   7.7146058730e+01    0.2775598    0.1716939 -25.12  0.001476458    1.798    0.444
         9 -12.1021     15.7396      7.3345   4.3578386322e+01   7.7838624964e+01    0.5345129    0.3009116 -16.14  0.002454871    2.690    0.628
        10 -12.2047     25.6067      3.9859   3.2832418941e+01   7.6804753700e+01    0.4614318    0.3016883  14.32   0.00246384    1.873    0.466
        11 -10.6832     41.3837      2.6263   2.2098846564e+01   7.3925166562e+01    0.2781307    0.1616844  27.10  0.001349126    2.063    0.515
        12 -12.5683      3.1230    128.2469   8.1845044465e+01   4.9172418138e+01    0.5300139    0.2359755  81.95   0.00224109    2.138    0.532
        13 -11.6997    244.8659    230.4016   3.7073926815e+01  -3.6809617310e+00    0.2802385    0.1411046 -31.16  0.001695923    1.773    0.436
        14 -10.2880    243.5656    225.0106   3.6480703707e+01  -2.9612254277e+00    0.1825553   0.08190349 -35.33  0.000969044    2.094    0.523
        15 -12.3718    248.7245    215.1687   3.4276092693e+01  -2.3763121983e+00    0.5535932    0.2117792 -27.26  0.003101415    2.378    0.579
        16 -12.1406    242.3859    246.5137   3.9685084394e+01  -5.1434763629e+00     0.480349    0.2212576 -19.20  0.003049945    2.062    0.515
        17 -11.6846    247.0493    239.7743   3.8083523733e+01  -4.8815313223e+00    0.3857642    0.1635922 -26.90  0.002482233    2.069    0.517
        18 -11.2859    250.0595    232.6356   3.6648955602e+01  -4.4168441362e+00    0.3581063    0.1372215 -30.93  0.001921155    2.263    0.558
        19 -11.7564    249.0148    225.3684   3.5749555416e+01  -3.5378145857e+00    0.4079957      0.18248 -33.92  0.002164328    2.022    0.506
        20 -10.8858    249.5120    250.0257   3.9131089373e+01  -6.1402612685e+00    0.3118275    0.1433275  19.61  0.002149472    1.905    0.475
        21 -10.9114    248.7753    245.3027   3.8597401348e+01  -5.6041835480e+00    0.3019136    0.1469444 -18.40  0.002078425    1.818    0.450
        22 -12.1548    233.7690    245.1097   4.0772560478e+01  -4.1848087807e+00    0.3765138    0.1864764 -21.52  0.001973845    1.851    0.460
        23 -11.5026    225.2186    248.4454   4.2529063822e+01  -3.7097413676e+00    0.2550555    0.1539122 -28.28  0.001906813    1.594    0.373
        24 -12.2197    212.2783    248.2178   4.4546833712e+01  -2.3811969668e+00    0.3740115     0.209058  -5.22  0.002448361    1.823    0.452
        25 -11.4611     36.5877    248.6114   7.9269267169e+01   1.8182236225e+01    0.4862447    0.1655154  46.45  0.002442193    2.044    0.511
        26 -12.8108     25.7000    228.9332   8.0769067936e+01   2.3068895599e+01    0.8285252    0.2185016  51.93  0.003466799    2.848    0.649
        27 -14.0164      4.5658    186.2861   8.4198321659e+01   3.4374581866e+01     1.667236    0.5156421  76.60  0.006269925    3.330    0.700
        28 -11.9786     10.8799    225.6115   8.4003896948e+01   2.5188117234e+01    0.5455645    0.1915949  44.52   0.00243184    1.913    0.477
        29 -12.7568     15.6550    240.1106   8.3419266131e+01   2.1882292435e+01    0.7540414    0.2714435  45.13  0.003960373    1.839    0.456
        30 -11.7919      2.3377    220.9246   8.5807678052e+01   2.6920809331e+01    0.5038689    0.2478581  76.84  0.002023072    1.846    0.458
        31 -12.2263      2.5384    212.7250   8.5544303681e+01   2.8623019869e+01    0.7210719    0.2594834  83.56  0.003298262    2.724    0.633
        32 -11.9521     11.9127    248.8471   8.4474883925e+01   2.0606513755e+01    0.5442013    0.1730366  37.71  0.002164038    1.973    0.493
        33 -12.2679      6.6065    236.5183   8.5264956633e+01   2.3420899501e+01    0.6226557     0.251979  52.85  0.003415383    1.762    0.433
        34 -12.1271      4.7520    228.2157   8.5453566530e+01   2.5223923310e+01    0.5741356    0.2457982  51.79  0.002278354    1.670    0.401
        35 -11.3407      3.2265    250.2025   8.6297611577e+01   2.1158568268e+01    0.3835731    0.1420537  31.56  0.001755452    1.983    0.496
        36 -12.6005      3.3279    243.3194   8.6126578893e+01   2.2421705962e+01     0.603662    0.3091228  67.99  0.003721314    1.659    0.397
        37 -12.2117    236.7335    228.7282   3.8028382437e+01  -2.6894290339e+00    0.3138142    0.1657539 -30.18  0.001970289    1.696    0.411
        38 -10.7256    216.8592    231.8616   4.1559490106e+01  -9.6888562706e-01    0.1728278    0.1169989  -1.54  0.001253039    1.232    0.189
        39 -12.4653     20.1367    249.0148   8.2763553753e+01   1.9785086434e+01    0.8868769    0.2265683  29.44  0.003912915    2.848    0.649
        40 -13.6001     12.3263    205.6640   8.2955634199e+01   2.9273789224e+01     1.314426    0.3252249  42.75  0.005514299    2.534    0.605
        41 -12.4530    238.9653    218.4462   3.6182079336e+01  -1.7463949627e+00    0.4365811    0.1505722 -33.00  0.002347312    2.583    0.613
        42 -10.6486    227.6818    219.4882   3.8044048457e+01  -6.6418646422e-01    0.1809905   0.08362357 -34.29  0.001000082    2.005    0.501
        43 -12.0830     13.9240    231.8353   8.3525229112e+01   2.3654150980e+01    0.5005306    0.2035462  50.58  0.002146838    1.768    0.434
        44 -10.8432    233.3605    211.9957   3.6039474312e+01  -3.8177855501e-01    0.2275611    0.1081262 -27.57  0.001363629    1.884    0.469
        45 -12.3399      3.4857    196.9545   8.4844457289e+01   3.2006597804e+01    0.6785255    0.3053726  85.52  0.003352089    2.090    0.522
        46 -11.4428    239.9371    206.9548   3.4281144494e+01  -4.9322544289e-01    0.2149696    0.1233526 -30.19  0.001448867    1.505    0.336
        47 -11.4812    247.0638    206.1046   3.3121489915e+01  -1.1583811727e+00     0.226676    0.1234576 -33.30  0.001515249    1.631    0.387
        48 -10.9059    250.1783    200.5846   3.1817485200e+01  -8.3882412637e-01    0.2902635     0.122842 -33.59  0.001516039    1.993    0.498
        49 -11.3623    243.3962    200.0090   3.2684851632e+01  -3.2809772255e-02    0.2548686    0.1060131 -34.20  0.001454277    2.067    0.516
        50 -11.0342    237.4874    197.4512   3.3132987680e+01   9.4769424456e-01    0.2212346   0.08957765 -35.10  0.001208751    2.158    0.537
        51 -12.2752    246.6252    192.7502   3.1058587421e+01   4.9513878974e-01     0.406131    0.1631292 -40.87  0.002176432    2.535    0.606
        52 -13.1473     11.8600    216.9590   8.3486936945e+01   2.6885066230e+01     1.101722    0.2314823  48.90  0.004437355    2.930    0.659
        53 -11.4077     17.0301    189.6887   8.1044221391e+01   3.2459620485e+01    0.2640866    0.1386773  62.19   0.00133487    1.642    0.391
        54 -10.8518    237.4966    186.9754   3.1412151236e+01   2.2809900010e+00    0.1688166   0.09068406 -32.54 0.0008324105    1.585    0.369
        55 -11.0626    249.3256    184.7561   2.9370477799e+01   1.1783117705e+00    0.2419313    0.1225445 -35.84  0.001494727    1.709    0.415
        56 -12.2444     11.7133    184.1678   8.2199561642e+01   3.4254240600e+01    0.4076642    0.1899778  77.86  0.001912706    2.032    0.508
        57 -12.1339      9.2083    178.1006   8.2605673983e+01   3.5930173752e+01    0.3851236    0.1733578  76.36  0.001756582    2.088    0.521
        58 -11.6260    241.9713    181.0882   2.9779997796e+01   2.5061135878e+00    0.2292296    0.1353293 -39.77  0.001453972    1.673    0.402
        59 -11.7051    248.7686    176.6145   2.8078265694e+01   2.2692642352e+00    0.3400729    0.1335888 -33.85    0.0018263    2.091    0.522
        60 -13.2445      3.3394    154.1374   8.3201088314e+01   4.2378601560e+01    0.7946134    0.3039284 -83.47  0.003313013    2.383    0.580
        61 -13.1079      6.7384    171.8691   8.3016367676e+01   3.7658850885e+01    0.6002724     0.339053  37.88  0.003165195    1.534    0.348
        62 -12.3522      2.7808    165.8836   8.3894668018e+01   3.9455922784e+01    0.4666805    0.2019011  51.57  0.002167352    1.894    0.472
        63 -12.0220    246.6435    168.0089   2.6882302321e+01   3.6402554851e+00    0.2599002    0.1596543 -42.07  0.001378784    1.659    0.397
        64 -12.4479     11.2625    166.5244   8.1445566787e+01   3.8602933061e+01    0.2772641    0.2235098  67.47  0.001298283    1.029    0.029
        65 -14.6295    245.6518    143.2079   2.2527823140e+01   7.1086661244e+00     2.187153     0.562726 -44.09  0.007904559    4.369    0.771
        66 -13.4547    240.7866    122.8997   1.9236087355e+01   1.0657964221e+01    0.9527835    0.2372588 -43.62  0.003480123    3.790    0.736
        67 -12.3098    248.7235    132.7836   2.0180510951e+01   8.1153302071e+00     1.030682    0.1837009 -40.44   0.00350827    4.523    0.779
        68 -14.4051    246.0423    115.3081   1.7108568061e+01   1.0932156161e+01     2.095651    0.6245613 -47.11  0.007821465    3.923    0.745
        69 -11.8632    248.7998     94.9229   1.2721588477e+01   1.3327879211e+01    0.8732248     0.166482 -40.61  0.003179372    3.633    0.725
        70 -11.2665    194.1172    246.5973   4.7357901390e+01  -2.5222198736e-01    0.2064934    0.1365667 -19.20  0.001473757    1.463    0.317
        71 -11.9198    234.3554    135.3148   2.2498479287e+01   9.8421958504e+00    0.2866237    0.1710366 -45.84  0.001300251    1.628    0.386
        72 -10.7501    233.5016    128.9943   2.1369084810e+01   1.0890778322e+01    0.1920097   0.09919953 -37.09  0.000886607    1.585    0.369
        73  -9.7616    221.2989    128.6346   2.2960902619e+01   1.2872948392e+01    0.1260477   0.08879342 -58.11 0.0007033066    1.726    0.421
        74 -11.6787      2.4231    143.2554   8.2948651365e+01   4.5258042791e+01    0.3998947    0.1757539 -86.33  0.001634527    2.056    0.514
        75 -12.8259      5.9001    122.2616   8.0416324418e+01   5.0589823017e+01    0.5825261    0.2378805  74.42  0.002253675    2.567    0.610
        76 -12.5228      4.9175    110.9717   7.9904152006e+01   5.3696277843e+01    0.5318616    0.2300317 -45.82  0.002148595    2.651    0.623
        77 -13.3556      3.8578    136.1313   8.2071477444e+01   4.7029688121e+01     1.202731     0.333405  75.49   0.00352013    4.619    0.783
        78 -11.8522    230.7738    115.6971   1.9036016607e+01   1.3277468753e+01    0.3484368    0.1296508 -42.23  0.001558831    2.261    0.558
        79  -9.2140    218.2820    109.3364   1.9330226229e+01   1.6357415572e+01    0.1246383   0.09415726  -8.60 0.0003648485    1.620    0.383
        80  -9.8594    222.5945    104.7819   1.7783808311e+01   1.6295891446e+01    0.1897932   0.09767116 -44.27 0.0009490896    1.673    0.402
        81 -10.9076    177.8127    244.0001   4.9889969142e+01   1.9260913435e+00    0.1843879    0.1082513  -9.35  0.001092879    2.019    0.505
        82 -12.9401      2.0594     93.0900   7.9509778815e+01   5.8673705741e+01    0.8030047    0.2121665 -76.71  0.002738034    3.189    0.686
        83 -11.8277    237.1251     90.2970   1.2984551438e+01   1.5899299041e+01    0.2572378     0.145832 -41.04  0.001054958    1.394    0.282
        84 -12.7247      2.9711     79.0419   7.7515587187e+01   6.2362466070e+01    0.7437107    0.1781901 -72.63  0.002501979    3.304    0.697
        85 -11.4486      7.4296     79.2465   7.5272869531e+01   6.2057413562e+01    0.2749372    0.1132385 -70.15  0.001139509    2.086    0.521
        86 -11.9361    234.2410    146.2481   2.4615341813e+01   8.2835161182e+00    0.3244742    0.1430247 -38.24  0.001661452    1.899    0.473
        87 -11.4894      9.0004     69.5059   7.2881923993e+01   6.4510683758e+01    0.2859175    0.1586646 -55.90  0.001376634    1.618    0.382
        88 -12.0935      1.7488     62.9789   7.5909633413e+01   6.6597828906e+01    0.6758735    0.1593711 -74.52  0.002229022    3.631    0.725
        89 -11.7493     11.2295     57.2950   6.9087476122e+01   6.7472093857e+01    0.3584899    0.1239691 -54.70  0.001422452    2.407    0.585
        90 -12.6297      2.9370     50.7301   7.2910946640e+01   6.9618244949e+01    0.6582944    0.2583596 -64.95  0.002870312    2.124    0.529
        91 -12.8619     10.2523    156.2502   8.1175087500e+01   4.1293766583e+01    0.4024492    0.2253562 -84.71  0.001988874    1.646    0.392
        92 -11.8509      8.3420     44.0288   6.7555762309e+01   7.0920086919e+01    0.3586031     0.117072 -59.64  0.001442033    2.471    0.595
        93 -11.8046      3.5551     33.1950   6.7867594884e+01   7.3768791939e+01    0.5596083    0.1128794 -50.43  0.001967581    3.509    0.715
        94 -10.8843     18.3508     31.3083   5.5571490685e+01   7.2917417216e+01    0.2186539    0.1396004 -26.10  0.001080766    1.756    0.430
        95 -11.6013    225.9641    241.2168   4.1432179878e+01  -2.9944455958e+00    0.2578018    0.1203011 -27.91  0.001602623    2.001    0.500
        96 -12.3429     29.3774    240.6184   8.0462912292e+01   2.0416950279e+01    0.5221128    0.1834861  52.10  0.002448994    2.180    0.541
        97 -11.6039    239.9031    239.6201   3.9102662417e+01  -4.1911552258e+00    0.2108975    0.1350446 -22.56  0.001246569    1.357    0.263
        98 -10.5336     44.8700    244.7689   7.7295836224e+01   1.7991607679e+01    0.2552443    0.1095922  44.38  0.001366516    1.677    0.404
        99  -9.8967     38.2447    240.4047   7.8512362173e+01   1.9522963806e+01    0.1848401   0.07487662  39.71 0.0009519235    1.721    0.419
       100  -9.9737    220.0000    238.9626   4.2055440857e+01  -2.1303880181e+00     0.152543   0.05181563 -37.18 0.0008008286    2.931    0.659
       101 -10.3019     50.6307    250.2220   7.6359718138e+01   1.6371827567e+01    0.2408094   0.09502447  38.68  0.001258226    1.746    0.427
       102 -11.6529    231.5222    235.0163   3.9713229117e+01  -2.8658860619e+00     0.298282    0.1438867 -25.58  0.001921184    1.889    0.471
       103 -10.6943    243.3864    235.5363   3.8019900220e+01  -4.0902608522e+00    0.1802584    0.1011395 -29.46  0.001053124    1.615    0.381
