#   1 NUMBER                 Running object number                                     
#   2 MAG_AUTO               Kron-like elliptical aperture magnitude                    [mag]
#   3 X_IMAGE                Object position along x                                    [pixel]
#   4 Y_IMAGE                Object position along y                                    [pixel]
#   5 X_WORLD                Barycenter position along world x axis                     [deg]
#   6 Y_WORLD                Barycenter position along world y axis                     [deg]
#   7 A_WORLD                Profile RMS along major axis (world units)                 [deg]
#   8 B_WORLD                Profile RMS along minor axis (world units)                 [deg]
#   9 THETA_WORLD            Position angle (CCW/world-x)                               [deg]
#  10 FWHM_WORLD             FWHM assuming a gaussian core                              [deg]
#  11 ELONGATION             A_IMAGE/B_IMAGE                                           
#  12 ELLIPTICITY            1 - B_IMAGE/A_IMAGE                                       
         1 -15.2911    192.9552    158.1454   4.6801604957e+01   1.3962931321e+01     5.207776     3.791876 -64.43   0.02484119    1.578    0.366
         2 -16.0679    164.5699    107.5701   4.1822851211e+01   2.8215550031e+01     6.388845     4.832451  26.72    0.0220613    1.893    0.472
         3 -15.9414    248.0528    162.5239   3.9499883160e+01   6.2729881973e+00     10.33835     1.190204 -46.46   0.02918105    6.983    0.857
         4 -14.0832     13.9408    114.3022   8.9671392325e+01   5.1735896862e+01     2.634585     2.019579  83.33   0.01044012    1.547    0.354
         5 -15.0260    249.1208     78.9675   2.5976027448e+01   1.8865862485e+01     1.323229    0.2869897 -44.65  0.002813363    3.281    0.695
         6 -17.4610    244.6241    111.1217   3.1603051620e+01   1.4789617133e+01     2.632513     2.477358  50.69   0.01433961    1.501    0.334
         7 -16.8141    247.1009     89.3662   2.7823910917e+01   1.7678811785e+01     6.377423     2.343938 -63.30   0.01673749    5.248    0.809
         8 -12.0616    241.5745     23.6099   1.7715753570e+01   2.6968927005e+01    0.3855222    0.1946877 -46.33  0.002767182    1.599    0.374
         9 -11.7816    209.8341     13.1707   1.7861121987e+01   3.3318597898e+01    0.4030641    0.2160363 -64.31  0.001685964    1.444    0.308
        10 -12.1642    218.1808     12.0746   1.7170834186e+01   3.2004786224e+01    0.3670422    0.2314846 -85.82  0.001583774    1.297    0.229
        11 -11.1089    235.7104      6.3822   1.5326020683e+01   2.9736949351e+01    0.3602306    0.1066128 -55.68  0.002104074    2.371    0.578
        12 -11.1267    230.4881      4.2031   1.5233080057e+01   3.0791640988e+01     0.225992    0.1241144  79.70  0.001717093    1.708    0.414
        13 -11.9014    213.7638      2.9046   1.5869101840e+01   3.3696170062e+01    0.4964831     0.263207 -83.24  0.003541521    1.534    0.348
        14  -8.8124    108.0770    245.4967   7.9490354871e+01   7.2125376239e+00    0.1907592    0.1201252  21.69 0.0002892412    1.431    0.301
        15 -11.4370    247.6279    249.3750   5.2589944400e+01  -7.0132823120e+00    0.3987163    0.2060376  12.53  0.002692729    2.081    0.519
        16 -11.8791    227.8882    237.4657   5.3938599719e+01  -3.7432631692e+00    0.5092755    0.1190145 -39.28  0.002171974    3.226    0.690
        17 -13.1320    226.2657    247.9287   5.5716547682e+01  -5.1987702569e+00    0.8065565    0.4506996   8.69  0.005242124    1.830    0.454
        18  -8.9487    118.9918    175.3642   6.5865727379e+01   2.1624588985e+01    0.2268548     0.177393 -49.24 0.0005747297    1.242    0.195
        19  -9.3768      8.1206    167.8459   9.8736984290e+01   3.7651050282e+01    0.1984246    0.1568228 -45.84 0.0003620931    1.273    0.215
        20 -11.1338    179.2712    174.5132   5.2225927984e+01   1.2735392860e+01    0.3846311     0.302005 -35.61  0.001287696    1.116    0.104
        21 -10.0411      5.9523    158.5503   9.8537336247e+01   4.0361427043e+01    0.3088468    0.1955911 -75.77 0.0005274964    1.495    0.331
        22 -11.0270    209.0688    156.6225   4.3920662355e+01   1.2009285265e+01    0.3564422    0.2344941 -59.67 0.0007213744    1.631    0.387
        23  -9.3733    122.8967    194.8593   6.8315773208e+01   1.6475628118e+01    0.2141572     0.175818 -23.51 0.0004276968    1.205    0.170
        24  -9.5147    216.0432    201.5688   5.0355874419e+01   3.2234442858e+00    0.2902104    0.1327227 -41.68  0.001068178    1.725    0.420
        25 -10.7039    232.8188    186.3002   4.5334685462e+01   4.0286878284e+00    0.2178844    0.1942565  34.15 0.0008839474    1.509    0.337
        26  -9.6693     81.7428    154.3552   7.2457727676e+01   3.2718412296e+01    0.2758942    0.1894787 -70.55 0.0006046324    1.661    0.398
        27 -14.1777    248.8475    143.4403   3.6368662931e+01   9.2209233852e+00    0.8213969     0.517912  38.55  0.005619649    2.239    0.553
        28 -12.6406     67.8815    144.0848   7.4920823708e+01   3.7496129323e+01     1.060616     0.722118 -67.73  0.003415342    1.592    0.372
        29  -9.3849    191.5283    241.4831   6.0855341791e+01  -1.1211800347e+00    0.1217307   0.09352416 -17.79 6.809896e-05    1.011    0.011
        30 -11.9944     45.2522    123.2275   7.8799487811e+01   4.6097822147e+01    0.5950985    0.4485475 -13.95 0.0002574886    1.481    0.325
        31 -14.2558     59.4423    115.7972   7.1874084807e+01   4.5972264679e+01     2.335668     1.370283  30.90    0.0077409    1.676    0.403
        32 -11.4068    177.6782    169.9451   5.1702742910e+01   1.3866595605e+01    0.4558302    0.4001874  13.21  0.001908533    1.256    0.204
        33 -12.4797     47.1133    115.5928   7.6471125791e+01   4.7797949399e+01     0.601329     0.459259  27.38  0.000939022    1.295    0.228
        34 -10.2516    115.3214    120.1319   5.5362142493e+01   3.5090153911e+01     0.401132    0.1963272 -49.48  0.001614725    2.016    0.504
        35  -9.1079     95.6312    113.8115   5.9358396353e+01   4.0218352166e+01    0.2431077    0.1698243  45.68 0.0007179452    1.429    0.300
        36 -11.8245    126.4341    107.1977   4.9561322245e+01   3.5652875078e+01    0.6745473    0.3873102 -67.34  0.002721199    2.496    0.599
        37 -10.2866    111.5564    106.0663   5.2999612385e+01   3.8826912057e+01    0.4185345    0.2054449  46.33  0.001678441    2.026    0.506
        38 -15.8963    242.2404     94.4531   2.9106228676e+01   1.7618385407e+01     1.407466    0.7517404  81.69  0.007707968    2.937    0.660
        39 -10.4681    236.6508    223.0251   5.0434931500e+01  -2.2537199405e+00    0.3163874    0.1274883  31.29  0.001306036    3.002    0.667
        40  -9.7500    174.0009    220.4849   6.1044115860e+01   4.4648258724e+00    0.1792001    0.1189379  22.79 0.0005043544    1.542    0.351
        41  -9.2258    113.4428     83.6615   4.6841291976e+01   4.2826846450e+01    0.2723005    0.1367149 -42.54  0.001173506    2.098    0.523
        42  -9.6022    117.7304     90.7519   4.7619051759e+01   4.0624994112e+01    0.2305622    0.2196172   5.58 0.0006538972    1.224    0.183
        43 -11.0566     35.2951    216.9950   9.5273417066e+01   2.2126889862e+01    0.5517697    0.2574896 -29.30  0.001916032    3.581    0.721
        44  -9.8527    135.1102     74.6935   3.9801508314e+01   3.9849486857e+01    0.4035637    0.2322965  67.80  0.001929669    1.890    0.471
        45 -10.5962    172.8676     64.9725   3.1438344781e+01   3.3696373101e+01    0.2487991    0.1860189 -72.30 0.0006497922    1.199    0.166
        46 -11.4126    169.4843     60.6672   3.0969527678e+01   3.4985860103e+01    0.4031003    0.2054106 -52.60  0.002119479    1.816    0.449
        47 -11.4884    163.9243     58.8544   3.1329871090e+01   3.6352019488e+01    0.5458258    0.2944118  43.29  0.002126062    2.818    0.645
        48 -12.8315    182.3162     53.1344   2.7808845572e+01   3.3550430164e+01    0.8301653    0.5213892  49.59   0.00388922    2.111    0.526
        49  -8.8246    150.5950     63.7886   3.4436303967e+01   3.8342659075e+01    0.1825692     0.105705 -54.37 0.0009470225    1.693    0.409
        50 -11.4449    147.2702     51.2152   3.1995789893e+01   4.0842045501e+01    0.4015954    0.2852545 -13.24  0.001233546    2.479    0.597
        51  -8.4278    140.4473     56.4430   3.4347283462e+01   4.1542450289e+01    0.1284149    0.1090474 -87.46 -7.677169e-06    1.042    0.041
        52  -8.7045    220.0835    212.1748   5.1375919982e+01   1.0169561165e+00    0.1376791    0.1243691 -39.22  0.001023204    1.369    0.269
        53 -11.0168    173.6089     52.2300   2.8643616628e+01   3.5355788929e+01    0.2517617    0.1943484 -20.06  0.001252384    2.019    0.505
        54  -8.6975    141.2906     40.3303   3.0270402130e+01   4.3540570992e+01    0.1128785   0.09294674  38.93 0.0006739484    1.625    0.385
        55  -8.5267    178.3968     37.4551   2.5026507810e+01   3.6336054554e+01    0.1140316   0.09033167 -75.43 4.876187e-05    1.021    0.020
        56  -9.2582    123.2660     31.3846   3.0800391587e+01   4.8506598077e+01    0.2015722    0.1568181 -15.61  0.001240828    1.846    0.458
        57 -10.4625     52.6529     28.0372   4.7425233918e+01   6.3854051576e+01    0.3147664    0.2072995 -15.08  0.001363719    2.008    0.502
        58  -9.6113    198.3228    246.3216   6.0309450581e+01  -2.5597384730e+00    0.1252273   0.07044108 -18.41 0.0003065576    1.677    0.404
        59  -9.5845    108.0414     26.9720   3.2247156696e+01   5.2333511300e+01    0.1826628     0.157186  70.66 0.0004702242    1.057    0.054
        60  -9.4556    232.6470     21.3190   1.7857541278e+01   2.8625349870e+01    0.1097932   0.05086742 -66.15 0.0007047008    1.746    0.427
        61 -10.7887    241.4489     16.9257   1.6681297710e+01   2.7726203652e+01    0.2038201    0.1117029  82.39 0.0008769522    1.733    0.423
        62  -9.3951    235.9498    183.4443   4.4432074170e+01   4.1710449246e+00    0.2804178    0.1275655 -56.64  0.001309908    2.996    0.666
        63 -12.1160    193.6455    194.7589   5.3077783953e+01   6.9765955264e+00    0.8013048    0.4756258 -65.50   0.00342283    2.873    0.652
        64  -9.6968     57.0622     15.6518   4.0987820761e+01   6.4393229056e+01    0.1873939    0.1637963  16.02 0.0003221651    1.266    0.210
        65  -8.6111     66.4769    180.3661   8.1659709073e+01   2.8073156840e+01    0.1497433    0.1428939  18.94  6.13396e-05    1.037    0.036
        66 -10.5461    149.5216    177.4630   5.8902097164e+01   1.6453913943e+01    0.3359928    0.2344069 -68.02 0.0009993505    1.837    0.456
