#   1 NUMBER                 Running object number                                     
#   2 MAG_AUTO               Kron-like elliptical aperture magnitude                    [mag]
#   3 X_IMAGE                Object position along x                                    [pixel]
#   4 Y_IMAGE                Object position along y                                    [pixel]
#   5 X_WORLD                Barycenter position along world x axis                     [deg]
#   6 Y_WORLD                Barycenter position along world y axis                     [deg]
#   7 A_WORLD                Profile RMS along major axis (world units)                 [deg]
#   8 B_WORLD                Profile RMS along minor axis (world units)                 [deg]
#   9 THETA_WORLD            Position angle (CCW/world-x)                               [deg]
#  10 FWHM_WORLD             FWHM assuming a gaussian core                              [deg]
#  11 ELONGATION             A_IMAGE/B_IMAGE                                           
#  12 ELLIPTICITY            1 - B_IMAGE/A_IMAGE                                       
         1 -18.3892    242.6122     47.8672   5.9808605978e+01   1.8169001071e+01     9.053104     6.316316  -0.15   0.01887697    1.544    0.352
         2 -14.6292    222.4025     22.9522   5.5239354581e+01   2.5767316216e+01     1.468314    0.6596022  18.43   0.00450016    4.437    0.775
         3  -9.2721    170.3317     19.8036   6.1206217894e+01   3.9790776429e+01    0.3891083    0.1921355 -12.99  0.001407171    2.271    0.560
         4  -9.8541     92.7392      8.0015   7.3030768511e+01   5.9971423141e+01    0.1946383    0.1605583  -7.71 0.0004151109    1.101    0.091
         5 -10.4104    105.8273      3.9438   6.7662344543e+01   5.7567948355e+01    0.3306552    0.1693491 -28.38  0.001503285    1.906    0.475
         6  -9.1982    248.3967      4.0567   4.7652089739e+01   2.1120117896e+01    0.1677029    0.1573451  88.48 0.0002936874    1.090    0.083
         7  -8.8520    159.2322      1.8319   5.6516888691e+01   4.4429815089e+01    0.2008984    0.1890405  -3.43 0.0006323177    1.099    0.090
         8 -10.2222    153.3606    100.2111   8.9827251449e+01   3.2113465751e+01    0.4094195    0.3237403  32.65  0.002112153    1.282    0.220
         9 -11.0795    242.7889    250.1258   1.0145030452e+02  -3.4148277142e+00    0.3254597    0.1701548  32.21  0.002289516    1.320    0.242
        10 -10.6516    227.7461    249.7720   1.0359816102e+02  -1.2463094203e+00    0.2084713     0.150291  39.32  0.001568838    1.263    0.208
        11 -10.7720    206.3420    249.3588   1.0673231672e+02   1.9058305796e+00    0.2526434    0.1524052  25.54  0.001795893    1.496    0.332
        12 -10.1116    198.8077     99.0526   8.0311806480e+01   2.1958360019e+01    0.3448714    0.3147994  17.26 0.0008987473    1.009    0.009
        13 -11.5312     14.6805    151.3225   1.3053266065e+02   4.2486924400e+01    0.4102234     0.213346  86.98  0.002665075    1.659    0.397
        14 -10.8895    166.5871     94.5522   8.5462760770e+01   3.0119735255e+01    0.6145202    0.5401934  -5.08  0.001925737    1.170    0.145
        15  -9.6128    172.4647     90.3823   8.3104736985e+01   2.9444472118e+01    0.2617068    0.2386621  29.40 0.0002776675    1.046    0.044
        16  -9.1995      7.2001    236.1134   1.3597330503e+02   2.9014232819e+01    0.1217622    0.0937364  70.71 0.0008746377    1.258    0.205
        17 -10.7624    137.6430     95.4500   9.2181303205e+01   3.6342298725e+01    0.3637188    0.3467087  87.60 0.0008967993    1.141    0.124
        18 -10.6155    150.3712     91.8008   8.8256948771e+01   3.4249783154e+01     0.312536    0.2568772 -37.89 0.0007141076    1.237    0.192
        19  -8.9785    103.9467    160.9284   1.1299851385e+02   3.0104302606e+01    0.1727249      0.15647  67.82 0.0003335532    1.050    0.047
        20 -10.3498    145.2190    156.3852   1.0375579964e+02   2.3929375558e+01    0.2388627    0.1498649  58.76  0.001034655    1.727    0.421
        21 -11.8173    134.1176    147.2406   1.0441582292e+02   2.7522855092e+01     1.170787    0.3498477 -55.47  0.003520702    5.540    0.820
        22 -11.3633    126.1299    108.9781   9.8298584037e+01   3.6115781371e+01    0.5432633     0.453059 -35.74   0.00303933    1.257    0.204
        23 -11.6408    129.6538     68.2306   8.6282660776e+01   4.2977469600e+01    0.5751292    0.3912928  18.58  0.002566857    1.931    0.482
        24  -9.5058    130.0945    132.8326   1.0254618805e+02   3.0867788293e+01    0.4003525    0.2617079 -85.12  0.001765038    2.642    0.622
        25  -8.5041    118.2860     70.6058   8.9937202831e+01   4.4949920380e+01    0.1862653    0.1352957  36.37 0.0003122053    1.441    0.306
        26 -11.0323    166.0591     40.6099   6.9084167253e+01   3.8464348940e+01    0.5718832    0.3447827  88.33  0.002138083    2.761    0.638
        27 -11.5736    159.7777     36.0043   6.8699638295e+01   4.0676707497e+01    0.5450605    0.4299613 -40.32  0.001603983    1.347    0.257
        28 -11.3818     53.8071    151.6090   1.2240749799e+02   3.8603973615e+01    0.3170707    0.2823979  44.49 0.0009509475    1.322    0.244
        29 -10.5379    167.6114     31.5895   6.5730181354e+01   3.9187938120e+01    0.5226815    0.1771397 -29.08  0.001775657    2.769    0.639
        30  -9.2009    176.9315     35.2217   6.5342966030e+01   3.6307153753e+01     0.302519    0.2043325 -16.15 0.0006185455    1.533    0.348
        31 -10.4601    112.4851     30.1184   7.7186376294e+01   5.2884162457e+01    0.2890128     0.212958  15.67  0.001331927    1.457    0.314
        32 -13.3086     65.5597    145.5608   1.1914117067e+02   3.8386808953e+01     1.150472     1.018078   0.68  0.003960167    1.641    0.391
        33  -7.7709    102.4868    145.5592   1.1097017717e+02   3.3188768947e+01    0.1232976    0.1129625  67.74 0.0001044707    1.032    0.031
        34 -12.3744    136.5609    129.5274   1.0043937376e+02   3.0262229683e+01     1.535604    0.2677848 -46.29  0.004047313    6.115    0.836
        35  -8.3965     78.6618     22.3181   8.3985590837e+01   6.0781320202e+01    0.1267064    0.1054043 -63.29 0.0006108924    1.706    0.414
        36  -9.8991    155.0242    218.8903   1.1115842057e+02   1.3044239129e+01     0.162139    0.1373876  45.12 0.0003249861    1.107    0.097
        37 -12.9060     28.6055    164.2579   1.2872014691e+02   3.8823713398e+01    0.6842935    0.5716515  76.24  0.003816368    1.136    0.120
        38  -9.9905    162.5666     19.4348   6.2351753267e+01   4.1885771495e+01    0.3644029    0.2352787  36.67 0.0006279288    1.560    0.359
        39 -10.2444      6.8994    115.7784   1.2940268197e+02   5.0077009059e+01    0.2159264    0.1056973  76.74  0.001247713    2.068    0.517
        40 -10.8064    134.8562    112.4097   9.7051220267e+01   3.3760888465e+01    0.6155946    0.1657418 -40.59  0.001868226    4.173    0.760
        41 -13.1211    193.3226    195.2983   1.0129636044e+02   9.6450162040e+00     1.286571     0.842307 -65.68  0.006468134    3.354    0.702
        42 -11.9551    242.4953    241.2342   1.0028848960e+02  -2.6995893822e+00    0.2671481    0.1559577  34.12 0.0002619769    1.189    0.159
        43 -12.6607     16.4634    157.2868   1.3059559726e+02   4.1213310505e+01     1.150502    0.3429393  46.36  0.006206327    2.768    0.639
        44 -11.5966    133.4480    102.1403   9.4896230513e+01   3.5965006680e+01    0.7400869    0.3253421 -54.35  0.002640263    3.081    0.675
        45 -11.8273    122.1969    102.2307   9.7633386042e+01   3.8169500137e+01    0.6885838    0.4753781  88.11  0.003054029    2.383    0.580
        46  -9.6157    144.8363    104.5307   9.2848233270e+01   3.3171348443e+01    0.2465218    0.2329914  23.09 0.0006440519    1.047    0.045
