#   1 NUMBER                 Running object number                                     
#   2 MAG_AUTO               Kron-like elliptical aperture magnitude                    [mag]
#   3 X_IMAGE                Object position along x                                    [pixel]
#   4 Y_IMAGE                Object position along y                                    [pixel]
#   5 X_WORLD                Barycenter position along world x axis                     [deg]
#   6 Y_WORLD                Barycenter position along world y axis                     [deg]
#   7 A_WORLD                Profile RMS along major axis (world units)                 [deg]
#   8 B_WORLD                Profile RMS along minor axis (world units)                 [deg]
#   9 THETA_WORLD            Position angle (CCW/world-x)                               [deg]
#  10 FWHM_WORLD             FWHM assuming a gaussian core                              [deg]
#  11 ELONGATION             A_IMAGE/B_IMAGE                                           
#  12 ELLIPTICITY            1 - B_IMAGE/A_IMAGE                                       
         1 -13.5280      2.2521     31.1120   7.4946933183e+01   7.1518974271e+01      1.09828    0.2888891 -57.95  0.004644034    2.593    0.614
         2 -13.7023     13.8318      8.3395   5.6832859511e+01   7.5029840718e+01    0.8809269    0.3803049 -36.26  0.004384146    2.047    0.511
         3 -11.6565      2.4816      4.0013   6.2408085623e+01   7.6861868950e+01    0.4786811    0.2710611 -41.66  0.002917516    1.404    0.288
         4 -11.5465      9.6441      2.1795   5.5825808207e+01   7.6495666899e+01    0.4427046    0.2147123  23.57  0.002379007    2.303    0.566
         5 -12.4104     14.1020     22.1007   6.4061539492e+01   7.2482964106e+01    0.4398754    0.1350451 -49.12   0.00187709    2.520    0.603
         6 -13.1545      7.3841     10.7179   6.2695367445e+01   7.5238137216e+01    0.9700636    0.2779705 -39.80  0.003949851    3.111    0.679
         7 -12.0299     25.7713      6.9443   4.8315685217e+01   7.3796304603e+01    0.3124182    0.1671045 -17.69  0.001515666    2.279    0.561
         8 -11.6214     22.3358      2.3091   4.7293543398e+01   7.4947787379e+01    0.3720635    0.1783649  23.02  0.001764716    2.683    0.627
         9 -11.8366     84.1646    244.6313   8.1891667115e+01   1.4798238783e+01    0.2808584    0.1359696  54.88  0.001620684    1.815    0.449
        10 -13.6890    247.0843    245.4593   5.3834713054e+01  -7.1841245998e+00    0.7775581     0.465466  -6.49     0.005636    1.512    0.339
        11 -11.1718     51.3989    250.0428   8.8168682939e+01   1.7956827587e+01    0.3137727    0.0977668  42.74  0.001667272    2.172    0.540
        12 -10.4156     96.3508    244.6710   7.9655501263e+01   1.3184978165e+01    0.1205256   0.06695519  59.01 0.0007048053    1.767    0.434
        13 -11.8092     73.2236    240.6435   8.3598322862e+01   1.6854052063e+01    0.3283263    0.1651751  62.05  0.001893697    1.942    0.485
        14 -11.1407     54.2742    240.2461   8.7061763915e+01   1.9249447446e+01    0.3204477    0.1435766  66.17  0.001758364    2.268    0.559
        15  -9.5174     32.6495    241.3195   9.1027706729e+01   2.1521235334e+01    0.1190569   0.05292197  58.79  0.000691601    1.741    0.426
        16 -10.9168     82.0333    236.6680   8.1636292276e+01   1.6379305297e+01    0.2166109    0.1310408  66.58  0.001344064    1.659    0.397
        17 -10.3273     45.0514    237.0094   8.8555117879e+01   2.0882956440e+01    0.1923133   0.09165288  60.12  0.001144095    1.738    0.425
        18 -10.5103     94.5082    236.4873   7.9265474508e+01   1.4742352733e+01    0.1167613   0.08930694  51.54 0.0001233344    1.032    0.031
        19 -11.6170     63.1917    232.6223   8.4882404026e+01   1.9481184975e+01    0.4172083    0.2013554  66.87  0.002274744    2.187    0.543
        20  -9.6378     11.5163    231.5000   9.4374761181e+01   2.5419934605e+01    0.1094168   0.07300726  62.51 0.0008100156    1.047    0.045
        21 -11.8573      6.0117    229.1316   9.5272873666e+01   2.6372762581e+01    0.2912168    0.1064514 -88.26  0.001614864    2.545    0.607
        22 -11.0565     74.7085    224.6843   8.2033475109e+01   1.9414789427e+01    0.3288907    0.1474267  67.28  0.001503454    2.979    0.664
        23 -11.2382     15.3154    240.3940   9.4040236220e+01   2.3482419880e+01    0.2445274    0.1068084  76.04  0.001490008    2.035    0.509
        24 -11.1146     90.1058    249.8598   8.1232302044e+01   1.3203365772e+01    0.1827295    0.1156015  54.26  0.001238619    1.294    0.227
        25 -11.1930     75.2082    250.4379   8.3958308747e+01   1.5017804773e+01    0.2767836   0.07569577  39.07  0.001299934    2.626    0.619
        26 -10.2730    240.3085    219.3498   5.0890459162e+01  -3.7232617091e+00    0.1170047   0.06828679   5.08  0.000704386    1.711    0.415
        27 -11.7780    247.8760    216.6982   4.9295628811e+01  -4.4134029806e+00    0.2537087    0.1230071 -19.70  0.001473064    2.035    0.509
        28 -10.6716     13.8310    216.3367   9.3331144741e+01   2.7994609210e+01    0.2187526   0.05816363  40.73  0.001082647    2.560    0.609
        29 -11.1627      1.8376    212.2722   9.5445163198e+01   2.9898277254e+01    0.1972702    0.1093492  76.06  0.001311075    1.407    0.289
        30 -10.6084      6.7134    205.5532   9.4244222137e+01   3.0763705109e+01    0.2066785   0.09287855  72.05  0.001178419    1.845    0.458
        31 -10.1429      1.5571    205.7247   9.5257802385e+01   3.1196399550e+01    0.1942368   0.08565763 -79.37  0.001064386    2.045    0.511
        32 -11.3527      4.0459    197.5053   9.4436556340e+01   3.2617686962e+01    0.3001267    0.1151103  77.39  0.001523589    2.340    0.573
        33  -9.7484     11.6687    191.3305   9.2576122103e+01   3.3193202205e+01     0.128264   0.06072548  62.24 0.0006079708    1.720    0.418
        34 -11.2876      3.5859    188.7179   9.4147366071e+01   3.4468508055e+01     0.278057   0.08914455  57.66  0.001331138    2.502    0.600
        35 -11.6945      1.9868    177.6531   9.3976126302e+01   3.6956980638e+01    0.3315618    0.1243039  82.61  0.001584012    2.424    0.587
        36 -11.8004      4.0049    154.1945   9.2225714452e+01   4.2035611982e+01    0.2297901    0.1449322 -89.04  0.001353999    1.272    0.214
        37 -11.3593      4.5672    136.2825   9.0855810775e+01   4.6202041062e+01    0.2478375   0.09954749 -85.71  0.001140238    2.137    0.532
        38 -10.9657    247.9957    129.4985   3.2671664201e+01   6.4935980062e+00    0.2627992    0.1536817 -41.60  0.001378721    1.687    0.407
        39 -11.0936      2.6074    126.3402   9.0629505964e+01   4.8734456032e+01    0.2546923   0.09891392 -84.47  0.001145556    2.191    0.543
        40 -11.4434    239.5006    124.1350   3.2697680236e+01   8.7438881360e+00    0.3542671    0.1868251 -40.40  0.001724253    1.774    0.436
        41 -11.8666    247.5236    118.6412   3.0351512949e+01   8.1019838123e+00    0.2995698    0.2079741 -42.54  0.001703688    1.421    0.296
        42 -10.5205    231.6629    115.3253   3.1833673851e+01   1.1493125732e+01    0.2116978    0.1532611 -57.47  0.001113874    1.736    0.424
        43 -11.8837    241.2033    108.9143   2.9007982240e+01   1.0642514450e+01    0.3015632    0.1517937 -40.53  0.001421401    1.788    0.441
        44 -11.8194    248.4802    107.0253   2.7612088210e+01   9.5731825310e+00    0.3041268    0.1086973 -32.34  0.001241679    2.318    0.569
        45 -11.4494    243.4944     98.4732   2.6284747731e+01   1.1717138508e+01    0.2551215   0.09532811 -40.44   0.00103446    2.324    0.570
        46 -11.6655    248.5089     91.9967   2.4151362599e+01   1.1685124021e+01    0.2134517    0.1110179 -31.59 0.0006031285    1.597    0.374
        47 -11.6254    249.1526     80.7143   2.1435924931e+01   1.3130618744e+01    0.2058886    0.1630937 -66.12  0.001222302    1.449    0.310
        48 -11.8044      9.2648     35.8226   7.2467268457e+01   7.0041390889e+01    0.3912737   0.09461603 -52.92    0.0015574    2.755    0.637
        49 -10.6970     34.0425    248.4930   9.1126436657e+01   2.0160403556e+01    0.2029849    0.1087696  70.00  0.001368871    1.593    0.372
        50 -10.8483     18.9390    249.1959   9.3750094607e+01   2.1628072559e+01     0.171716   0.09298549  57.48  0.001138037    1.285    0.222
        51 -10.4554      4.1834    248.8316   9.6212576072e+01   2.3132483233e+01    0.1791629   0.09652402  68.87  0.001246932    1.376    0.273
        52 -11.7045      3.7318    242.9058   9.6113092397e+01   2.4172107497e+01    0.3614852    0.1278565  67.33  0.002091833    2.253    0.556
        53 -10.8932    100.5047    247.5143   7.9145788596e+01   1.2189486777e+01    0.1133319   0.08528578  48.53 0.0008104087    1.021    0.021
        54 -10.9557     45.2137    244.7989   8.8969509448e+01   1.9534537412e+01    0.2745475    0.1273183  59.90  0.001668693    1.771    0.435
        55 -11.8977     65.7188    249.0103   8.5559672951e+01   1.6419210519e+01    0.3405459    0.1594614  51.54  0.002074228    1.625    0.385
