#   1 NUMBER                 Running object number                                     
#   2 MAG_AUTO               Kron-like elliptical aperture magnitude                    [mag]
#   3 X_IMAGE                Object position along x                                    [pixel]
#   4 Y_IMAGE                Object position along y                                    [pixel]
#   5 X_WORLD                Barycenter position along world x axis                     [deg]
#   6 Y_WORLD                Barycenter position along world y axis                     [deg]
#   7 A_WORLD                Profile RMS along major axis (world units)                 [deg]
#   8 B_WORLD                Profile RMS along minor axis (world units)                 [deg]
#   9 THETA_WORLD            Position angle (CCW/world-x)                               [deg]
#  10 FWHM_WORLD             FWHM assuming a gaussian core                              [deg]
#  11 ELONGATION             A_IMAGE/B_IMAGE                                           
#  12 ELLIPTICITY            1 - B_IMAGE/A_IMAGE                                       
         1 -12.9037     37.8166     50.9054   9.9779118607e+01   6.2295545637e+01    0.8117735    0.5825548 -25.86  0.003638666    1.341    0.254
         2 -11.9717     20.2238     17.8164   9.5341891475e+01   7.0087910865e+01    0.7600266    0.5710011 -72.96  0.004109397    2.484    0.597
         3 -11.5260     16.1273     29.8006   1.0206909114e+02   6.8291979611e+01     0.725279    0.4823193 -18.91  0.004744478    1.459    0.314
         4 -11.9016     22.8266      7.1430   8.9006657069e+01   7.1530917895e+01    0.5199808    0.3711405 -49.13  0.002185549    1.829    0.453
         5 -13.0705     31.5124      2.2050   8.2037323007e+01   7.1250871648e+01    0.4061746    0.2050106  25.65  0.000838883    2.044    0.511
         6 -11.0745     16.9639      3.5165   9.0248178992e+01   7.2638263135e+01    0.3334334    0.1745768 -41.34 0.0009631299    1.694    0.410
         7 -11.8802     11.4661      2.9142   9.2964957436e+01   7.3216556749e+01    0.3380908    0.1856439 -21.46    0.0013409    1.615    0.381
         8 -11.8592     60.3004     23.6155   8.0040925463e+01   6.4286942283e+01    0.9338692    0.4287034 -37.44   0.00446405    2.032    0.508
         9 -12.0484     74.7053      7.8629   6.7400578628e+01   6.3856005297e+01    0.4825249    0.3169461 -49.36  0.002515363    2.291    0.563
        10 -10.6038     66.3270     13.4457   7.3014158422e+01   6.4702428025e+01    0.3018828    0.2043705  30.73  0.001406389    1.396    0.284
        11 -11.4091     75.2755     16.0655   7.1077686548e+01   6.2788466502e+01    0.5824439    0.2587741  42.80  0.002688692    2.153    0.536
        12 -11.3652     70.4309     14.6481   7.2103936882e+01   6.3837678639e+01    0.4469525    0.2160911 -18.90  0.001817676    2.255    0.557
        13 -10.9233    130.3685     20.1238   5.7811213530e+01   5.0357192932e+01    0.3953022    0.2949836 -85.54   0.00109448    1.737    0.424
        14 -12.2262     84.9641     20.3828   6.9829560079e+01   6.0410871925e+01    0.4345783    0.3847711 -44.21 0.0005579777    1.395    0.283
        15 -11.5449      4.8252     18.6094   1.0351866745e+02   7.1092533720e+01     0.381197    0.2800011  30.46  0.002246144    1.828    0.453
        16 -10.9582    169.0064     13.3940   4.8690242196e+01   4.1245673726e+01    0.2452136    0.2114024  41.95 0.0003611474    1.205    0.170
        17 -10.2242     55.1143     13.4369   7.7332334107e+01   6.6523181767e+01    0.2871972    0.1576684 -36.39  0.001038595    1.798    0.444
        18 -10.3821     58.6693     10.5129   7.4481808077e+01   6.6342303344e+01    0.3192105    0.1951003  43.20  0.001468248    1.738    0.424
        19 -10.2492     30.6752     13.1526   8.8053755373e+01   6.9796160012e+01    0.2452946    0.1529989 -25.79 0.0003740254    1.326    0.246
        20 -11.1896     26.6621     13.9894   9.0410643268e+01   7.0095181904e+01    0.2009672    0.1408451 -14.28 0.0004166107    1.229    0.186
        21  -9.7790    158.5231     13.6030   5.0334598405e+01   4.3943078106e+01    0.2617274    0.1087522 -37.72  0.001035326    2.452    0.592
        22 -10.5767    100.3108     12.9120   6.2075779392e+01   5.8119707435e+01    0.3035704    0.2116023  -5.25 0.0009481632    1.490    0.329
        23 -10.2377    138.4707     12.0643   5.3225410759e+01   4.9210118437e+01    0.2440792    0.1878958  84.77 0.0005177548    1.441    0.306
        24 -11.7260    116.9823      8.5562   5.6222431860e+01   5.4780235706e+01     0.550671    0.2940238 -35.74  0.001830323    2.039    0.509
        25  -9.8553     50.5336     11.4462   7.8235880193e+01   6.7475907169e+01    0.2728788    0.1529584   3.46  0.001273682    2.340    0.573
        26 -10.4422      6.4401      8.0023   9.8226743710e+01   7.2803356917e+01    0.1885341    0.1458988 -41.11 0.0003841762    1.277    0.217
        27 -11.2550    235.7205      9.9287   4.0408088005e+01   2.4821871583e+01    0.2791272    0.2092627  12.93  0.001321393    2.009    0.502
        28  -9.9628    133.1852     10.9466   5.3813049379e+01   5.0635839862e+01    0.2349927    0.1446693  20.42   0.00108181    1.971    0.493
        29 -10.3042     38.9690      9.7437   8.2455749338e+01   6.9300847503e+01    0.2724216    0.2211507 -62.56  0.001359416    2.318    0.569
        30 -10.1159    183.8967     10.2305   4.5740693945e+01   3.7704133303e+01    0.3718291     0.176908  84.03  0.001216996    2.408    0.585
        31  -9.4920    107.6412      9.2567   5.8663548290e+01   5.6869039285e+01    0.1752768    0.1214503  -3.22 0.0007846618    1.533    0.348
        32 -11.2877    148.8207      6.3214   4.9411012441e+01   4.7144204502e+01    0.5855266    0.3063162  67.65  0.002418162    1.763    0.433
        33  -9.9236    127.3860      8.2719   5.3938623735e+01   5.2316124921e+01    0.1777029    0.1250629 -32.51 0.0004377255    1.534    0.348
        34 -11.0400     92.0252      6.4742   6.1495746008e+01   6.0554377653e+01    0.4095204    0.2559881  12.09  0.001252956    1.741    0.425
        35  -9.4690     43.3993      7.8894   7.9509290453e+01   6.8962264120e+01    0.1516014   0.09439088 -48.68 0.0008010094    2.458    0.593
        36 -10.0849      5.4928     11.4683   1.0027969746e+02   7.2292037215e+01    0.1816336    0.1223303 -27.48 0.0005702545    1.156    0.135
        37 -10.3102    228.6409      5.1124   3.9835272437e+01   2.7021975671e+01    0.2277373    0.1607309 -82.36   0.00110363    1.304    0.233
        38  -9.7080    131.9062      5.3223   5.1958517138e+01   5.1479704646e+01    0.2563008    0.1637638  82.04  0.001232301    1.830    0.453
        39 -10.1007    243.1665      3.7867   3.8387315649e+01   2.3766500887e+01    0.2005658    0.1415454 -62.88 0.0005339292    1.223    0.182
        40 -12.0533    167.9736      2.3192   4.5341455577e+01   4.2585066107e+01     0.244122    0.2182241 -83.82 0.0002697754    1.095    0.086
        41  -9.6326    125.8475      2.0003   5.1834079350e+01   5.3249751596e+01    0.2975244    0.1716398 -78.79  0.001231099    2.868    0.651
        42 -12.1974     81.4083      6.7228   6.4712945202e+01   6.2690574129e+01    0.5707369    0.4360094  -9.73  0.003469838    1.242    0.195
        43  -9.2068    155.5191      1.4124   4.6738664902e+01   4.5868936549e+01    0.1389763    0.1196057  57.28 7.228561e-05    1.069    0.065
        44 -10.3106    193.2881    216.1893   9.5246096239e+01   1.3220284010e+00    0.3573724    0.1707817  25.62  0.001494638    2.787    0.641
        45 -10.8385    250.3246    246.5361   9.0140276133e+01  -1.1237384040e+01    0.3430047    0.1918905 -18.66  0.002192192    1.859    0.462
        46  -9.8562     72.6046    250.0810   1.2141704362e+02   1.5058630090e+01    0.1602353    0.1435545  39.53  0.001254979    1.567    0.362
        47 -11.8472     18.3439    238.2497   1.2955878608e+02   2.3577169980e+01    0.6222966    0.2169047  40.14  0.003573061    2.516    0.603
        48 -13.1700     19.3425    247.8929   1.2984865794e+02   2.1810268823e+01     1.295128    0.3955921  50.22  0.007533873    2.204    0.546
        49 -12.7243      6.2641    244.5386   1.3169408535e+02   2.3717707209e+01    0.6899095    0.4152036  81.91  0.004607925    1.244    0.196
        50  -9.7336     37.9793    217.4942   1.2507578495e+02   2.5229892133e+01    0.1569233   0.09454122  44.71 0.0006250114    1.560    0.359
        51 -10.2608     24.3763    216.7114   1.2742018376e+02   2.6883077033e+01    0.2336553   0.08489121  49.92    0.0012903    2.129    0.530
        52  -9.1874     41.7465    220.9814   1.2464477185e+02   2.4128621270e+01     0.134765   0.08039706 -82.04 0.0008205689    1.513    0.339
        53 -10.4841     31.0570    215.7691   1.2619112634e+02   2.6340405881e+01     0.236623    0.1511928  50.65  0.001499639    1.383    0.277
        54  -9.5631    170.3262    213.2984   9.9157768355e+01   5.7715558042e+00    0.1288229    0.0944314  15.03  0.000702662    1.632    0.387
        55 -10.9087     21.2008    212.2431   1.2771261012e+02   2.8073160069e+01    0.3168465    0.1298327  59.32  0.001794063    1.987    0.497
        56 -10.1664    208.9744    212.0757   9.1649534724e+01  -7.7319841663e-01    0.1930927    0.1596337  22.09 0.0004524121    1.013    0.013
        57  -9.0733     76.3333    212.3172   1.1751578472e+02   2.1333193367e+01    0.1046051   0.09719167 -22.46 0.0007047756    1.691    0.409
        58  -9.5479      2.2854    212.3434   1.3096657035e+02   2.9896560474e+01    0.1349762    0.1169366  71.02 0.0005284894    1.405    0.288
        59 -12.0362      4.5599    207.4334   1.3034753753e+02   3.0628031079e+01    0.6170653     0.220155  83.93  0.003162594    2.590    0.614
        60  -9.0159    188.2961    209.6624   9.5113283965e+01   3.1693047319e+00    0.1217426    0.1007901  73.01 0.0002870407    1.653    0.395
        61  -9.9845     10.9984    208.0291   1.2926269953e+02   2.9907471416e+01    0.1478963    0.1131847 -66.14 0.0005270924    1.641    0.390
        62  -9.7551    124.0314    205.9771   1.0728373785e+02   1.5128532020e+01    0.1851604    0.1582372  55.72   0.00115896    1.021    0.020
        63  -9.2952     67.9400    203.9546   1.1833371900e+02   2.4147695799e+01    0.1457479    0.1156017  69.91 0.0004081968    1.022    0.022
        64 -11.3463     19.0165    202.9756   1.2754873325e+02   3.0112105540e+01     0.337057    0.2292934  84.01  0.001417411    1.114    0.103
        65 -10.3631    175.3972    202.6840   9.6447550998e+01   6.5941515448e+00    0.2330144    0.1852378  45.88 0.0005439641    1.160    0.138
        66  -9.6149    173.8058    219.6329   9.9467198143e+01   4.1695862850e+00    0.1916391    0.1013706  48.80 0.0009490325    1.764    0.433
        67  -9.4641    223.6004    201.8040   8.7168496019e+01  -1.8198586504e+00    0.1612906    0.1175011 -42.92 0.0005344107    1.693    0.409
        68  -9.2084    238.6669    201.2751   8.4405718950e+01  -4.2512992932e+00    0.1082372    0.1001022  58.89 0.0006993583    1.600    0.375
        69  -9.5717     34.7004    201.2383   1.2452861909e+02   2.8800772442e+01     0.136929    0.1186231 -83.27 0.0006640303    1.339    0.253
        70  -9.4178    227.1728    196.8601   8.5613398806e+01  -1.7351271239e+00    0.1845063    0.1330278   9.14 0.0007597781    1.367    0.268
        71 -10.2246    215.6447    194.6822   8.7305559135e+01   5.8320767919e-01    0.2227741    0.1504503 -19.28 0.0005878347    1.596    0.373
        72 -10.2840    187.0017    190.7758   9.2064045560e+01   6.4343484990e+00    0.1975517    0.1478324  -8.51 0.0009742293    1.620    0.383
        73 -10.3710      2.1165    188.9639   1.2983084558e+02   3.4507150533e+01    0.3106747    0.1126864  75.40  0.001424515    2.659    0.624
        74  -9.6909    211.1655    188.7170   8.7014111501e+01   2.2903729362e+00    0.2591753    0.1639048  -6.34  0.001226013    2.120    0.528
        75  -9.3906     61.6543    184.8724   1.1766508151e+02   2.8964945865e+01    0.1820105    0.1012242 -84.25 0.0009418076    1.785    0.440
        76 -11.4923     15.9246    182.7554   1.2682527555e+02   3.4550255921e+01    0.4097144    0.1868081  82.99  0.002213389    1.988    0.497
        77 -10.0714    167.0102    183.4888   9.4784154838e+01   1.1516708177e+01    0.2194519    0.1279317  42.68 0.0007566581    1.568    0.362
        78  -9.8630    142.5088    183.5019   9.9969830800e+01   1.6169049764e+01    0.1394198    0.1271728  52.24 -1.81149e-05    1.014    0.014
        79  -9.5253     58.5198    182.4547   1.1807153670e+02   2.9893645315e+01    0.1255572    0.1025079  80.30 0.0002251349    1.019    0.019
        80  -9.7752      2.0186    180.2880   1.2936268657e+02   3.6297884493e+01    0.1535781    0.1111371  74.48 0.0005295868    1.093    0.085
        81 -10.0234    244.2636    178.3619   7.9018510764e+01  -2.0405472688e+00    0.2399967    0.1427783 -18.75   0.00101172    1.722    0.419
        82 -11.0092    224.1364    178.5013   8.2607812703e+01   1.4975682980e+00    0.2465786    0.2316518  21.60   0.00042603    1.182    0.154
        83  -9.6183     70.1924    177.7321   1.1501124853e+02   2.9368492625e+01    0.1540089    0.1482176 -58.39  0.000548402    1.361    0.265
        84  -9.2150     36.4561    178.4481   1.2233048912e+02   3.3386108543e+01    0.1205306    0.0944019  83.72 0.0001965376    1.022    0.021
        85 -10.1435    200.1668    176.7740   8.6792572104e+01   6.2803752260e+00    0.1961082    0.1548422   9.78 0.0006288313    1.338    0.253
        86  -9.8686     46.4886    177.2201   1.2009641846e+02   3.2515182629e+01    0.2218711    0.1573378  47.66  0.001390299    1.408    0.290
        87 -11.1478     18.0183    173.1601   1.2571347198e+02   3.6398108182e+01    0.4015014     0.200482  71.19  0.002176091    1.843    0.458
        88 -10.7533     12.8105    170.1403   1.2655967462e+02   3.7522608462e+01    0.4246419    0.1437932  87.87  0.001741389    3.371    0.703
        89  -9.3125     75.4152    170.7648   1.1296146954e+02   3.0178930214e+01    0.1802634    0.1108564 -55.60 0.0009311529    1.699    0.411
        90  -9.9252      4.6837    168.4865   1.2810590721e+02   3.8568377240e+01    0.2070443   0.07997403 -78.22  0.001082618    2.015    0.504
        91 -11.6501     44.5157    162.6758   1.1900923498e+02   3.5986490820e+01    0.4159651    0.3042977  69.19   0.00254138    1.233    0.189
        92 -12.2269     37.0007    159.0402   1.2032790001e+02   3.7638999892e+01    0.6143813    0.1865993 -69.65 0.0006107382    2.735    0.634
        93  -9.4935    210.0226    165.7948   8.2635891107e+01   6.2094994075e+00    0.1895176    0.1075775  43.80 0.0007291234    1.719    0.418
        94  -9.5784     67.1956    165.1844   1.1411032963e+02   3.2585141381e+01    0.1900966    0.1334711  73.27 0.0008598221    1.366    0.268
        95  -9.5250    200.3101    162.8927   8.3910458243e+01   8.6392942205e+00    0.1941078    0.1781684 -13.67 0.0005825913    1.076    0.071
        96 -10.8847     50.8003    164.6009   1.1779770041e+02   3.4814753445e+01    0.4676621    0.2076723 -56.26  0.001842329    2.259    0.557
        97 -11.3587     22.5992    156.4169   1.2332783858e+02   3.9663487610e+01    0.4672044    0.3133852  65.75  0.002982369    1.366    0.268
        98 -10.0190    247.4490    158.4606   7.4358362015e+01   3.0815695980e-01    0.1334233    0.1171293  -9.53 0.0001275775    1.052    0.049
        99  -9.0501    147.6542    156.3270   9.3748933068e+01   2.0708637432e+01    0.1549189    0.1156896  80.98 0.0007050288    1.748    0.428
       100  -8.9421    235.7096    154.6487   7.5542364834e+01   3.0599151432e+00    0.1441362   0.09985105   1.99 0.0005510581    1.672    0.402
       101  -9.0831    198.0215    154.3534   8.2522279811e+01   1.0627984126e+01    0.2384682    0.1231223  65.64 0.0007045855    4.533    0.779
       102 -10.3129     12.2284    153.2892   1.2537017819e+02   4.1272887799e+01    0.2444659    0.1619003  20.03  0.001542561    2.164    0.538
       103  -9.8391    205.4027    151.7847   8.0500280256e+01   9.5592680720e+00    0.2106774    0.1347498 -25.27 0.0009550735    1.703    0.413
       104 -10.3642    178.0330    151.4422   8.6001420557e+01   1.5373277464e+01    0.2737498    0.2511691 -72.59 0.0009702835    1.235    0.190
       105 -10.2280     26.7858    147.7703   1.2151542322e+02   4.1235955411e+01    0.1986843    0.1237809 -61.35  0.001135163    1.496    0.331
       106  -9.4437     93.0073    148.0000   1.0525876273e+02   3.2705548771e+01    0.2259367   0.07918692  38.67 0.0008020911    2.940    0.660
       107 -10.2678    207.0356    146.1170   7.8911127120e+01   1.0225486740e+01    0.2214853    0.2118206   5.87 0.0008591165    1.040    0.039
       108 -11.6506     11.0132    145.4408   1.2497232209e+02   4.3130855600e+01    0.3809263    0.2483397  40.33  0.002482671    1.719    0.418
       109  -9.7201     30.6377    144.7263   1.2026684074e+02   4.1568474720e+01    0.1750943   0.09695722 -82.79 0.0005175815    1.577    0.366
       110 -11.3787     20.1409    141.8895   1.2248922852e+02   4.3183633476e+01     0.412751    0.1957476  79.81   0.00134019    2.323    0.570
       111 -10.4827     16.2457    139.7818   1.2321180256e+02   4.3993941674e+01    0.2462979    0.1691253  -0.37  0.001467911    2.428    0.588
       112 -10.3727      2.9266    144.0345   1.2670503263e+02   4.4056576228e+01    0.1815444    0.1113072 -54.38  0.001136525    1.761    0.432
       113  -9.1977     50.6648    140.6964   1.1479550584e+02   4.0370751253e+01     0.126734   0.09376826 -41.83 0.0007037927    1.664    0.399
       114 -10.7883     55.3879    136.1417   1.1291543133e+02   4.0885532198e+01    0.5513431    0.2794597  80.27  0.002100699    3.127    0.680
       115 -10.4420     54.1904    133.0201   1.1275012015e+02   4.1773076794e+01    0.3324144    0.2271412  36.86  0.001848915    1.648    0.393
       116 -11.3005      9.0854    136.7770   1.2464105305e+02   4.5239300442e+01     0.212784    0.1467505 -78.20   0.00025482    1.118    0.106
       117 -11.0952      2.7872    137.4331   1.2619413345e+02   4.5544234793e+01    0.3541646     0.124193 -73.75 0.0008768646    2.113    0.527
       118 -10.0423      5.4550    133.2439   1.2518910326e+02   4.6303568205e+01    0.2658093    0.1538438 -86.31 0.0007248058    1.377    0.274
       119  -9.1606    143.6962    137.3299   9.0580787345e+01   2.5592747429e+01    0.1561856    0.1206684  89.28 0.0007035481    1.652    0.395
       120 -10.2423     21.4376    135.9383   1.2154450888e+02   4.4442157419e+01    0.2327795    0.1716754  72.42  0.001070625    1.282    0.220
       121  -9.4036    137.8188    135.3940   9.1555652027e+01   2.7243622898e+01    0.2184649    0.1443715  34.30 0.0009496317    1.683    0.406
       122  -9.0651    250.3101    134.3029   6.8589463226e+01   3.4796490550e+00    0.1393471    0.1000565   4.53  0.000582709    1.607    0.378
       123 -10.0916    106.9741    133.1741   9.8829730014e+01   3.3765891655e+01    0.2531674    0.2132652 -57.16  0.001152266    1.149    0.130
       124  -9.6835     79.5931    133.1849   1.0603725654e+02   3.8302709393e+01    0.1923214    0.1203094 -52.48 0.0004386514    1.536    0.349
       125 -11.5283     37.5934    130.5423   1.1675860576e+02   4.4197005872e+01    0.4172972    0.2415621 -66.37  0.001604625    1.427    0.299
       126 -11.0325     33.3091    126.0037   1.1727061816e+02   4.5689689258e+01    0.2897986    0.1811453  71.50  0.001039909    1.743    0.426
       127 -10.0958     74.0280    129.4216   1.0683363113e+02   4.0018042478e+01    0.2353582    0.1768817 -56.66  0.000734572    1.246    0.197
       128 -10.1717     82.0302    125.2251   1.0385030741e+02   3.9830106824e+01    0.2333415    0.1845797 -62.34 0.0006008021    1.155    0.134
       129 -11.4096     10.5109    122.4932   1.2284753114e+02   4.8402869720e+01    0.4683503    0.2300049  71.24  0.002362676    2.349    0.574
       130  -9.1337      6.6697    126.3036   1.2422662769e+02   4.7798126384e+01      0.12078   0.07227702  71.65 0.0007035561    1.653    0.395
       131 -11.2810      2.2603    124.1781   1.2512952778e+02   4.8575052096e+01    0.4655196    0.1279748 -67.07  0.001516918    2.496    0.599
       132 -10.0296    219.9402    124.3323   7.1392129496e+01   1.1317203440e+01    0.2025186    0.1901671  19.03 0.0006501679    1.081    0.075
       133  -9.8667    226.0261    124.0000   7.0237796627e+01   1.0067424832e+01    0.2287809   0.08375211  50.78  0.000796797    2.903    0.656
       134 -10.7686     21.5417    121.2062   1.1978563822e+02   4.7858933721e+01    0.2154298    0.1768121 -39.45   0.00090177    1.480    0.324
       135  -9.8802     32.8717    118.6785   1.1635280907e+02   4.7460865324e+01    0.2326678    0.1340476 -62.08  0.001023606    1.425    0.298
       136 -11.1616     17.4188    115.5006   1.2017930530e+02   4.9514023020e+01    0.3187827    0.2358829 -44.46   0.00205966    1.508    0.337
       137  -9.9174    249.5272    118.5296   6.5101275388e+01   6.1158768835e+00    0.1402859     0.124216 -29.08 3.156836e-05    1.042    0.040
       138  -9.5752    220.2968    116.9633   6.9537244818e+01   1.2522785401e+01    0.2158585    0.1765484 -34.23 0.0004727094    1.151    0.131
       139 -10.8395     51.0873    116.5703   1.1088523411e+02   4.6065778364e+01    0.2994697    0.1563925 -59.94  0.001455499    1.610    0.379
       140  -9.4968    166.1717    115.6356   8.0042687707e+01   2.5214019901e+01     0.217567    0.1952972 -60.45  0.000554022    1.163    0.140
       141  -9.1694    214.1718    115.5767   7.0289071196e+01   1.4129066027e+01    0.2039421    0.1384114  37.31 0.0006223955    1.606    0.377
       142 -11.9768     35.5286    108.4921   1.1400492885e+02   4.9618902274e+01    0.4233177    0.2537195  83.50  0.001596803    2.028    0.507
       143 -10.5657    249.0523    112.0386   6.3657113001e+01   7.2424379846e+00    0.2206162    0.1931013 -32.39 0.0007221136    1.043    0.041
       144  -8.7640    212.6613    112.7046   6.9845694242e+01   1.4980192919e+01    0.1542369    0.1163003  13.16 0.0005972039    1.654    0.395
       145 -12.5440     15.7458    109.3717   1.1984732220e+02   5.1062647147e+01     0.497812    0.3981086  69.04 0.0007101456    1.331    0.249
       146 -11.4816     23.1312    106.8818   1.1737688055e+02   5.1080322880e+01    0.2775058    0.2382087  61.83  0.001137954    1.311    0.237
       147 -11.5874     54.9124    110.0467   1.0857308934e+02   4.7173376996e+01     0.291858    0.2344103 -59.46  0.000504819    1.094    0.086
       148 -10.1373     86.0295    116.5489   1.0092022234e+02   4.1266405202e+01     0.219976    0.1782682 -59.15 0.0003450348    1.133    0.117
       149 -12.5834      2.6629     99.4820   1.2232526661e+02   5.4177094147e+01    0.7068603    0.2538354 -82.12  0.001733834    2.777    0.640
       150 -11.7529      2.5639    106.0268   1.2313938821e+02   5.2691510754e+01    0.2974163    0.1784793 -66.85 0.0004271987    1.267    0.210
       151 -10.5166      6.2825    105.6618   1.2205044643e+02   5.2552509383e+01    0.1913372    0.1186395 -85.22 0.0005683753    1.382    0.276
       152 -11.0364     63.0000    106.7883   1.0551332638e+02   4.6937236613e+01    0.2947856    0.2522307  54.12  0.001011933    1.292    0.226
       153 -10.5018    243.2428    104.7657   6.2807371830e+01   9.6096074446e+00    0.1936084    0.1602985   2.28 0.0005295843    1.350    0.259
       154  -9.8700    223.3066    104.0105   6.5803061806e+01   1.4088445873e+01    0.2147985    0.1774467 -34.02 0.0004387524    1.129    0.114
       155  -9.6258     89.2870    103.3136   9.6892209398e+01   4.3843323044e+01    0.2273789      0.14885 -20.38 0.0002119851    2.408    0.585
       156 -11.0316     92.4099     98.1393   9.4652780455e+01   4.4505226570e+01    0.6458986    0.2109293 -42.37   0.00159003    3.427    0.708
       157 -10.7918     94.4804     91.2287   9.2172882848e+01   4.5705647003e+01    0.4644468    0.2967361  12.82  0.001451846    2.594    0.614
       158 -10.8437    247.6419    102.1302   6.1520619192e+01   9.1095530477e+00    0.2322242    0.2015734  79.78  0.001147548    1.384    0.277
       159 -10.5068     36.3759    101.6116   1.1256069776e+02   5.1160616309e+01    0.3258605    0.2183281  43.63  0.001265427    1.728    0.421
       160  -9.7808    145.4722    100.0433   8.0716295084e+01   3.3239748540e+01    0.2507706    0.1538503 -42.07  0.001036163    1.604    0.377
       161 -11.2033     62.3857     98.4895   1.0388860994e+02   4.8975904952e+01    0.3079526    0.2903024  -6.11 0.0005520356    1.227    0.185
       162 -10.4656     66.8180     98.2169   1.0245112908e+02   4.8448621787e+01    0.2480221    0.1731739 -53.49 0.0004229991    1.259    0.206
       163  -9.6845     85.2254     98.7451   9.6954209964e+01   4.5571244786e+01    0.2021533    0.1573453 -35.68 0.0006542692    1.340    0.254
       164 -11.3316     20.2727     97.0635   1.1671501373e+02   5.3586956747e+01    0.4126092    0.2305165 -77.97  0.002234877    1.625    0.385
       165  -9.4365    119.5005    101.4942   8.7844217630e+01   3.8605092665e+01    0.1536754    0.1473926 -32.23 -7.535405e-05    1.058    0.055
       166 -10.1151     57.2168     96.2297   1.0499571290e+02   5.0159648695e+01    0.2827417    0.1531793 -50.56  0.001010686    1.609    0.378
       167 -10.2258     13.9450     96.7117   1.1859170131e+02   5.4117032654e+01    0.1645948    0.1385564 -69.32 0.0006245229    1.088    0.081
       168  -9.2507     27.9944     95.9633   1.1414072856e+02   5.3231301189e+01    0.1482008    0.1175534 -65.79            0    1.012    0.012
       169  -9.8315    249.9419     95.5097   5.9608853455e+01   9.6757422825e+00    0.1892795    0.1415764  56.98 0.0004229086    1.510    0.338
       170  -8.7001     67.2793     93.3276   1.0113904758e+02   4.9522984642e+01    0.1413049    0.0985227 -32.99 0.0006996838    1.596    0.374
       171 -10.3349     23.0474     86.7460   1.1405711787e+02   5.5756298248e+01    0.2994196    0.1766608 -56.68  0.001511883    1.338    0.252
       172  -9.9730     31.4668     92.5185   1.1241499644e+02   5.3734101965e+01     0.275008    0.1603773 -74.65  0.001447528    1.628    0.386
       173 -11.1377     25.6178     91.5104   1.1409710947e+02   5.4458735360e+01    0.2652571    0.2249003 -26.43 0.0009543936    1.380    0.275
       174 -10.8805    158.0547     90.6058   7.5033135725e+01   3.2187392731e+01    0.3735776    0.2339952 -37.22  0.001565154    1.591    0.372
       175  -9.7597    104.0160     92.0031   8.9569262642e+01   4.3777431004e+01    0.2247124    0.1778982 -13.56  0.001084773    1.558    0.358
       176 -11.4338     10.3140     90.8613   1.1882832073e+02   5.5692581906e+01    0.2326769    0.2184348  45.02 0.0005106233    1.346    0.257
       177 -10.8404      4.7041     86.4601   1.1993191147e+02   5.7018432923e+01    0.4501055    0.1899852 -68.85  0.002342989    1.763    0.433
       178 -11.1075     14.7993     83.3855   1.1616389482e+02   5.7108162010e+01    0.5042359    0.1845852 -46.62  0.002123305    2.438    0.590
       179 -11.9677     13.4823     77.4376   1.1553369257e+02   5.8534745348e+01    0.5697213    0.1986939 -45.51  0.002396028    2.553    0.608
       180 -10.8148     21.0269     81.2439   1.1368832192e+02   5.7161533175e+01    0.3278105    0.2098112 -15.53  0.001695782    2.089    0.521
       181 -11.9553     21.1988     77.0491   1.1279815985e+02   5.8095979256e+01    0.3533149    0.2206157 -46.03 0.0002384894    1.401    0.286
       182 -11.1483      3.5964     77.7718   1.1894180472e+02   5.9026878606e+01    0.4589934    0.1804378 -64.60  0.001989554    1.807    0.447
       183 -11.3524      7.8217     73.9473   1.1684574408e+02   5.9651080995e+01    0.3330558    0.2601591 -11.27  0.001830003    1.587    0.370
       184  -9.2169     21.2855     91.3472   1.1544845479e+02   5.4832152676e+01     0.130267   0.07325133 -46.56 0.0003568247    1.651    0.394
       185 -10.8645     47.7290     84.8528   1.0546053941e+02   5.3899026386e+01    0.5139028    0.4152449  83.80  0.001620803    1.480    0.324
       186  -9.6120     42.4351     82.5118   1.0669559259e+02   5.4996502674e+01    0.1830915    0.1627585  54.68 0.0005697395    1.340    0.253
       187  -9.5182    139.0474     87.5361   7.8712489601e+01   3.7299282098e+01    0.2235791    0.1554557  49.75 0.0009880597    1.468    0.319
       188 -10.8094     67.1929     84.7044   9.8971010397e+01   5.1507380251e+01    0.3644771    0.2253109 -26.27  0.001408768    2.140    0.533
       189 -11.0321    167.4993     84.6305   7.1187432297e+01   3.1026292170e+01    0.4741582    0.3129698  65.56  0.001997766    1.740    0.425
       190  -9.6429    112.3083     85.6574   8.5335772565e+01   4.3519660490e+01    0.1545855    0.1209532 -81.36 3.906927e-05    1.693    0.409
       191 -10.2268     87.9432     83.3353   9.1936545344e+01   4.8593412606e+01    0.2296435    0.1838872 -56.44 0.0003302401    1.232    0.188
       192  -9.9027     29.9004     82.6486   1.1097145787e+02   5.6140312872e+01    0.3557935    0.1356984 -56.74  0.001628453    1.978    0.494
       193  -9.6165    117.9349     83.3020   8.3040546489e+01   4.2847974246e+01    0.2135876    0.2045923  -9.41  0.001147675    1.060    0.056
       194  -9.5615    130.4968     82.4970   7.9394471492e+01   4.0269512067e+01    0.1545857    0.1503277 -21.82 0.0008106195    1.017    0.017
       195  -9.0625    146.5129     81.5325   7.5063022391e+01   3.6738053640e+01    0.1563955    0.1525322 -64.80 4.366857e-05    1.044    0.043
       196 -10.0356     75.0733     76.2363   9.3998327123e+01   5.2230003107e+01    0.2663735    0.2180843  77.39  0.001426623    1.627    0.386
       197 -10.2338     71.0481     79.4873   9.6272358416e+01   5.2122400160e+01    0.2302833    0.1854063  83.33 0.0009424153    1.650    0.394
       198 -10.1373     92.9027     77.7928   8.8736293433e+01   4.8919240029e+01    0.2321946    0.1953982 -16.41 0.0007519103    1.278    0.218
       199 -11.5603     58.9113     75.6795   9.9307019484e+01   5.4630953747e+01    0.4588131    0.3283798  82.51  0.002273254    2.185    0.542
       200 -11.2854     62.1607     72.0734   9.7157045680e+01   5.4991911881e+01    0.3689423    0.2130688 -43.02  0.001001411    1.544    0.352
       201  -9.4831    150.8077     77.1513   7.2702652483e+01   3.6539735071e+01    0.2159124    0.1863974  11.16 0.0004179392    1.315    0.239
       202  -9.8067    122.0730     76.2676   7.9714322214e+01   4.3390082464e+01    0.2159973    0.1952666  48.69  0.001014757    1.146    0.128
       203  -9.6819    108.3036     76.3539   8.3637704722e+01   4.6273885796e+01    0.1557395    0.1170307  -6.98 0.0007040059    1.709    0.415
       204 -12.1487     44.5942     75.1818   1.0416567318e+02   5.6422424760e+01    0.2516242    0.2172158  33.56 0.0002757767    1.371    0.271
       205 -11.0269     37.7153     69.9558   1.0528716348e+02   5.8277938678e+01    0.4984723    0.3285552  72.62  0.002495316    2.518    0.603
       206 -10.5165     31.0974     66.0786   1.0672959211e+02   5.9735475354e+01    0.3636683    0.1742072 -61.16  0.001237602    1.810    0.448
       207 -10.0537     28.0085     68.2165   1.0840298491e+02   5.9530714993e+01    0.2763955    0.1298074 -50.85 0.0003361853    1.658    0.397
       208  -9.5710     32.9933     75.7580   1.0839229810e+02   5.7428886625e+01    0.1634363    0.1437685 -47.76   0.00108584    1.095    0.087
       209  -9.7595    145.4872     73.9039   7.2955564996e+01   3.8438693293e+01    0.2407737    0.1531053 -36.52 0.0007077358    1.563    0.360
       210 -12.1532    102.7730     72.4320   8.4026923421e+01   4.8173970291e+01    0.4942927    0.2812078 -35.94 0.0006583195    1.760    0.432
       211 -10.4843    150.4460     72.1693   7.1241706788e+01   3.7552977240e+01    0.2764467     0.215714  54.03 3.134995e-05    1.293    0.227
       212 -11.1558     77.1875     71.2433   9.1780960894e+01   5.2967901707e+01    0.5216185    0.3490208  59.46  0.001505689    2.125    0.529
       213  -9.7188    116.1002     71.4949   7.9840754585e+01   4.5625504906e+01    0.2330082    0.1496005  45.24  0.001035882    1.602    0.376
       214 -12.2489     94.2490     68.3948   8.5331836477e+01   5.0616763785e+01    0.4185216    0.2513881 -38.67 0.0004050472    1.581    0.368
       215 -10.5473     68.7880     67.7528   9.3551484929e+01   5.4983269209e+01    0.4546987    0.1614091 -46.14  0.001133245    2.471    0.595
       216 -11.4734     50.7136     67.8915   1.0000625784e+02   5.7336779386e+01    0.4631468    0.2631956 -34.31  0.001702758    1.827    0.453
       217 -10.3735     51.2836     62.8895   9.8323214827e+01   5.8334912895e+01    0.3363452    0.1948201 -33.77  0.001586374    1.743    0.426
       218  -9.8479    145.9829     68.9301   7.1264287116e+01   3.9233679876e+01    0.2478774    0.1876989  13.61 0.0006568402    1.683    0.406
       219 -10.5303    140.1128     69.0226   7.2708539376e+01   4.0634139167e+01    0.2274056      0.22378  -0.24 0.0003186357    1.006    0.006
       220  -9.9355    123.0474     68.4647   7.6928801837e+01   4.4690740797e+01    0.2375944    0.1907894 -37.09 0.0006057717    1.217    0.178
       221 -11.8606     17.9567     67.0520   1.1183487852e+02   6.0545471237e+01    0.6143599    0.3306234  -5.50  0.001482647    2.716    0.632
       222 -10.2482     18.0451     60.2720   1.1023196422e+02   6.2010614798e+01    0.4082708    0.2493852  72.29  0.002049959    2.899    0.655
       223 -12.4814      4.3646     65.2357   1.1645314645e+02   6.1751046720e+01    0.3917421     0.276794  78.40  0.001324194    1.758    0.431
       224 -10.4533    128.9187     71.7595   7.6436271002e+01   4.2739169430e+01    0.2570403    0.2124828 -44.35 0.0001905338    1.207    0.172
       225 -10.7696     77.3261     64.1911   8.9475670534e+01   5.4404947190e+01    0.4079983    0.2713471 -48.96  0.001816007    1.437    0.304
       226 -11.5643     64.3096     60.0956   9.2678411525e+01   5.7209970356e+01    0.4176068    0.2337809  26.80   0.00167964    2.108    0.526
       227 -10.4961     59.3140     59.3222   9.4241035120e+01   5.8056343421e+01    0.2933183    0.1665548 -33.36  0.001411885    1.770    0.435
       228 -10.0713     56.2960     58.9985   9.5249069257e+01   5.8519446631e+01    0.2525133    0.2146598 -29.36            0    1.058    0.055
       229 -10.2831     99.5190     64.9668   8.2552628804e+01   5.0292754584e+01    0.2292827    0.1374922 -37.61  0.001023741    1.598    0.374
       230  -9.5447    216.4296     64.4922   5.6610754725e+01   2.2233181333e+01    0.2605495    0.1452451  78.50  0.001024904    2.385    0.581
       231  -9.2500    150.4619     64.5389   6.8819354093e+01   3.8912823376e+01    0.1525411    0.1510662  13.92 6.770115e-05    1.006    0.006
       232 -11.3306     86.9978     52.0933   8.2008306895e+01   5.5076864957e+01    0.3374141    0.2687618 -61.83  0.001522789    1.609    0.378
       233 -10.6664     83.5250     61.3842   8.6448750025e+01   5.3931373928e+01    0.4407536    0.2846707  47.81  0.001677423    1.782    0.439
       234 -10.4688     86.2210     57.4510   8.4190613222e+01   5.4219656714e+01    0.3773598    0.2602136 -35.11  0.001914149    1.355    0.262
       235 -10.7240     11.0254     62.6157   1.1344384871e+02   6.1954383963e+01      0.20539    0.1559507 -58.57 0.0003405872    1.039    0.038
       236 -10.7969      5.6690     58.2668   1.1454515004e+02   6.3187906780e+01    0.3284374    0.1983868 -79.34  0.001940202    1.748    0.428
       237 -11.2859      5.2451     51.7544   1.1325304698e+02   6.4588830666e+01    0.3296824    0.1960096 -46.84 0.0008921189    1.306    0.234
       238 -10.1344    201.3233     62.0495   5.8273327153e+01   2.6378417656e+01    0.2301384    0.2030407  48.35 0.0002940247    1.198    0.165
       239  -9.1652    186.1557     61.1528   6.0579446829e+01   3.0391005221e+01    0.2050834    0.1710021 -65.73 0.0002448615    1.265    0.210
       240 -10.7462     45.1689     49.7738   9.6469493214e+01   6.1729291597e+01    0.4417955    0.1975548 -47.70  0.002092622    1.869    0.465
       241 -10.0103     47.5126     58.4586   9.8375214799e+01   5.9702043961e+01    0.2948576    0.2006383 -75.75  0.001495225    2.173    0.540
       242 -10.1366     43.9106     56.9279   9.9277985505e+01   6.0422594173e+01    0.2402729    0.1593975 -38.09 0.0003689474    1.310    0.236
       243 -11.3266     29.1368     60.9918   1.0614680606e+02   6.1002367523e+01    0.5754389    0.2315486  15.15  0.002461958    3.661    0.727
       244 -12.0508    232.4387    246.2815   9.3057238834e+01  -8.6903387858e+00    0.4110818    0.2591494 -26.08  0.002628845    1.765    0.433
       245 -11.4045     56.8193     64.8480   9.6894738602e+01   5.7236866162e+01     0.472553    0.1612662 -42.03  0.001770433    2.789    0.641
       246  -8.6966    221.6507     59.6853   5.4583554314e+01   2.1695293947e+01    0.1477537    0.1124008  24.91 0.0007047001    1.725    0.420
       247 -10.4184    147.1220     56.9861   6.7118757699e+01   4.1026487243e+01    0.2471144    0.2209673  60.84 0.0002615548    1.134    0.118
       248 -10.6190    129.8299     55.9272   7.0914113910e+01   4.5390841977e+01    0.5116372    0.2553269  37.25  0.001914749    2.371    0.578
       249  -9.7724    123.0348     56.2933   7.2806637653e+01   4.6901093104e+01    0.2008827    0.1965153 -11.78 0.0004491684    1.041    0.039
       250 -12.6919    128.6848     50.5148   6.9318552042e+01   4.6560022167e+01    0.4857827    0.3593794   9.91  0.001278623    1.663    0.399
       251 -11.2233     75.4420     56.0077   8.7336710107e+01   5.6329050166e+01    0.2409707    0.2131539 -25.82 0.0003063043    1.007    0.007
       252 -10.2029     61.4684     54.1280   9.1703152872e+01   5.8801874136e+01    0.2448234     0.225451  67.81 0.0009711499    1.434    0.303
       253  -9.6082    143.4922     53.1124   6.6653862701e+01   4.2559917608e+01    0.2268444    0.1499038 -31.68 0.0009859585    1.533    0.348
       254 -11.0738     12.5347     51.5719   1.1025249704e+02   6.4213415127e+01    0.2467328    0.1935988 -70.97 0.0006277051    1.321    0.243
       255  -9.8457    109.6184     51.9793   7.4983573469e+01   5.0610676952e+01    0.2106417    0.1799878 -20.82 0.0004991142    1.140    0.123
       256 -10.8382     69.8913     50.1857   8.7218071835e+01   5.8316317927e+01     0.391702    0.3141064 -83.72  0.001744256    2.015    0.504
       257 -11.0951    103.4524     48.6975   7.5584855467e+01   5.2468422958e+01    0.4442751    0.4073241 -43.22  0.002528456    1.180    0.153
       258  -9.9753    186.8156     50.1302   5.7206533150e+01   3.1922913279e+01    0.2233018    0.1943275 -69.62 0.0003438795    1.172    0.146
       259 -11.1113     78.0814     48.7202   8.3776409546e+01   5.7255716984e+01    0.4547399    0.2217229 -30.99  0.001537615    2.173    0.540
       260  -9.9437    220.5336     48.9452   5.1896264535e+01   2.3545284498e+01    0.2127231    0.1346985 -34.36  0.000329535    1.508    0.337
       261  -9.5423    166.7736     49.1805   6.0485668618e+01   3.7264430449e+01    0.2055523    0.1694059  35.59 0.0003706279    1.297    0.229
       262 -11.4626    151.9838     47.7549   6.2988925063e+01   4.1272566371e+01    0.4587033     0.325046  34.36  0.001096406    1.557    0.358
       263  -9.8482     95.3071     49.0917   7.8222618800e+01   5.4041736862e+01    0.2402683    0.1845524  25.52 0.0007968716    1.356    0.263
       264 -10.4625    120.1318     47.3859   7.0410250040e+01   4.9049286890e+01    0.2451909    0.2037715 -35.23  0.000423671    1.212    0.175
       265  -9.9681    115.6468     48.2129   7.1920103002e+01   4.9926078873e+01    0.2288602    0.1646391  41.16 0.0001249202    1.381    0.276
       266 -10.7206    103.4833     57.5218   7.8773212492e+01   5.0908523245e+01    0.5269049    0.2194085 -30.80  0.001838392    2.842    0.648
       267 -11.1364     11.2331     44.3913   1.0888349889e+02   6.5772452521e+01    0.4972351    0.2305398 -35.07   0.00211147    2.017    0.504
       268 -10.0544      4.5209     46.9708   1.1240001953e+02   6.5620591260e+01     0.285206    0.1224055 -41.62  0.001276685    1.909    0.476
       269 -10.6968      7.0429     40.9576   1.0974224478e+02   6.6710889721e+01    0.2747352    0.1141056 -54.42 0.0006915281    1.719    0.418
       270  -9.9566    142.8966     45.9735   6.4359032292e+01   4.3825731325e+01    0.2222772    0.2193321  26.82 0.0004973163    1.019    0.019
       271 -10.0952     86.1946     45.4027   7.9766648568e+01   5.6408056430e+01    0.2328967    0.1755025 -23.71 0.0006837544    1.266    0.210
       272 -10.2566     82.4958     46.5586   8.1447542800e+01   5.6875428441e+01    0.1381157    0.1248835 -13.70 5.250511e-05    1.023    0.023
       273  -8.9709     18.3220     46.2752   1.0640578136e+02   6.4919115986e+01    0.1224298   0.07103298 -33.70 0.0002362374    1.577    0.366
       274  -9.6104     51.2261     44.9660   9.2375748637e+01   6.1931118908e+01    0.1802061     0.142364 -31.04 0.0002671771    1.066    0.062
       275 -10.2291    125.7452     40.6442   6.6509630817e+01   4.8786716109e+01    0.2259602    0.1598143  17.95 0.0006515547    1.693    0.409
       276 -11.4135     97.2073     41.1720   7.4613483847e+01   5.4984148947e+01    0.7094786    0.3852569 -39.68  0.003202747    1.842    0.457
       277 -10.5375    101.7958     36.8671   7.1548780450e+01   5.4706269409e+01    0.2754518     0.203813   6.36 0.0009138402    1.504    0.335
       278 -10.2015    105.1226     34.1682   6.9522249311e+01   5.4396191577e+01    0.2732031    0.2206007  89.50 0.0007230826    1.787    0.440
       279 -11.1852     97.9593     31.7930   7.0654295457e+01   5.6251119182e+01    0.4525868    0.2662281  20.69   0.00153952    2.219    0.549
       280 -11.1536    101.1429     28.4833   6.8374480575e+01   5.6044352760e+01    0.2608994    0.2345378 -34.72  0.000330745    1.223    0.182
       281 -10.8491     89.7060     39.7829   7.6428149038e+01   5.6684028669e+01    0.5590017    0.2521509 -47.73  0.002156479    2.830    0.647
       282  -9.9706    110.8269     42.0236   7.0953679602e+01   5.1978657446e+01    0.2035342     0.193179 -59.37 0.0004488511    1.219    0.180
       283 -10.8524     66.3484     41.3233   8.5166928941e+01   6.0473590816e+01    0.3410034    0.2235119  -3.30  0.001304599    1.926    0.481
       284 -10.5725     69.8455     37.4388   8.2326760575e+01   6.0587527885e+01    0.2505588    0.1714266 -26.01  0.000630694    1.355    0.262
       285 -11.3634     34.3744     34.0606   9.5332799077e+01   6.5891154098e+01    0.4834277     0.186715  39.03  0.002160414    3.389    0.705
       286 -10.6925     23.2570     41.1735   1.0272055125e+02   6.5562615048e+01    0.2209653    0.1988697  81.94 0.0007315017    1.573    0.364
       287 -12.9043     25.6359     36.2521   1.0000728872e+02   6.6313467923e+01    0.4687069    0.4011993  66.00  0.002896171    1.811    0.448
       288 -10.8395     19.9023     38.0545   1.0317392300e+02   6.6436555735e+01    0.2872172    0.1757251 -34.02   0.00175743    1.395    0.283
       289  -9.5306    193.0687     41.0807   5.3556653225e+01   3.1600210037e+01    0.2520676    0.1635275 -61.84  0.001127355    1.738    0.425
       290  -9.2882    172.5776     41.5086   5.7004109488e+01   3.6873948774e+01    0.1478429     0.141885 -79.86 4.169152e-05    1.032    0.031
       291 -12.1750     81.1267     35.8011   7.7669509703e+01   5.8919008842e+01    0.6015314    0.4671458 -49.37  0.002665279    1.547    0.354
       292 -10.9876     79.3118     30.8264   7.6222749163e+01   6.0016105272e+01    0.5020499    0.2885347  14.59  0.001892491    2.503    0.600
       293 -11.1044     52.6222     40.7659   9.0251808843e+01   6.2531054714e+01    0.4057618    0.2140247  38.94  0.001945271    2.191    0.544
       294  -9.8212    226.4606     40.4814   4.8947745088e+01   2.3276212963e+01    0.1413386    0.1269513 -62.99 8.123761e-05    1.003    0.003
       295  -9.2190    215.5198     40.5028   5.0293628021e+01   2.5964101724e+01    0.1437793    0.1314018 -67.50 5.344043e-05    1.004    0.004
       296 -10.2745    183.4904     39.4774   5.4559906075e+01   3.4309386390e+01    0.3545749    0.0615213 -42.96 0.0008096461    6.118    0.837
       297 -10.4704    100.2195     55.6213   7.9086427730e+01   5.1912163663e+01    0.3385496    0.2071543  43.55  0.001211699    1.684    0.406
       298 -10.5033     41.8587     36.8715   9.3183158916e+01   6.4563444318e+01    0.4429238    0.3055082  63.21  0.002211009    3.055    0.673
       299  -9.9702     61.8769     37.8120   8.5467293490e+01   6.1761484472e+01     0.188538    0.1514299 -13.25 0.0002888439    1.132    0.117
       300  -9.2323    199.7023     37.6593   5.1614154104e+01   3.0355496917e+01    0.1464379    0.1111628  27.85 0.0007033664    1.663    0.399
       301 -10.3621    166.5348     36.9439   5.6620367467e+01   3.9076788238e+01    0.2321782    0.1913541  64.52 0.0004455627    1.172    0.146
       302  -9.9185      2.7679     36.4274   1.1037333342e+02   6.7840765541e+01     0.237257    0.1694405 -62.84  0.001016675    1.298    0.229
       303 -10.1383    155.4315     36.0503   5.8380156119e+01   4.2071308933e+01    0.2785383    0.1888679  42.57 0.0007776566    1.506    0.336
       304  -9.6190    127.2994     36.3092   6.4537013510e+01   4.9043486586e+01    0.2201564    0.1471235 -24.90 0.0003009688    1.548    0.354
       305  -9.9261    125.6549     33.2751   6.3806984142e+01   4.9855183522e+01    0.2426286    0.1977469  66.16 0.0007141092    1.323    0.244
       306  -9.5493     57.3311     35.2816   8.6214997074e+01   6.2857189908e+01    0.2370019      0.16916 -42.32 0.0008322023    1.374    0.272
       307 -10.1784     56.0828     31.1245   8.4989065790e+01   6.3733790215e+01    0.3035163    0.1602199 -29.15   0.00096716    1.813    0.448
       308  -9.7264    110.5261     34.5085   6.8152327554e+01   5.3166057250e+01     0.243559     0.121645 -41.76 5.811852e-05    2.181    0.541
       309 -11.8914    237.9857    246.4909   9.2163042038e+01  -9.5092830764e+00    0.4194305    0.1835632  35.69  0.002173749    1.822    0.451
       310 -12.2425    226.3806    246.1304   9.4055203546e+01  -7.7890783882e+00    0.5493814    0.3379952   6.93  0.003373029    1.781    0.439
       311 -11.0140      7.1978     30.0831   1.0639026108e+02   6.8832186686e+01    0.4601917    0.2342241 -59.33  0.002330273    1.740    0.425
       312 -10.6647     10.0956     25.3440   1.0336343870e+02   6.9538956884e+01    0.3172724    0.1969824 -31.38 0.0007769787    1.331    0.249
       313 -11.0828     37.4896    242.5293   1.2671475277e+02   2.0721404702e+01     0.234924    0.1231219  51.90  0.001580799    1.446    0.309
       314 -10.4218     88.7221    241.2485   1.1792882816e+02   1.4312575915e+01    0.1911035    0.1251471 -45.11  0.001149034    2.467    0.595
       315 -11.1496     35.4077    239.7989   1.2689796483e+02   2.1436741594e+01    0.2971819    0.1821772 -56.83  0.001976311    2.386    0.581
       316 -10.3167    195.5936    238.4518   9.8266530855e+01  -2.1247404344e+00    0.2493926    0.1744504  22.52  0.001332438    1.330    0.248
       317  -9.5713    150.9921     34.5104   5.8725218276e+01   4.3415488512e+01    0.2229185    0.1388331  58.02 0.0004089488    1.522    0.343
       318  -9.3514     60.4621     33.4988   8.4254383038e+01   6.2702625583e+01     0.129538    0.1117167 -18.49 3.465024e-05    1.062    0.058
       319  -9.8695    194.0216     32.4667   5.0917489555e+01   3.2503170506e+01    0.2053247    0.1038058  44.04 0.0005212779    2.333    0.571
       320 -11.1832    177.3961     30.4369   5.2761536351e+01   3.7091513376e+01    0.4782964    0.2558658 -39.61  0.002068392    1.863    0.463
       321  -9.8571    129.6011     32.2862   6.2509568836e+01   4.9041977342e+01    0.1941042    0.1386848 -11.72  0.000352004    1.552    0.356
       322 -10.9902     48.9025     30.9825   8.7863819378e+01   6.4737630644e+01    0.4214639    0.2265728 -26.61  0.002121801    1.870    0.465
       323 -10.0653     42.9737     31.8842   9.0740479987e+01   6.5323023930e+01    0.1876018    0.1510598 -19.78 0.0005126279    1.043    0.042
       324  -9.8779    139.5044     30.4419   5.9649997878e+01   4.6850067709e+01    0.2306332    0.1435041  -9.73 0.0008267362    1.986    0.496
       325  -9.5171    168.7417     30.0855   5.4043997280e+01   3.9396578552e+01    0.1914581    0.1862522 -28.49 0.0003267966    1.088    0.081
       326 -10.8259    112.4201     24.4973   6.3702676705e+01   5.4080381322e+01    0.4137415    0.2438243  17.39  0.001777918    2.260    0.557
       327 -10.0427    109.3541     28.8796   6.6253533652e+01   5.4204092719e+01    0.2062487    0.1883662  52.38 0.0003637504    1.171    0.146
       328 -10.7097    107.8955     24.2420   6.4780658290e+01   5.5129463786e+01     0.426151    0.1895507 -37.42  0.001283908    2.356    0.576
       329  -9.2360    243.3347    237.6575   8.9885379193e+01  -9.3316311449e+00   0.09829082   0.08924868  50.44 0.0007050555    1.760    0.432
       330 -11.7461     29.7578    233.4024   1.2746483339e+02   2.3208299473e+01    0.4062317    0.2136357  85.79   0.00267254    1.625    0.385
       331  -9.8196     24.0306    232.4366   1.2835351798e+02   2.4007042158e+01    0.1850066    0.1355228  61.19 0.0007517262    1.190    0.159
       332 -10.1009    159.9072    235.8827   1.0438777652e+02   4.0602734566e+00    0.1879677    0.1464854  27.70 0.0006824655    1.276    0.216
       333 -10.7304    156.5085    241.0894   1.0568698640e+02   3.8501743736e+00    0.1520774     0.121602 -50.33  0.001028457    1.577    0.366
       334 -11.1028    214.6847     27.1473   4.6823925543e+01   2.7910466571e+01    0.2969297    0.2503895 -54.95  0.000495936    1.108    0.098
       335  -9.4286    233.6470     27.7053   4.4928855904e+01   2.3213474997e+01    0.1326689    0.1018861  37.36 0.0007032331    1.685    0.407
       336  -9.8667    130.6198     26.6868   6.0205151768e+01   4.9516131365e+01    0.2784798    0.1914103  52.91 0.0009142775    1.362    0.266
       337 -10.3549    126.6774     23.1565   5.9760676921e+01   5.0900984465e+01    0.4405822    0.2560155  73.28 0.0009926395    2.173    0.540
       338 -10.5890    134.8407     22.9042   5.7899845898e+01   4.8936472663e+01    0.3663312    0.2109634  38.56  0.001182098    1.804    0.446
       339 -12.3539     74.5013    238.5559   1.2019717483e+02   1.6756880381e+01    0.5943546     0.444466 -73.14  0.004279525    1.493    0.330
       340 -11.4143    237.4277     25.4373   4.3998989700e+01   2.2601808941e+01    0.2567021    0.2207562 -66.75 0.0002273762    1.016    0.016
       341 -11.7443     70.5518     25.6534   7.7082639025e+01   6.2320978960e+01    0.3094757    0.2536242  25.66  0.001903248    1.200    0.167
       342 -10.4131    197.2126     24.9068   4.8321854009e+01   3.2621916522e+01    0.2108446     0.175487 -66.39 0.0003047985    1.167    0.143
       343 -10.2164    177.5512    234.8310   1.0100380244e+02   1.3006864930e+00    0.2290026    0.1646672  21.01   0.00089464    1.450    0.310
       344  -9.3395      1.4522     24.4236   1.0730490392e+02   7.0218787861e+01    0.2594574   0.07926929 -55.82  0.001252983    2.375    0.579
       345  -9.9989     96.8577     24.0949   6.7797854975e+01   5.7530381758e+01    0.2409012    0.1708596  29.92 0.0005567917    1.373    0.271
       346  -9.8315     54.3106     23.8507   8.2540052014e+01   6.5147061597e+01    0.1948903    0.1634764  26.78 0.0007276573    1.307    0.235
       347 -11.3232    120.2877     21.3177   6.0519665059e+01   5.2642176659e+01    0.2788328    0.2262645   8.77 0.0002919991    1.273    0.214
       348  -9.0591     35.2018     22.8590   9.0377584954e+01   6.7752543178e+01    0.2890435    0.1297463  18.68  0.001325402    3.000    0.667
       349  -9.5076     28.7814     21.6123   9.2824903091e+01   6.8642121541e+01    0.3046522    0.1293301 -28.11  0.001387664    2.627    0.619
       350 -10.0662    191.1771     21.1681   4.8023912997e+01   3.4623036713e+01    0.2007702    0.1543924 -67.03 0.0004010326    1.317    0.241
       351  -9.3469    185.4795     21.4823   4.8870972954e+01   3.6065540116e+01    0.1427817    0.1314996 -88.19 0.0001296191    1.016    0.016
       352  -9.9877     65.7928     20.8680   7.6689500544e+01   6.3805167297e+01    0.2752062    0.1698535  53.28  0.001369059    2.185    0.542
       353 -10.4626     45.1626     20.5299   8.4884584140e+01   6.6916921143e+01     0.289614    0.1882244  41.33   0.00145518    1.903    0.475
       354 -11.1817    153.5517    233.7975   1.0528748468e+02   5.4229956687e+00    0.2264068    0.1970642 -12.18 0.0009131937    1.480    0.324
       355 -10.7226     10.1505     15.5750   9.9535480952e+01   7.1272771532e+01    0.2070024    0.1386842 -24.59 0.0005824971    1.232    0.188
       356  -9.7587    161.9930     19.9825   5.1883617440e+01   4.2357261574e+01    0.2099008    0.1966781  65.61  0.001210676    1.008    0.008
       357 -10.0519    108.2954     17.3448   6.1858382458e+01   5.5863995967e+01    0.2447189      0.18058 -16.30  0.001325917    1.380    0.275
       358 -10.1564    215.9317     16.8246   4.3965784538e+01   2.8830091112e+01    0.5214509   0.09222859  60.80  0.001593084    4.251    0.765
       359  -9.3360    115.5136    244.5187   1.1348645600e+02   9.8120902076e+00    0.1179102   0.09184782  53.33 0.0002952273    1.029    0.028
       360 -10.2712     35.0317     15.3998   8.7057565197e+01   6.8958091009e+01    0.2753434    0.1651376  -4.90 0.0007278589    1.878    0.468
       361 -10.7756    249.1582     15.1329   4.0528358908e+01   2.1135230422e+01    0.1805018    0.1722461 -76.16 0.0004550208    1.202    0.168
       362 -10.1685    167.0625    233.7299   1.0277676778e+02   3.1943381676e+00    0.1754876    0.1364658  38.76 0.0007042105    1.046    0.044
       363 -10.2735     85.9931    232.9568   1.1766931066e+02   1.6134772731e+01     0.187236    0.1392493  62.44 0.0006353057    1.042    0.040
       364 -10.0944    109.6736    243.2144   1.1439636968e+02   1.0907830698e+01    0.2512164    0.1481944  64.84  0.001010657    1.691    0.409
       365  -9.5998    142.3265    232.2827   1.0718274649e+02   7.5095554379e+00    0.1163811   0.08902583  20.77  0.000248304    1.601    0.375
       366  -9.8976     79.9063    231.5097   1.1863901888e+02   1.7252784150e+01     0.171413   0.09329019  46.32 0.0004678344    1.514    0.340
       367  -9.6510     13.0050    231.3244   1.3008422262e+02   2.5355722702e+01    0.1454073   0.09986288  67.22  0.001091943    1.075    0.069
       368  -9.5748     90.2546     12.9883   6.4922846017e+01   6.0238389323e+01    0.1768047    0.1517185   8.04 0.0002966643    1.051    0.049
       369 -10.7441      4.7801    226.1755   1.3117195367e+02   2.7093877608e+01    0.4245332    0.1380679  70.43  0.002175676    2.789    0.641
       370  -9.9896    248.7893    228.0184   8.7394888463e+01  -9.0596059555e+00    0.2201537    0.1352024  -3.04  0.001335002    1.659    0.397
       371 -10.0983    190.4620    227.1504   9.7502701725e+01   2.3453995588e-01     0.309443    0.1491405 -42.17  0.001571121    2.491    0.599
       372  -9.8686    129.9002    226.6550   1.0882021781e+02   1.0469263644e+01    0.2715793    0.1268193  53.10   0.00130743    2.008    0.502
       373 -10.9613    120.2034    226.6775   1.1066294125e+02   1.2035243746e+01    0.1985124    0.1273414  57.12 0.0007032783    1.381    0.276
       374 -10.3537     66.5397    226.2979   1.2060805745e+02   2.0024623987e+01    0.2774674    0.1442742  47.37  0.001009836    1.581    0.368
       375 -10.1066     88.0062    227.0266   1.1674278811e+02   1.6903527395e+01    0.1890247    0.1466386  64.60  0.001258169    1.018    0.017
       376 -10.1999     25.7213    225.4957   1.2769524437e+02   2.5090477660e+01    0.1975868    0.1474056 -61.48  0.001461602    1.833    0.454
       377  -9.2777     37.7112    224.6990   1.2559853512e+02   2.3901060615e+01   0.09106933   0.08082757 -72.69 0.0003163766    1.561    0.360
       378 -10.3740    123.4762    222.4014   1.0952397566e+02   1.2247535136e+01    0.2389842    0.1677274 -70.38  0.000721214    1.663    0.399
       379  -8.8624    120.6701    220.2520   1.0980131215e+02   1.3082266366e+01    0.1274031   0.08114617  62.30 0.0004937144    1.553    0.356
       380  -9.8506    179.3100    243.6384   1.0191006071e+02  -1.9210058533e-01    0.1140813   0.08566767  64.80 0.0007040746    1.745    0.427
       381 -10.5250     13.4628    222.0370   1.2956337496e+02   2.7005426811e+01    0.1709423    0.1401737 -85.63 0.0009135253    1.405    0.288
       382 -10.2645    141.2929    221.3354   1.0595249231e+02   9.4718241143e+00    0.2497726    0.1912776  17.89  0.001471921    1.676    0.403
       383 -10.4566     21.9900    220.4992   1.2804769400e+02   2.6418481919e+01    0.1622545    0.1102703  81.03 0.0004084056    1.114    0.103
       384  -9.2581     63.4505    243.5414   1.2247880682e+02   1.7363445336e+01    0.1093884   0.08299451  64.80 0.0001131674    1.073    0.068
       385  -9.3580    250.4963    219.4465   8.5647440276e+01  -8.3349236182e+00    0.1204273   0.09143899  11.73 9.583672e-05    1.029    0.028
       386 -10.9936    235.6675    215.0069   8.7394298328e+01  -5.5382652852e+00    0.4597939    0.2082152 -21.38  0.002118754    2.792    0.642
       387 -11.4108    241.0721    211.9816   8.5930230270e+01  -6.0073537122e+00    0.4105271    0.2783681  10.58  0.002504863    1.377    0.274
       388 -10.8210      9.5226    216.9022   1.2996792599e+02   2.8353274521e+01    0.2821547     0.144129  61.18  0.001140805    1.479    0.324
