#   1 NUMBER                 Running object number                                     
#   2 MAG_AUTO               Kron-like elliptical aperture magnitude                    [mag]
#   3 X_IMAGE                Object position along x                                    [pixel]
#   4 Y_IMAGE                Object position along y                                    [pixel]
#   5 X_WORLD                Barycenter position along world x axis                     [deg]
#   6 Y_WORLD                Barycenter position along world y axis                     [deg]
#   7 A_WORLD                Profile RMS along major axis (world units)                 [deg]
#   8 B_WORLD                Profile RMS along minor axis (world units)                 [deg]
#   9 THETA_WORLD            Position angle (CCW/world-x)                               [deg]
#  10 FWHM_WORLD             FWHM assuming a gaussian core                              [deg]
#  11 ELONGATION             A_IMAGE/B_IMAGE                                           
#  12 ELLIPTICITY            1 - B_IMAGE/A_IMAGE                                       
         1  -9.8342     65.0428     21.7325   9.3676591895e+01   6.2807912755e+01    0.3099574     0.225676  55.95  0.001823313    2.025    0.506
         2  -9.3629     12.7195     21.4987   1.1563774329e+02   6.8995049212e+01    0.1994347    0.1279445   3.90  0.001265859    1.448    0.309
         3  -8.9726     71.8122      6.6056   8.5135311553e+01   6.3280769512e+01    0.1613396    0.1047949  53.42 0.0009408657    1.714    0.417
         4  -9.3214     35.2140      5.9754   9.8753047844e+01   6.8833521735e+01    0.1565661    0.1257838  67.96 0.0008865068    3.641    0.725
         5 -10.2775    237.6711    240.2351   1.0600549792e+02  -1.1703722631e+01    0.3106213    0.1852917  34.03  0.001735364    1.483    0.326
         6 -11.4467    166.7383    248.2923   1.2112172436e+02  -1.1950750787e+00    0.4188846       0.2711  34.01  0.001283621    1.353    0.261
         7 -11.2896    168.1205    242.5026   1.1998645137e+02  -4.9017025671e-01     0.355263    0.2842033   6.88  0.002098574    1.480    0.325
         8  -8.6509    106.6980    235.6859   1.3157217594e+02   1.1415544921e+01    0.1163972     0.104081   4.05 0.0007020335    1.614    0.380
         9  -9.7190    170.2563    232.8098   1.1805103579e+02   7.6705568518e-01    0.1879382    0.1486861  17.44  0.001063657    1.358    0.264
        10  -9.5844    236.3187    229.6145   1.0438938754e+02  -1.0025295886e+01     0.171761    0.1567847  61.59 0.0008813058    1.668    0.401
        11  -9.5793    114.5863    228.7798   1.2908236420e+02   1.1446572343e+01    0.2311325    0.1268455 -55.00  0.001073375    2.058    0.514
        12 -11.1126    164.3164    226.2067   1.1823120814e+02   3.0141236511e+00     0.526212    0.3445179  39.92  0.002727819    1.325    0.246
        13 -10.4987     98.2410    227.0039   1.3225345166e+02   1.4530989584e+01    0.3123222    0.1751117  42.49  0.001580769    1.601    0.376
        14  -9.2218     88.3243    227.2984   1.3432439548e+02   1.6051454665e+01    0.1140669    0.1049394  -4.99 0.0002710189    1.628    0.386
        15 -10.4611    160.8116    227.5952   1.1918947849e+02   3.4062185703e+00    0.3421895    0.2137465  46.57  0.001379496    1.420    0.296
        16  -9.2649    104.4610    225.4762   1.3077133681e+02   1.3818958089e+01    0.1360216    0.1128124  63.53 4.223364e-05    1.019    0.019
        17  -8.9239    157.6592    221.9636   1.1895518590e+02   5.0250711773e+00    0.1838272    0.1777401  41.92 0.0006474644    1.107    0.097
        18 -10.9898    125.7026    220.9735   1.2565496814e+02   1.1064918158e+01    0.4044461    0.2656225  40.19 0.0008323676    1.399    0.285
        19 -10.0747    109.3006    222.1720   1.2932418651e+02   1.3679949380e+01    0.2347519    0.1784028  35.62  0.001310207    1.394    0.283
        20  -8.7267    148.5435    220.4844   1.2066922468e+02   6.9980862340e+00    0.1408716    0.1236478  46.50 0.0001211763    1.008    0.008
        21 -10.6992     99.9794    218.5129   1.3082784559e+02   1.6001639231e+01    0.4891408     0.256604  71.86  0.001992429    2.769    0.639
        22  -8.7516     75.0289    220.0000   1.3622947757e+02   1.9593772606e+01    0.2068122   0.06629053  38.74 0.0008012849    2.934    0.659
        23  -9.1886    143.5066    216.4831   1.2112389437e+02   8.7146914913e+00    0.2683922    0.1418538 -52.49  0.001200917    2.130    0.530
        24  -9.8921    131.2449    215.0799   1.2357893357e+02   1.1258402967e+01     0.333087    0.2210468 -51.28  0.001359752    1.693    0.409
        25  -9.9620    112.3663    214.6671   1.2764044987e+02   1.4711283731e+01    0.3408512    0.2266981 -35.53  0.001625566    2.261    0.558
        26  -9.0305     76.3721    213.6845   1.3524192505e+02   2.0745129827e+01    0.1452191   0.08367293  67.50 0.0001371361    1.788    0.441
        27  -8.5947     79.6281    211.2783   1.3427018441e+02   2.0778128669e+01    0.1432286   0.08517125  65.76 0.0002659878    1.692    0.409
        28  -9.3039    202.8156    209.1908   1.0721290321e+02  -1.0974191863e+00    0.1990279    0.1553757   8.05  0.001074675    1.346    0.257
        29  -9.2768    123.9759    206.0004   1.2378699534e+02   1.4479880433e+01    0.2048697    0.1774337  60.17 -0.005334738    1.037    0.036
        30  -8.5760     99.3276    206.6448   1.2938588907e+02   1.8654453761e+01    0.1504761    0.0954726  71.85 0.0007045768    1.775    0.437
        31  -9.0973     88.9327    199.7726   1.3076331877e+02   2.1877124328e+01    0.2610249    0.1596225  81.21 0.0009821767    1.982    0.495
        32  -8.4537    165.3364    198.3098   1.1318532581e+02   8.1506396150e+00    0.1490109    0.1143793   6.56 0.0002683542    1.681    0.405
        33  -9.7668    126.4491    197.3439   1.2183287922e+02   1.5891837381e+01    0.3121841    0.2605326  -2.09  0.001534667    1.658    0.397
        34 -10.5710    173.2595    194.6423   1.1074191955e+02   7.3097778628e+00    0.5070503    0.3042709 -37.37  0.002255851    1.882    0.469
        35  -9.1799     44.2544    194.2194   1.3993295219e+02   2.9395925879e+01     0.217876    0.1118617  68.56   0.00104723    2.096    0.523
        36  -8.7792    124.6888    192.3305   1.2140047968e+02   1.7324924722e+01    0.1533742    0.1088657  74.54 0.0005465109    1.671    0.401
        37  -8.6732    139.4803    190.0048   1.1754571614e+02   1.5002844395e+01    0.2050145    0.1309892 -82.53 0.0008089028    2.468    0.595
        38  -8.9337     87.5223    189.5189   1.2964826850e+02   2.4438350513e+01    0.1435931    0.1211448  76.02 0.0008089187    1.072    0.068
        39  -8.7755    156.4098    188.2036   1.1330057851e+02   1.2020790093e+01    0.2019858    0.1455997 -63.48 0.0007594284    1.628    0.386
        40  -9.5806     94.7052    187.0187   1.2759225843e+02   2.3849219654e+01    0.3945618    0.2068625 -86.26    0.0014166    3.229    0.690
        41  -9.3896     55.2203    187.0016   1.3672883916e+02   2.9678144871e+01    0.3902949    0.1714205  69.44  0.001414033    3.628    0.724
        42  -8.9795     34.9849    188.2304   1.4131129635e+02   3.1815762206e+01    0.2356758    0.0983798  73.86 0.0008877699    3.577    0.720
        43  -8.8373    121.0000    187.0950   1.2137336652e+02   1.9187909939e+01    0.2354236   0.08387496 -54.95 0.0008008432    2.931    0.659
        44  -9.0972    109.6447    186.2955   1.2393473720e+02   2.1443074643e+01    0.2413089    0.1616691  74.00  0.001097107    1.795    0.443
        45 -10.1747    210.8288    183.4701   1.0051525058e+02   1.9992992311e+00    0.4777503    0.3134473   0.70  0.002056083    2.235    0.553
        46  -8.6615     66.6386    185.3289   1.3391814766e+02   2.8533883312e+01    0.1480336   0.08962237  70.23 0.0004199101    1.797    0.443
        47  -8.8807     74.7862    184.5758   1.3192327640e+02   2.7540514942e+01    0.1990068    0.1124932  51.70 0.0009438375    1.724    0.420
        48  -8.9363     66.8638    195.2455   1.3511589329e+02   2.6219016020e+01    0.2452541    0.1168563  69.29 0.0009591457    2.920    0.658
        49  -8.7104    197.4174    181.7836   1.0294784513e+02   4.9755494587e+00    0.2053378    0.1382964 -28.65  0.000660027    1.643    0.391
        50  -8.6226    148.3142    181.6494   1.1391923857e+02   1.5069824976e+01    0.1580218    0.1180414  79.82 0.0007046513    1.727    0.421
        51  -9.7438    204.7729    176.1763   1.0024054690e+02   4.5707427569e+00    0.3320131    0.1941352 -33.34   0.00115102    1.821    0.451
        52 -10.1022     77.3321    176.2080   1.3011742335e+02   2.9132380870e+01    0.4625384    0.2048449  54.69  0.001812484    2.608    0.617
        53  -9.0246     59.8324    177.2117   1.3444441052e+02   3.1358970946e+01    0.2407451    0.1181419  69.05 0.0009485706    2.869    0.651
        54  -9.8638    106.0238    176.0044   1.2307047606e+02   2.4478930164e+01    0.2456166    0.1691778  72.47  0.001129494    1.698    0.411
        55  -9.1451     13.3158    176.6448   1.4485826426e+02   3.6576774525e+01    0.1281426   0.07111156  72.36 0.0007045456    1.743    0.426
        56  -9.3686      2.9839    173.4777   1.4677162130e+02   3.8142547604e+01    0.2832366   0.09176216  79.46 0.0008105608    6.918    0.855
        57  -8.7673    207.0253    170.5201   9.8576000775e+01   5.2001713847e+00    0.2240213     0.143174  44.17  0.001020246    1.559    0.359
        58  -9.0529    122.1670    170.2229   1.1803043100e+02   2.2848561412e+01    0.2190917    0.1733636  74.14 0.0006343838    1.381    0.276
        59  -9.1684     55.4761    170.1463   1.3454573206e+02   3.3591538270e+01    0.2638953     0.140576  66.85  0.001082189    2.316    0.568
        60  -9.8369     99.4906    166.7259   1.2306847855e+02   2.7823893018e+01    0.4297423    0.1898619  57.19  0.001438969    3.203    0.688
        61  -9.0971    139.6095    165.4736   1.1278255368e+02   2.0473572612e+01    0.3225761    0.2090776  71.08  0.001273987    2.192    0.544
        62  -9.9224     79.7383    163.8689   1.2759075867e+02   3.1721204847e+01    0.5179303    0.2653896  82.80  0.001606448    4.418    0.774
        63  -8.7548    160.2103    165.3775   1.0780744729e+02   1.6165672653e+01    0.2269291    0.1412898  52.96 0.0008681707    1.667    0.400
        64  -9.3252     38.0046    164.9567   1.3807444110e+02   3.6857986888e+01    0.2108235    0.1312228  73.35 0.0007204741    1.694    0.410
        65  -8.8933     47.8086    164.6134   1.3566842366e+02   3.5838350543e+01    0.1790241    0.1093812  49.69 0.0008423882    1.682    0.405
        66  -8.9247     70.3239    163.6698   1.2994317456e+02   3.3151437625e+01    0.1474964   0.09842592  74.29 0.0007050082    1.700    0.412
        67  -9.7296      9.7310    161.5560   1.4426963543e+02   4.0276454107e+01    0.3117493    0.1348125  78.41  0.001376709    2.904    0.656
        68  -9.4984     93.6344    161.1322   1.2356127040e+02   3.0162444135e+01    0.2954758    0.1786049  60.82  0.001020149    1.940    0.485
        69  -8.5755     62.2952    160.6786   1.3151403714e+02   3.4970974524e+01    0.1410792   0.09609866  76.23 0.0004283355    1.615    0.381
        70  -9.5092    106.3175    158.5452   1.1980094344e+02   2.8576433900e+01     0.350525    0.2239007  69.57  0.001390781    2.070    0.517
        71  -8.6882     23.2949    159.6671   1.4095050859e+02   3.9551200546e+01    0.1279841   0.07942945  75.19 0.0004831848    1.640    0.390
        72  -9.5597    213.3622    155.7600   9.4075870884e+01   6.7425433197e+00    0.2812934    0.2030419  46.12  0.000790039    1.419    0.295
        73  -9.1586    119.9636    156.0045   1.1576961930e+02   2.6620711869e+01     0.260139    0.1860952  78.57  0.001132372    1.806    0.446
        74  -9.8567     82.8687    155.6730   1.2538461168e+02   3.3220344344e+01    0.3946743    0.2109703  61.83  0.001552379    2.547    0.607
        75 -10.1516     50.0106    155.5842   1.3387980345e+02   3.7730075654e+01    0.3830456    0.1918778  59.06  0.001675225    2.484    0.597
        76  -9.8541     68.5456    154.2541   1.2889325976e+02   3.5672798549e+01    0.3573083    0.2300073  65.98  0.001716593    1.816    0.449
        77  -9.3710    133.6627    153.4550   1.1173139266e+02   2.4473930566e+01    0.4204918     0.242369  70.03  0.001401103    3.101    0.678
        78  -8.9989     91.6592    152.3334   1.2245420794e+02   3.2616745903e+01    0.1566671    0.1097413  75.90 0.0007051278    1.752    0.429
        79  -9.5874     29.3350    150.6891   1.3842914847e+02   4.1082628772e+01    0.4048331    0.1764719  76.98  0.001391153    4.490    0.777
        80  -9.1216     98.8007    151.5636   1.2041103353e+02   3.1589669779e+01    0.2144269    0.1341071  51.56 0.0005800369    1.676    0.403
        81 -10.0259     39.8304    147.9949   1.3540873112e+02   4.0673005939e+01     0.435396    0.2207447  66.39  0.001875045    2.772    0.639
        82 -10.4414    108.2889    146.0367   1.1675861795e+02   3.1215180124e+01    0.7558858    0.3725979  62.79  0.002319993    3.828    0.739
        83 -10.6855     56.6531    146.2984   1.3073516838e+02   3.9156375267e+01    0.5775051    0.3040913  66.44  0.002347303    2.846    0.649
        84  -9.9080    149.6503    145.8256   1.0602332524e+02   2.2825439921e+01    0.5446759    0.3430004  79.72  0.001859335    3.012    0.668
        85  -9.1138     78.7836    147.5983   1.2501614985e+02   3.5803305206e+01    0.2040696    0.1252749  50.01 0.0009419831    1.735    0.423
        86  -9.2634     13.3023    146.2448   1.4186129639e+02   4.3488531931e+01    0.2269734    0.1226202  58.68  0.001221645    2.099    0.524
        87  -9.8244    125.9598    143.9755   1.1163150485e+02   2.8269154977e+01    0.4509048     0.281599  81.24  0.001558142    3.020    0.669
        88 -10.0673     89.0157    144.6017   1.2167293194e+02   3.4922886367e+01    0.4283569    0.2254265  58.73  0.001432442    2.590    0.614
        89  -9.4741      2.9177    142.7160   1.4400397244e+02   4.5037776255e+01    0.2344212    0.1205651  78.21  0.001019767    2.160    0.537
        90  -9.5768     69.4980    140.5207   1.2625132114e+02   3.8862679396e+01    0.3269263     0.186255  88.11  0.001255911    2.905    0.656
        91 -10.2978     23.5563    138.2808   1.3830804488e+02   4.4500645291e+01    0.5430772    0.2443018  74.64   0.00199693    4.194    0.762
        92 -10.2445     39.2263    136.3006   1.3385172190e+02   4.3509048875e+01    0.3318251    0.2020529  87.65  0.001152321    1.947    0.486
        93  -9.3124    113.4147    133.9151   1.1270683510e+02   3.3129186820e+01    0.3449419    0.1838761  57.89  0.001251681    2.505    0.601
        94 -10.2124    132.9333    132.2324   1.0708057535e+02   2.9549366635e+01    0.4695347    0.3204029  76.19  0.001516898    2.165    0.538
        95 -10.5425     84.1795    132.4330   1.2054732137e+02   3.8632107448e+01    0.4995897    0.2874938  54.97  0.001478065    2.123    0.529
        96  -9.4136    144.0390    132.2207   1.0421309662e+02   2.7140841773e+01     0.310318    0.2231371  65.87   0.00133224    1.654    0.395
        97 -10.3389     73.6229    130.0394   1.2306959895e+02   4.0800008016e+01    0.3569531    0.2445718  75.98  0.001108577    1.972    0.493
        98 -10.4060     13.0159    129.4158   1.3992790597e+02   4.7367853003e+01    0.4452412    0.2232712  76.91  0.002066524    2.785    0.641
        99  -8.6215    169.3568    130.6629   9.7675871628e+01   2.1723856837e+01    0.1693712    0.1275669 -88.90 0.0007040944    1.807    0.447
       100  -8.9654    153.4664    129.9654   1.0130443640e+02   2.5530826750e+01    0.2297169    0.1400423 -68.63 0.0008093735    2.522    0.603
       101 -10.4010     99.8908    128.7862   1.1529268084e+02   3.6857908617e+01    0.5806729     0.372995  76.94  0.002011677    2.603    0.616
       102  -8.9359      2.1536    130.3650   1.4286898832e+02   4.7870902137e+01    0.1456471   0.09829823  44.90 0.0009385814    1.738    0.425
       103  -9.9731    118.7665    126.1714   1.0941494203e+02   3.3883417824e+01    0.5838192    0.3047571  63.31  0.001847452    3.461    0.711
       104 -10.9910     60.3257    124.9037   1.2590114938e+02   4.3821189012e+01    0.6632973    0.3911837  76.74  0.002689037    2.949    0.661
       105 -10.9758     44.5519    123.1746   1.3018003239e+02   4.6055938308e+01    0.8579118    0.4636051  82.95  0.003331997    3.456    0.711
       106  -8.9956    180.3792    125.5881   9.3931083633e+01   2.0222550060e+01    0.3160382    0.1455791  62.05 0.0009526202    3.334    0.700
       107 -10.9009     28.4100    122.3363   1.3468688916e+02   4.7793274413e+01     0.739925    0.3538194  76.06  0.002562382    4.834    0.793
       108  -9.0444    158.8280    122.2112   9.8061459417e+01   2.5993148170e+01    0.2785811    0.1813747 -87.87 0.0009545925    2.889    0.654
       109 -10.1366    142.5137    120.0148   1.0156115105e+02   3.0207960795e+01    0.4701523    0.3441721 -83.95  0.001753616    1.936    0.483
       110 -10.0953     71.7955    120.5075   1.2161392771e+02   4.3324014032e+01    0.4010297    0.2675632  63.40  0.001711687    1.995    0.499
       111  -9.8225    132.1174    119.7691   1.0421400921e+02   3.2554275922e+01    0.4900717    0.2781278  66.35   0.00165678    2.933    0.659
       112 -10.4474      3.5299    117.7537   1.4099078299e+02   5.0617904190e+01    0.4247343    0.2147053  72.55  0.002050784    2.820    0.645
       113 -10.3260    110.0273    114.9761   1.0908371332e+02   3.8176738793e+01    0.5089346    0.3355792 -77.95  0.001753877    2.410    0.585
       114 -10.5631     94.1117    113.4091   1.1332249945e+02   4.1459153412e+01    0.6417531    0.3595507  54.16  0.002137785    2.271    0.560
       115 -10.6432     79.9482    113.5210   1.1759466856e+02   4.3750232552e+01    0.5925761     0.390951  77.85  0.002147077    2.572    0.611
       116  -9.8380    122.9597    113.2335   1.0500914836e+02   3.5960874644e+01    0.4493422    0.2426748  58.66  0.001626818    2.488    0.598
       117 -10.8858     14.4571    110.3255   1.3684647235e+02   5.1599239059e+01    0.4564917    0.2757428 -87.55  0.001813196    1.848    0.459
       118 -10.8491     67.0004    111.0076   1.2097244125e+02   4.6200694446e+01    0.4502283    0.3029443  72.09  0.001748437    2.276    0.561
       119  -9.4322    133.9753    110.0566   1.0119394733e+02   3.4288560270e+01    0.2586958    0.1979119  89.20  0.001128689    1.783    0.439
       120  -9.6652     59.7735    109.8074   1.2294116046e+02   4.7417425762e+01    0.1830412    0.1585335  80.57 0.0006351763    1.349    0.259
       121 -11.3384     46.3765    103.1658   1.2571513921e+02   5.0477289627e+01    0.8171697    0.4579848  67.53  0.003192458    3.788    0.736
       122 -11.3748     23.4254    102.9405   1.3290779605e+02   5.2611549226e+01    0.7450525    0.4012617  71.13   0.00318339    3.581    0.721
       123  -9.6278    150.7182    104.0856   9.5302264090e+01   3.1727938901e+01    0.3679498    0.2156664 -60.41  0.001372044    2.287    0.563
       124 -10.0883    129.5901    102.8143   1.0041484117e+02   3.6803689682e+01    0.5215791    0.3097044  65.98  0.001915366    2.549    0.608
       125 -10.0500      7.2124    103.4554   1.3793889805e+02   5.3579385763e+01    0.3119553    0.1904314  68.07  0.001755134    2.235    0.553
       126 -10.9180    111.0663    100.3918   1.0493629385e+02   4.1194393488e+01    0.9113702    0.4764047  62.12  0.002972304    3.539    0.717
       127  -9.9754     82.8253    100.6377   1.1353019928e+02   4.6212401799e+01      0.40526     0.294403  68.92  0.001857487    1.990    0.497
       128 -11.0584     65.0603     97.1852   1.1831261625e+02   4.9577310120e+01    0.6393707    0.4136517  64.49  0.002697414    2.544    0.607
       129 -10.0505     96.7366     97.9040   1.0851016760e+02   4.4445389972e+01    0.6279905    0.2514632  47.71  0.002199529    2.930    0.659
       130  -9.4868    140.8101    105.5202   9.8189279227e+01   3.3723871812e+01    0.4481003    0.2625645  71.06  0.001506022    3.023    0.669
       131  -9.6606    139.9397     93.1062   9.4984062466e+01   3.6469491032e+01    0.3790108    0.2122696  69.91    0.0012424    3.208    0.688
       132 -10.3194    126.0614     91.9838   9.8343850122e+01   3.9814470538e+01    0.6238005    0.3213481  58.63  0.002253993    2.558    0.609
       133 -10.5717      7.5792     92.9619   1.3614027242e+02   5.5846046849e+01    0.4977038    0.1511474  30.59  0.002264985    3.727    0.732
       134 -10.8654     35.0546     90.0107   1.2655424484e+02   5.4494392087e+01    0.5097627    0.2946785 -78.81   0.00223666    2.518    0.603
       135 -10.8016     88.1868     88.0048   1.0840678075e+02   4.8033778855e+01    0.6055571    0.3698185  61.26  0.002477473    2.690    0.628
       136 -10.8085     49.9885     85.7365   1.2046367320e+02   5.3901829006e+01    0.6359169    0.3607895  57.75   0.00269169    3.339    0.700
       137  -9.3874     20.6474     88.3058   1.3102331175e+02   5.6021399194e+01    0.1767657    0.1352816  76.16  0.001095597    1.751    0.429
       138 -10.6530    106.7076     84.5348   1.0169931736e+02   4.5332090972e+01    0.7325263    0.4266877  64.69  0.002693086    3.049    0.672
       139  -9.3517    141.4313     83.8497   9.1959161735e+01   3.7916649871e+01    0.3501227    0.1797125  63.95  0.001204847    2.764    0.638
       140 -10.5399     25.4824     81.3671   1.2790204221e+02   5.7136850700e+01    0.4641445    0.3341667  63.43  0.002024626    2.077    0.518
       141 -10.0639     12.9966     83.0000   1.3253984723e+02   5.7654607453e+01    0.2444178    0.1466787  18.35  0.001089689    1.999    0.500
       142 -10.0154      9.1793     81.2146   1.3348656468e+02   5.8253449436e+01    0.3114595    0.1492452  28.39  0.001730777    2.510    0.602
       143 -10.0621     75.2561     81.4888   1.1073912181e+02   5.1451109033e+01    0.3085675    0.2397145 -81.49  0.001129098    1.960    0.490
       144  -8.7145    151.6769     81.3347   8.8738532930e+01   3.5943457926e+01    0.1593395    0.1217402 -80.99 0.0007050664    1.710    0.415
       145  -9.2327    120.2003     81.1032   9.6782412720e+01   4.3217313428e+01    0.2900111    0.2026328  73.84  0.001122907    2.154    0.536
       146  -9.2674      1.9256     81.5116   1.3598524268e+02   5.8569092847e+01    0.1436313    0.1114312   5.56  0.001024839    1.570    0.363
       147  -9.9181     62.1939     77.2836   1.1397121127e+02   5.4157948565e+01    0.3242832    0.2287243 -69.07  0.001552821    1.986    0.497
       148 -10.0012    129.4206     76.7304   9.2959012622e+01   4.2001595387e+01    0.4843571    0.2927714  70.20  0.001835845    2.628    0.620
       149  -9.0740    141.7758     76.3762   8.9690603163e+01   3.9209976827e+01    0.2282008    0.1345016  42.69 0.0009561158    1.678    0.404
       150 -10.5408     83.7850     73.7460   1.0560775845e+02   5.1614963127e+01    0.5466831     0.389683  73.30  0.002460653    2.615    0.618
       151  -9.6562     43.3079     73.4962   1.1961068555e+02   5.7150076168e+01     0.251562    0.1965219  66.14  0.001262364    1.987    0.497
       152  -8.9755      9.9322     74.4942   1.3187301400e+02   5.9602231243e+01    0.1817966    0.1088142  21.85  0.000644467    2.002    0.500
       153  -9.0640      6.0232     72.0259   1.3274751898e+02   6.0318163747e+01    0.1805452    0.1240432  87.02   0.00109576    2.070    0.517
       154  -9.4806    107.0411     72.7950   9.8035072467e+01   4.7504116086e+01    0.3049381    0.1966506  55.45  0.001093738    1.811    0.448
       155  -9.7302     96.1292     72.3798   1.0122811646e+02   4.9691434781e+01    0.3257628    0.2535254 -75.11  0.001601913    1.959    0.489
       156  -9.9030     24.7703     72.1244   1.2599892032e+02   5.9097123811e+01    0.2280048     0.160956 -33.99 0.0008453573    1.222    0.182
       157 -10.5052     52.5374     70.5475   1.1544886101e+02   5.6707851862e+01    0.5078218    0.3762067  73.42  0.002614959    2.511    0.602
       158 -10.3115     17.6365     70.7933   1.2828532653e+02   5.9878410237e+01    0.2957348    0.1905845  42.91  0.001752784    2.134    0.531
       159  -9.4508    146.8419     68.5917   8.6170009896e+01   3.9354097831e+01    0.2183263    0.1406656  65.39 0.0007718058    1.725    0.420
       160  -8.9525    139.6243     67.3161   8.7517453014e+01   4.1292589647e+01    0.2305696    0.1800066 -82.67  0.001000571    1.699    0.411
       161  -9.4779    122.5911     67.1061   9.1839677401e+01   4.5228468578e+01    0.3713797    0.2065082  68.82  0.001296445    3.265    0.694
       162 -10.2230     38.7081     65.3825   1.1905483991e+02   5.9215397931e+01    0.4105451    0.2469059  45.48  0.002068354    2.386    0.581
       163  -9.3105     10.3029     65.9703   1.2987172585e+02   6.1299554245e+01    0.2084066    0.1252938  49.85  0.001168632    2.677    0.626
       164  -9.7225    111.6932     64.9024   9.4183109876e+01   4.7947077166e+01    0.4684401    0.2332722  57.06  0.001805929    2.554    0.609
       165  -9.3954    101.7166     61.7409   9.6101669332e+01   5.0507817637e+01    0.3609726    0.2516248  83.46   0.00148158    3.040    0.671
       166 -10.5913     75.1784     60.7507   1.0436877503e+02   5.5399876549e+01    0.5918236    0.3043696  50.50  0.002203382    2.745    0.636
       167  -9.9107     26.3576     60.1821   1.2230244547e+02   6.1321519144e+01    0.3999166    0.2061266  43.87  0.001991901    3.036    0.671
       168  -8.6260     90.0163     60.5174   9.9349096096e+01   5.2925296330e+01    0.1811993    0.1223482  64.74 0.0008090168    2.435    0.589
       169 -10.6900      8.4242     58.2794   1.2876247695e+02   6.2907439505e+01    0.3095659    0.2241605  46.38  0.001752067    2.033    0.508
       170 -10.0878     45.3356     56.3779   1.1383772699e+02   6.0206783020e+01    0.4162108    0.2540226  52.94  0.001952225    3.052    0.672
       171  -9.4886    120.7010     57.2187   8.9212428873e+01   4.7271001210e+01    0.3513479    0.2012486  65.76  0.001411597    2.467    0.595
       172 -10.1269     55.1068     55.4232   1.0982686858e+02   5.9207655890e+01    0.4124098    0.3060643 -76.36  0.002115759    2.663    0.624
       173  -9.9375     64.0456     55.6202   1.0659951035e+02   5.7966521924e+01    0.3648708    0.2346278  44.18  0.001706262    1.878    0.468
       174  -9.1988    106.5188     54.0162   9.2121098171e+01   5.0797296911e+01    0.2668543    0.1803009  86.60  0.001030372    3.437    0.709
       175  -9.4450    100.4672     54.0164   9.3913638178e+01   5.2015697752e+01    0.2080294    0.1829777  44.35 0.0003971887    1.195    0.163
       176 -10.1590     93.7219     51.8686   9.5256354781e+01   5.3656016994e+01    0.4461623    0.3328092  73.13  0.002206475    2.207    0.547
       177 -10.2361     33.0127     52.6947   1.1749842975e+02   6.2134396180e+01    0.4475215    0.2567208  42.72  0.002406766    2.532    0.605
       178  -9.5897     21.1990     53.4103   1.2242964615e+02   6.2995298805e+01    0.2356561    0.1851925  30.48  0.001227588    1.607    0.378
       179  -9.7412     82.9937     47.5702   9.7218930881e+01   5.6274211269e+01    0.3479267     0.222004  55.37  0.001710871    2.119    0.528
       180  -9.7850     45.4059     45.4097   1.1018340126e+02   6.2104848039e+01    0.2317168    0.1923024  77.33  0.001219679    2.377    0.579
       181 -10.1449     18.2831     45.4259   1.2127031770e+02   6.4656490390e+01    0.4427362    0.2400457  35.94  0.002554632    2.463    0.594
       182  -9.7433     58.7895     43.5132   1.0434184300e+02   6.0706547744e+01    0.3342015    0.2375485 -68.30   0.00162302    3.114    0.679
       183 -10.2830      5.6912     42.5555   1.2572250411e+02   6.5970284943e+01    0.3633329    0.2475527 -81.19  0.002183848    2.586    0.613
       184  -9.8226     70.6927     42.6335   9.9670569886e+01   5.9074598298e+01    0.4689166    0.2930688  60.83  0.002076561    3.283    0.695
       185  -9.5021    107.2638     42.4559   8.7985362477e+01   5.2344097860e+01    0.3515042    0.1845423  61.55  0.001452183    2.550    0.608
       186  -9.7934     37.9191     41.5196   1.1184498726e+02   6.3578114428e+01    0.2720796    0.1969857  36.68  0.001264945    1.748    0.428
       187  -9.6062     96.9402     39.2605   8.9859696869e+01   5.4879274578e+01    0.3007248     0.188982  65.28   0.00137982    2.418    0.587
       188  -9.2679     82.7507     38.4318   9.4011672937e+01   5.7656843813e+01    0.3882649    0.2670954  73.17  0.001737979    3.211    0.689
       189  -9.8131     26.9148     36.7097   1.1477593088e+02   6.5441461557e+01    0.2031547    0.1679912  -4.81  0.001483169    1.171    0.146
       190  -9.1809    112.6110     35.5038   8.4137722800e+01   5.2125596666e+01    0.2652207    0.1937409 -89.28  0.001287906    2.256    0.557
       191  -8.5803    105.4786     35.9608   8.6227898862e+01   5.3583055328e+01    0.1816258    0.1103536 -53.58 0.0008099231    2.565    0.610
       192  -9.8623     62.3139     33.6262   9.9353940830e+01   6.1675438925e+01    0.3921629    0.2091086  47.87  0.001936049    2.451    0.592
       193  -9.9534     50.8276     33.5274   1.0371661058e+02   6.3297473977e+01    0.2714421    0.1991456  53.08  0.001575167    2.278    0.561
       194  -9.7978     74.7034     32.6297   9.4548247842e+01   5.9842756535e+01    0.4141548    0.2071298  53.65   0.00182606    2.876    0.652
       195  -9.9000     13.1648     30.8737   1.1879868319e+02   6.7494465369e+01    0.2960174    0.1815202 -57.95  0.001476823    2.091    0.522
       196  -9.0948    103.1547     30.3975   8.4905207390e+01   5.4758384066e+01    0.1923077    0.1207798  60.30 0.0009565421    1.804    0.446
       197  -9.0120     43.1378     30.6476   1.0571271042e+02   6.4681876556e+01    0.2190379   0.09779073  38.98  0.001088582    2.595    0.615
       198  -9.6486     82.7060     28.6467   9.0373825419e+01   5.8953060170e+01    0.2799921    0.2162361  89.61  0.001444121    2.664    0.625
       199  -9.5251      3.8985     27.6036   1.2191967477e+02   6.8620361546e+01    0.1896049    0.1336609 -62.08  0.001151612    1.916    0.478
       200  -9.1067     92.0363     27.0417   8.6879356740e+01   5.7391436779e+01    0.1862803    0.1628657 -77.18 0.0008841413    1.732    0.423
       201  -8.6027     43.9819     25.5151   1.0335293557e+02   6.5308491491e+01    0.1607846    0.1019626  24.33 0.0004388161    1.475    0.322
       202  -8.5030    110.2450     24.3805   8.0888797763e+01   5.3950934090e+01    0.1348632   0.09025081  19.89 0.0006827436    1.643    0.391
       203  -8.5521    106.3246     23.6839   8.1655400670e+01   5.4865619728e+01    0.1225501    0.1037274 -81.07 0.0005565792    1.668    0.401
       204  -9.2270    107.8277    248.8197   1.3287659996e+02   8.7490241383e+00    0.1810062    0.1577087  44.86 0.0006895013    1.238    0.193
       205  -9.7923     49.9757     22.2170   9.9589038538e+01   6.4970968765e+01    0.3235536    0.1501707  44.78  0.001586672    2.754    0.637
       206  -8.7496     34.3471     22.7139   1.0630382310e+02   6.6823309392e+01   0.09577058   0.09024701  25.01 0.0003677568    1.653    0.395
       207 -10.5441    245.5487    247.5688   1.0581520933e+02  -1.3815864703e+01     0.408843    0.1812657  36.24  0.002113291    1.993    0.498
       208  -9.7618    189.2118     19.1942   6.4732416714e+01   3.5610403952e+01    0.2282337    0.1189526  38.04 0.0009564142    2.842    0.648
       209  -9.1027     40.0048     18.9866   1.0235063566e+02   6.6671563604e+01    0.1524508    0.1466245  37.53  0.001037438    1.758    0.431
       210  -9.3358     89.9095     18.3060   8.4219497747e+01   5.8778561481e+01    0.3304023    0.1472537  57.22  0.001449717    2.561    0.610
       211  -9.5299     31.4929     17.0373   1.0522715554e+02   6.7907118005e+01    0.1918144     0.148781  30.33  0.001366346    1.606    0.377
       212  -9.6228     98.5963     15.8580   8.0865118282e+01   5.7291637366e+01    0.2784996    0.1915043 -83.16  0.001306648    3.037    0.671
       213  -9.8489     75.7174     20.6087   8.9538894043e+01   6.1153415162e+01     0.405989    0.2074889  53.71  0.001964934    2.384    0.581
       214  -8.9341     40.6358     13.2636   9.9653969001e+01   6.7311038808e+01    0.1569993   0.08891368 -20.27 0.0006470316    1.615    0.381
       215  -8.7138     48.0093     10.4978   9.5419039422e+01   6.6651755930e+01    0.1357671    0.1003501  56.25 0.0008092682    2.443    0.591
       216  -8.7467     58.5657     22.4635   9.6358949062e+01   6.3716824699e+01    0.1229357   0.09599675   5.59   2.8207e-05    1.037    0.036
       217 -10.9273    173.8649    244.0905   1.1906887348e+02  -1.7558423085e+00    0.2808275    0.2027618 -50.79  0.001135811    1.714    0.417
