#   1 NUMBER                 Running object number                                     
#   2 MAG_AUTO               Kron-like elliptical aperture magnitude                    [mag]
#   3 X_IMAGE                Object position along x                                    [pixel]
#   4 Y_IMAGE                Object position along y                                    [pixel]
#   5 X_WORLD                Barycenter position along world x axis                     [deg]
#   6 Y_WORLD                Barycenter position along world y axis                     [deg]
#   7 A_WORLD                Profile RMS along major axis (world units)                 [deg]
#   8 B_WORLD                Profile RMS along minor axis (world units)                 [deg]
#   9 THETA_WORLD            Position angle (CCW/world-x)                               [deg]
#  10 FWHM_WORLD             FWHM assuming a gaussian core                              [deg]
#  11 ELONGATION             A_IMAGE/B_IMAGE                                           
#  12 ELLIPTICITY            1 - B_IMAGE/A_IMAGE                                       
         1 -13.6252     68.2480    145.4948   1.2860889265e+02   3.7453912581e+01     3.381522     1.535083 -83.56  0.003545668    6.243    0.840
         2 -13.9159      4.4786     13.0451   1.1611537161e+02   7.0304602262e+01     2.530253    0.4857026 -43.59   0.01106329    3.619    0.724
         3 -12.4825     16.6175      3.7356   1.0654981347e+02   7.0547768273e+01    0.4271033    0.2752706  23.42   0.00313326    1.584    0.369
         4 -13.0598    214.6631      1.9252   5.9930271999e+01   3.1457093633e+01     1.600092    0.6729847  68.87  0.006495492    2.017    0.504
         5 -14.0188    190.5128     24.8451   6.8217904337e+01   3.4741413450e+01     1.793575     1.214584 -10.97  0.006654397    2.072    0.517
         6 -14.2043    197.9712     19.2331   6.5828971978e+01   3.3572469384e+01     1.448514      1.27569  86.70  0.006310736    1.029    0.028
         7 -13.0710    203.7025     11.7120   6.3321072779e+01   3.3023153719e+01    0.7824605    0.5133432  53.24  0.001390426    1.586    0.369
         8 -11.3139     13.2904     24.0941   1.1638168397e+02   6.8016639575e+01    0.1849129    0.1458906  12.54 0.0008101102    1.421    0.296
         9 -11.5349    246.8041    249.0192   1.0877605193e+02  -1.3594596687e+01    0.4820418    0.1922004  35.85   0.00242372    2.174    0.540
        10 -12.5044    139.4957    248.2075   1.2838043193e+02   4.0151674711e+00    0.7313334    0.3807194 -62.78  0.003678702    2.504    0.601
        11 -11.8983    142.4113    240.9214   1.2687119791e+02   4.7572761345e+00    0.3853762     0.152267  45.65  0.001280742    2.125    0.529
        12 -15.2082     87.6220    240.6791   1.3712899959e+02   1.3739168610e+01     4.275956     1.997812  40.17   0.02164866    2.079    0.519
        13 -15.2210     34.6948    247.5379   1.4682368793e+02   1.9615176273e+01     6.019094     1.704334  35.97   0.01978059    4.657    0.785
        14 -11.8342     67.4361    221.7802   1.3894848391e+02   2.0397190636e+01     0.327572    0.2244731  76.70 0.0007882281    1.273    0.215
        15 -15.1719     10.7679    152.4095   1.4339312334e+02   4.2005584748e+01     3.095618     1.127614 -79.46 0.0007903336    2.558    0.609
        16 -13.8392     47.1693    227.5033   1.4320017321e+02   2.1936456787e+01    0.8290938    0.4250488 -81.01  0.002264995    1.793    0.442
        17 -15.6767     55.0566    212.5195   1.4037651633e+02   2.3992700788e+01     8.040548     4.093009  78.52   0.03977056    2.194    0.544
        18 -11.2878     83.7169    174.1058   1.2953950095e+02   2.8461737174e+01    0.2622675    0.2160413 -70.28   0.00039249    1.132    0.117
        19 -12.7570     89.7692    166.0272   1.2682359391e+02   2.9395110922e+01     1.892435    0.6475773  52.18  0.001221139    3.795    0.736
        20 -10.4628    162.1866    249.3663   1.2428402621e+02  -2.7217188145e-02    0.1707328    0.1498361  33.46   0.00113208    1.128    0.113
        21 -15.6918      4.7924    236.9193   1.5091150273e+02   2.4887276782e+01     8.688526          nan -68.69   0.02705222    8.039    0.876
        22  -9.9611    138.2475    171.9598   1.1653171172e+02   1.9279618820e+01     0.200379    0.1261889 -53.39 0.0008934186    1.618    0.382
        23 -13.4087     71.4220    171.3175   1.3195138212e+02   3.0928372140e+01    0.4953924    0.2819009 -44.75  0.001929371    2.179    0.541
        24 -11.8103     75.2594    185.7436   1.3312118849e+02   2.7060543537e+01    0.3264543    0.2362934 -52.32 0.0006234942    1.538    0.350
        25  -9.6198    164.4164    157.2513   1.0752666770e+02   1.7102225956e+01    0.2178685     0.145977 -57.15 0.0009506772    1.629    0.386
        26 -14.2709     11.2100    206.8158   1.4798498272e+02   3.0181331397e+01     1.171631    0.7894866  56.82  0.002620462    1.386    0.278
        27 -10.1017    102.0342    149.3236   1.2077272883e+02   3.1281495100e+01      0.29729    0.2579018 -44.13 0.0008435499    1.232    0.188
        28  -9.5785    104.6275    145.6750   1.1938613504e+02   3.1685707481e+01    0.3315687    0.2241264 -28.04  0.001445409    2.122    0.529
        29 -12.2801     90.9041    148.8143   1.2347315111e+02   3.3274012299e+01    0.2828576    0.2530646 -41.20 0.0004765581    1.244    0.196
        30  -9.6876    134.0000    145.9218   1.1213690213e+02   2.6012561489e+01    0.6099471   0.08617867 -49.09   0.00125773    6.991    0.857
        31 -11.7929     56.3518    145.5604   1.3162448677e+02   3.8987999287e+01    0.4010134    0.3153873  21.52  0.002181871    1.647    0.393
        32 -12.0042     45.1399    144.9646   1.3433182278e+02   4.0444792609e+01    0.4125515     0.232539  62.23   0.00202443    2.175    0.540
        33  -9.9065    112.2470    135.3926   1.1524272317e+02   3.2706937530e+01     0.306957    0.2377718 -17.43  0.001061923    1.754    0.430
        34 -10.0129    191.5160    192.0246   1.0891454072e+02   4.5089795849e+00    0.4042551    0.2160881 -60.52  0.001519658    3.097    0.677
        35 -11.1358     69.1215    134.8417   1.2645956492e+02   3.9856166678e+01    0.3247943    0.1976214  36.70 0.0009864467    1.834    0.455
        36 -11.9085     70.5491    192.6018   1.3502991671e+02   2.6197510206e+01     0.409659    0.2536702 -46.11  0.002087726    2.105    0.525
        37 -12.1069     43.9818    127.9983   1.3192568837e+02   4.4531867404e+01    0.4468624    0.2390255 -81.96  0.001624679    2.312    0.568
        38 -10.7103     99.7065    132.4213   1.1785574899e+02   3.5665031912e+01    0.3099999    0.2419423 -26.34  0.001404735    1.579    0.367
        39  -8.7048    117.6777    128.6298   1.1229154238e+02   3.3235713966e+01    0.1579992    0.1204432 -15.39 0.0007034369    1.803    0.445
        40  -9.5491    108.5263    122.9254   1.1334734821e+02   3.6282589303e+01     0.200084     0.196575 -82.85  0.000324006    1.045    0.043
        41 -11.2422    168.1414    113.1724   9.6135844113e+01   2.5666851554e+01    0.3923651    0.3223937 -80.66 0.0008381731    1.425    0.298
        42  -9.5894    204.6001    110.9482   8.8092214174e+01   1.7537580550e+01    0.3443286    0.1860101  35.71  0.001283347    2.507    0.601
        43  -8.7956    184.6340     77.6911   8.3283738800e+01   2.8466525909e+01    0.1564754    0.1178338  24.16 0.0007037741    1.754    0.430
        44  -9.5420    155.4875     76.5459   8.8946028493e+01   3.5767323481e+01    0.1496065    0.1462261  53.85 0.0001621576    1.013    0.013
        45 -11.5954    124.6260     52.3209   8.8807401722e+01   4.6882418260e+01    0.5961991     0.380237  81.68  0.001517035    2.940    0.660
        46 -11.1294    198.3562    247.3347   1.1722826008e+02  -5.8295469854e+00    0.2206571    0.1942732  88.77   0.00144526    1.645    0.392
        47  -8.9481    181.5088    192.4499   1.1105409264e+02   6.3931709220e+00    0.1428195    0.1335218  32.15 5.341503e-05    1.013    0.013
        48  -9.6002    124.8367    174.2879   1.2005571340e+02   2.1347428744e+01    0.2874288    0.1711957 -44.74  0.001266874    1.844    0.458
        49  -9.9504    183.3274    217.3211   1.1520723852e+02   1.5219720348e+00    0.1374559    0.1017927   8.95 0.0007047914    1.687    0.407
        50 -10.5403    227.9139    204.3529   1.0420200682e+02  -4.3743805100e+00    0.2722963    0.2202273 -53.38 0.0007123263    1.597    0.374
        51 -10.8107    194.1575    197.1327   1.0936534077e+02   3.0600963182e+00    0.4945659    0.2419724 -59.44   0.00170702    3.842    0.740
