#   1 NUMBER                 Running object number                                     
#   2 MAG_AUTO               Kron-like elliptical aperture magnitude                    [mag]
#   3 X_IMAGE                Object position along x                                    [pixel]
#   4 Y_IMAGE                Object position along y                                    [pixel]
#   5 X_WORLD                Barycenter position along world x axis                     [deg]
#   6 Y_WORLD                Barycenter position along world y axis                     [deg]
#   7 A_WORLD                Profile RMS along major axis (world units)                 [deg]
#   8 B_WORLD                Profile RMS along minor axis (world units)                 [deg]
#   9 THETA_WORLD            Position angle (CCW/world-x)                               [deg]
#  10 FWHM_WORLD             FWHM assuming a gaussian core                              [deg]
#  11 ELONGATION             A_IMAGE/B_IMAGE                                           
#  12 ELLIPTICITY            1 - B_IMAGE/A_IMAGE                                       
         1 -19.1739    191.0256    128.0698   8.3348838020e+01   1.7654848831e+01     9.047677      7.11238 -88.00   0.04445971    1.537    0.349
         2 -16.6492    218.9937    104.4090   7.3122001900e+01   1.6406843117e+01     3.168236     1.704516 -49.12   0.01459533    1.676    0.403
         3 -17.7323    176.8155    115.9273   8.3347778534e+01   2.3237013223e+01     7.259767     3.546116 -24.15   0.01880566    5.693    0.824
         4 -11.6153     13.3702     14.3794   1.0121730927e+02   6.9481246279e+01    0.2261277    0.1590268 -19.69 0.0007518014    1.195    0.163
         5 -11.1223     50.4846     17.8134   8.7289563176e+01   6.4436357841e+01    0.2662079    0.0980543 -36.32   0.00126188    3.046    0.672
         6 -12.7451    238.9023     15.9333   5.2979157880e+01   2.5686937963e+01    0.2571698    0.2003424 -81.52  0.001869133    1.081    0.075
         7 -11.3000    192.0072     13.3714   5.6778458430e+01   3.5806107365e+01    0.1935657    0.1589445  42.07 0.0006876935    1.619    0.382
         8 -14.0901    238.7264      4.8432   5.1026967224e+01   2.6981912245e+01    0.6863365    0.5148953  57.10  0.004875771    1.793    0.442
         9 -12.7746    244.9205      9.4450   5.1383008024e+01   2.5259999810e+01    0.2937325    0.2104476  88.50  0.001942417    1.175    0.149
        10 -12.6128    248.4458      4.5320   5.0299850136e+01   2.5135640835e+01    0.4972205    0.2545627 -51.78   0.00317097    1.636    0.389
        11 -11.4457    100.9656      9.2425   6.9708868322e+01   5.6123725881e+01    0.1851558    0.1661227  13.51 0.0002415183    1.204    0.169
        12 -11.9359    178.6812      5.6833   5.6534842835e+01   3.9508360755e+01    0.2156672    0.1758476  87.68 0.0002688301    1.033    0.032
        13 -12.0533    224.1284      4.8707   5.2128916192e+01   2.9900216466e+01    0.1802561    0.1207124 -74.66 0.0004415346    1.203    0.169
        14 -11.3265    202.2920      4.1698   5.3845592783e+01   3.4530997033e+01    0.2407432    0.1456109 -78.07 0.0009270133    1.500    0.334
        15 -10.0155    185.3533      5.2892   5.5732592956e+01   3.8081368568e+01    0.1166885   0.07784907  51.50 0.0003322957    1.674    0.402
        16 -11.4112    207.8848      1.7713   5.2874553676e+01   3.3587231010e+01    0.1949968    0.1312042  80.62 0.0005941444    1.207    0.172
        17 -10.4005     93.9301      2.1392   6.8912139063e+01   5.8101209815e+01    0.1636828    0.1423068  61.34 0.0004854466    1.201    0.167
        18 -10.3036     26.0146      1.3895   8.9920926257e+01   6.9489401044e+01    0.1466207   0.08349658  31.88            0    1.509    0.337
        19 -11.8464    245.7030    233.6804   9.4370506475e+01  -1.1780357006e+01    0.2148079     0.153782 -10.85 0.0007010416    1.247    0.198
        20 -12.5355    222.5817    250.0969   1.0146605838e+02  -1.1239502844e+01    0.4378299    0.1644586  37.11  0.001943135    2.604    0.616
        21 -11.8710    249.9340    245.2570   9.5633572784e+01  -1.4038000894e+01    0.3305218     0.225301 -33.64  0.001292124    1.390    0.280
        22 -13.2659    243.5799    246.1187   9.6914130201e+01  -1.3380306947e+01    0.6984631    0.4389918 -19.88  0.004224619    1.451    0.311
        23 -13.3714    233.6921    249.2846   9.9254380686e+01  -1.2588938287e+01    0.7742295    0.2799709  36.06   0.00353877    2.738    0.635
        24 -12.9834    234.6103    242.9691   9.8004975683e+01  -1.1759499196e+01    0.3808026    0.2608668  -3.67  0.001440115    1.411    0.291
        25 -12.9855    175.9379    230.6532   1.0748211490e+02  -8.8823860654e-01    0.4925791    0.4009806 -25.81  0.002830269    1.267    0.211
        26 -10.2084     31.3064    233.6734   1.3879898466e+02   2.0699542948e+01    0.1325323    0.0746675  69.31  0.000397284    1.651    0.394
        27 -10.5086     81.3348    230.6690   1.2812608349e+02   1.4669402625e+01    0.3013238    0.2017226 -31.41   0.00139694    2.467    0.595
        28 -11.1242    144.7943    230.9460   1.1422900597e+02   4.2903283043e+00    0.2375122    0.1909309  51.93 0.0003543812    1.250    0.200
        29 -10.2680     69.1589    230.1808   1.3068623209e+02   1.6556884429e+01    0.1829121    0.1732953  73.10 0.0004260685    1.190    0.160
        30 -10.9810    184.3865    228.6866   1.0537289071e+02  -1.9078080599e+00    0.2414857     0.164925 -31.20 0.0009049993    1.530    0.346
        31 -12.3002    197.2788    226.2979   1.0229990174e+02  -3.5493757751e+00    0.3128088    0.3078545 -15.63  0.001288246    1.215    0.177
        32 -11.9579    203.0811    225.3891   1.0096653482e+02  -4.3027017041e+00    0.3122791    0.2385765   6.58 0.0009077098    1.329    0.248
        33 -11.0122    149.3373    227.4419   1.1266801542e+02   4.2289047049e+00    0.2589807    0.1792409 -54.87  0.001315703    1.575    0.365
        34 -13.1089    233.5098    225.2800   9.5083357708e+01  -8.8067739617e+00    0.3842598    0.2483221 -41.94 0.0007445215    1.546    0.353
        35 -13.5431    247.2946    220.7246   9.1768739098e+01  -9.9469314712e+00    0.3584489    0.2581995 -20.95  0.000717788    1.195    0.163
        36 -10.6720    222.9787    223.7933   9.6788225810e+01  -7.0483857474e+00    0.2089088    0.1562511  -4.14  0.001213376    1.320    0.242
        37 -11.8733    182.2393    222.3939   1.0471233049e+02  -3.6524744386e-01    0.3202693    0.2290944  11.23  0.001627692    1.596    0.373
        38 -10.0529     15.2709    223.6189   1.4113512053e+02   2.4703920134e+01    0.1360898    0.1146114  36.57 0.0004986783    1.498    0.333
        39 -12.2761    130.3623    219.4022   1.1558920842e+02   9.1954965701e+00    0.3703732     0.244346 -34.94  0.001732792    1.882    0.469
        40 -11.8690     91.0862    219.0907   1.2447124647e+02   1.5790197410e+01    0.2358082      0.20849  86.51 0.0002754506    1.064    0.061
        41 -11.9983     92.2188    214.6192   1.2359009103e+02   1.6644720449e+01    0.4053199    0.3392427   7.45  0.001880602    1.592    0.372
        42 -11.5864    170.7117    217.6378   1.0632184912e+02   2.5301472651e+00    0.2434673    0.2374464 -43.50  0.000663179    1.114    0.103
        43 -10.8799    121.2297    217.9494   1.1743373164e+02   1.1086093911e+01    0.2892534     0.228054 -85.59 0.0007885157    1.446    0.308
        44 -12.4953    124.5231    215.4783   1.1628654218e+02   1.1070527686e+01    0.4219618    0.3661302  68.87   0.00175581    1.180    0.153
        45 -11.3963    235.0324    215.1182   9.2945321035e+01  -7.3217713305e+00    0.3276118    0.2259959 -16.52  0.001250997    1.431    0.301
        46 -16.9113    148.4374    194.8067   1.0710897975e+02   1.1428484949e+01     5.097982     3.534236  68.21   0.02244999    1.963    0.491
        47 -17.6273    173.3312    141.3822   9.0077947833e+01   1.8570624782e+01     7.055406     3.004018  33.00   0.02109293    3.917    0.745
        48  -9.8429    125.6578    249.6667   1.2110304211e+02   3.7299132820e+00    0.1312135    0.1029018  -3.38 0.0007050913    1.755    0.430
        49 -12.9653     87.5530    174.0146   1.1830630088e+02   2.7303048175e+01    0.6564339    0.3112727 -55.86  0.002545253    1.967    0.492
        50 -11.4944     31.7986    180.1673   1.3334147347e+02   3.3221141114e+01    0.2230061    0.1871687 -70.48 0.0002523337    1.109    0.098
        51 -11.0626     21.6265    175.9676   1.3530192764e+02   3.5289021291e+01     0.260481    0.1691583  49.22 0.0006698184    1.630    0.386
        52  -9.7476     11.0220    174.9667   1.3771352447e+02   3.6502268309e+01    0.1496156    0.1223882 -83.87 0.0003361069    1.033    0.032
        53 -12.4307    101.5691    172.4253   1.1437897127e+02   2.5362048379e+01    0.5190394    0.3601531  77.59  0.001824191    1.886    0.470
        54 -10.9847     62.3549    173.4034   1.2474938163e+02   3.1205330912e+01    0.2473892      0.21357  86.23 0.0003064745    1.110    0.099
        55 -10.7342     78.8664    171.8824   1.2020009400e+02   2.9203547215e+01    0.2221996    0.1909676 -41.02  0.000348529    1.272    0.214
        56 -16.6716    193.0828    198.6619   9.8007138455e+01   2.4455485990e+00      4.84729     2.742813 -57.26   0.02058157    2.243    0.554
        57  -9.6312     78.7155    213.3553   1.2651175746e+02   1.9023677179e+01    0.1471506   0.09744379  74.60 0.0004753446    1.668    0.400
        58 -10.7226     97.9715    166.4609   1.1418435444e+02   2.7475705584e+01    0.2192845    0.1499168  40.04 0.0003591773    1.514    0.340
        59 -10.3613     38.0047    165.9604   1.2995535043e+02   3.6083226753e+01    0.1683485    0.1403263 -74.73 0.0003122776    1.022    0.021
        60 -12.1495    107.1419    163.0460   1.1109632656e+02   2.6721775740e+01    0.5472468     0.299015 -40.83  0.002144497    2.062    0.515
        61 -10.3825     92.4656    165.5102   1.1545949760e+02   2.8644221144e+01    0.1514441    0.1420805 -59.70 5.114604e-05    1.056    0.053
        62 -10.7659     82.6384    165.2687   1.1803170184e+02   3.0294321979e+01    0.1538234    0.1101161  69.14 0.0005820758    1.648    0.393
        63 -10.2977     48.6757    165.3144   1.2707750919e+02   3.5012168092e+01    0.1449564    0.0991424  73.36 0.0003742033    1.664    0.399
        64  -9.8992     52.2684    162.3093   1.2566115815e+02   3.5329516012e+01    0.1395782   0.09899285 -41.82 0.0003109768    1.541    0.351
        65 -11.5287    184.4464    210.9920   1.0216924675e+02   1.4840634595e+00    0.3682415      0.23173 -47.86  0.001722525    1.633    0.388
        66 -11.3961     67.1156    158.1581   1.2094864073e+02   3.4411178032e+01    0.4150527    0.1550511 -52.38  0.001523504    2.404    0.584
        67 -10.6072     42.2854    158.8556   1.2779761223e+02   3.7388295837e+01    0.3346847    0.1013227 -62.40  0.001199924    2.701    0.630
        68 -10.0239      2.0529    159.2791   1.3822564162e+02   4.1003598518e+01    0.1621842    0.1390485 -81.84 0.0003621196    1.100    0.091
        69 -12.1252    103.1621    155.9285   1.1069872405e+02   2.9207631906e+01    0.4490434    0.2541228 -55.66  0.001465948    1.698    0.411
        70 -13.0425    220.7234    207.7961   9.4251183741e+01  -3.8915876240e+00    0.4233112    0.3890973   4.79  0.001042334    1.117    0.105
        71 -10.9192     82.0264    155.9725   1.1645504580e+02   3.2743094329e+01    0.2240237    0.2063718 -56.80 0.0003351308    1.053    0.050
        72 -11.5204     78.3780    155.8362   1.1743161492e+02   3.3343662269e+01    0.2653767    0.1960816 -70.84 0.0004298852    1.347    0.257
        73 -13.6806     80.2941    149.7972   1.1572660561e+02   3.4571024387e+01    0.4891368    0.3475612 -60.68  0.001027687    1.320    0.242
        74 -13.1685     97.1179    149.1402   1.1091982880e+02   3.1961939309e+01    0.7750648    0.3237151 -59.84  0.002660461    2.582    0.613
        75 -12.8121    101.7203    150.0029   1.0984314867e+02   3.0938608426e+01    0.5523771    0.3509633  65.42  0.002223828    2.189    0.543
        76 -11.3983     58.8006    216.2094   1.3134181251e+02   2.1196048214e+01    0.3758997    0.2858357  -6.58  0.001943841    2.222    0.550
        77 -12.0865     90.3321    150.5654   1.1308880830e+02   3.2760093605e+01     0.469072    0.2266033 -40.75  0.001723794    2.409    0.585
        78 -11.2175     72.0021    152.0348   1.1847786848e+02   3.5259591498e+01    0.2246594    0.2006905 -55.89  0.000349702    1.061    0.057
        79 -11.3574     85.5109    158.9917   1.1608404389e+02   3.1426916665e+01    0.2785324    0.2169072   8.81 0.0007542387    1.674    0.402
        80 -14.9473    230.1383    156.5964   8.2347897355e+01   4.2527629950e+00     2.058545     1.586074 -26.98  0.007585911    1.319    0.242
        81 -10.1969     60.3978    147.4880   1.2089365896e+02   3.8026124551e+01    0.1949034    0.1321195  47.06 1.760157e-05    1.627    0.385
        82 -11.1231     56.9597    145.4665   1.2150050944e+02   3.8983172941e+01    0.2510085     0.183072 -60.66 0.0003212177    1.218    0.179
        83  -9.9349     20.9574    145.6452   1.3163620865e+02   4.2811178195e+01     0.209473   0.06740097  47.91  0.000704451    4.430    0.774
        84 -12.0721     99.8124    140.1447   1.0821543091e+02   3.3710281576e+01    0.3600855    0.2164504  38.28 0.0003066656    1.745    0.427
        85 -11.6995     71.2355    137.8000   1.1588214885e+02   3.8935722130e+01    0.3865768    0.2215959  56.89  0.001582611    2.364    0.577
        86 -10.0489     41.8587    138.3822   1.2457928360e+02   4.2548697584e+01    0.1794979    0.1319899   0.52 0.0009401806    1.771    0.435
        87 -15.6649    224.9865    175.8248   8.7186038028e+01   1.4229977690e+00     2.608418     1.796476  70.80   0.01203599    2.493    0.599
        88 -11.9098    142.9239    215.8291   1.1215500325e+02   7.7772198504e+00    0.2872486    0.2659497  58.63 0.0007020326    1.094    0.086
        89 -11.7904     69.0881    129.0112   1.1465565816e+02   4.1403747007e+01    0.4245512    0.2030047 -51.86  0.001216183    1.868    0.465
        90 -11.4896     92.8414    128.3932   1.0750144813e+02   3.7781685367e+01    0.4109356    0.2193376 -63.80  0.001182877    2.280    0.561
        91 -11.9244     94.4549    123.6727   1.0590943777e+02   3.8620749028e+01    0.3006734    0.2598276  61.20 0.0009277033    1.295    0.228
        92 -11.1215     87.6598    128.1337   1.0894802080e+02   3.8724986994e+01    0.3073197    0.2175152 -26.73  0.001404553    1.694    0.410
        93 -11.0238     77.5482    128.1470   1.1193579845e+02   4.0349356312e+01    0.3466866    0.2057525  28.57 0.0009887345    1.911    0.477
        94 -10.6551      6.6365    127.9034   1.3312487210e+02   4.8196052417e+01    0.1855639    0.1517327 -42.77 0.0005006493    1.231    0.188
        95 -10.3586     24.6634    123.9528   1.2716355457e+02   4.7748074219e+01    0.1862542    0.1431473 -62.09  0.000367919    1.097    0.089
        96 -10.4869     63.8586    122.3007   1.1477069314e+02   4.3756892481e+01    0.1895839    0.1746081 -28.03 0.0003771337    1.095    0.087
        97 -11.4460     34.4518    118.3296   1.2310552583e+02   4.8176018491e+01    0.2540285    0.2243539 -65.30 0.0007263711    1.108    0.097
        98 -12.0252     92.2627    116.9920   1.0491163621e+02   4.0560445876e+01    0.2849089    0.2484303 -76.90  0.001491935    1.296    0.228
        99 -11.1763      5.6680    116.9908   1.3177701224e+02   5.0815807771e+01    0.1804845    0.1326163 -61.64 0.0004559862    1.080    0.074
       100 -13.5206    248.5484    114.7258   7.0943119839e+01   8.7988603866e+00    0.3584401    0.3124616 -29.89  0.001225362    1.320    0.243
       101 -11.4334     67.1561    114.0674   1.1185374706e+02   4.5232897107e+01    0.4169658    0.2032333 -64.19   0.00120307    2.548    0.608
       102 -10.6363     30.1342    249.0911   1.4024140496e+02   1.7541859493e+01     0.168693    0.1412947 -87.94 0.0004805836    1.216    0.177
       103 -11.9398    138.0496    215.8257   1.1325759270e+02   8.6351419545e+00    0.2829016    0.2374894  57.06  0.000843583    1.218    0.179
       104 -11.7295     90.6113    108.2373   1.0317298187e+02   4.2828912597e+01    0.3053494    0.1835474 -38.19 0.0007325301    1.694    0.410
       105 -10.2105     11.6927    207.7146   1.4058735920e+02   2.8675561405e+01    0.1132456   0.08506802 -54.01 0.0002135382    1.567    0.362
       106 -10.0602     66.3272    109.2589   1.1095664043e+02   4.6455982606e+01    0.1411301    0.1042815 -17.88  0.000262287    1.559    0.358
       107 -11.3822     85.7824    105.0993   1.0381543286e+02   4.4352122467e+01    0.6054412    0.3143511 -24.08  0.001993151    3.646    0.726
       108 -11.7955     86.0389     99.2183   1.0216751902e+02   4.5581316933e+01    0.4557328    0.2710761 -22.90  0.001856807    2.366    0.577
       109 -11.0787    241.3382    104.2080   6.9815283970e+01   1.2013393873e+01    0.2100846    0.1636966 -44.77  0.000424001    1.189    0.159
       110 -11.9821    101.0196    103.2205   9.8768268001e+01   4.2035963279e+01    0.3225122    0.1941658 -37.67 0.0008406056    1.706    0.414
       111 -11.7403     76.8012    201.0954   1.2527813640e+02   2.2242315704e+01    0.4306169    0.2110915 -62.30  0.001624052    1.938    0.484
       112 -10.8833     79.0444    103.3162   1.0543179319e+02   4.5855699979e+01    0.1927164    0.1800385  15.91 0.0003149264    1.105    0.095
       113 -10.7178    246.0424    101.0421   6.8546956320e+01   1.1681165684e+01     0.199717    0.1535707 -63.60 0.0003228705    1.153    0.133
       114 -13.4356    242.8917     95.4226   6.7832975349e+01   1.3253081878e+01    0.4143599    0.3083276  63.39  0.001060573    1.495    0.331
       115 -10.7692     45.3476    202.0267   1.3272711246e+02   2.6311802407e+01    0.2058617    0.1937164  27.61 0.0009809562    1.349    0.259
       116 -10.2258     16.8095     97.0123   1.2459988789e+02   5.4578662676e+01    0.1756438    0.1361687 -49.89 0.0003668174    1.048    0.046
       117 -11.0493     72.9466     97.2987   1.0577054149e+02   4.8118350270e+01    0.1976204    0.1798072  12.55 0.0007618411    1.122    0.109
       118 -10.0776     32.8387     95.2335   1.1871315375e+02   5.3595483165e+01    0.1849082    0.1264352 -34.47 0.0004336264    1.340    0.254
       119 -10.1704     51.2358     90.5991   1.1121326710e+02   5.2561316446e+01    0.1775311    0.1241925   8.75 0.0003994242    1.613    0.380
       120 -10.1788     46.0578     89.7662   1.1278473767e+02   5.3360137379e+01    0.2248116     0.139019 -15.81  0.001086503    2.000    0.500
       121 -10.8659     87.5424     88.9711   9.8853347503e+01   4.7438808682e+01    0.2810486    0.1983876  15.78  0.001356655    1.677    0.404
       122 -12.1393    227.4711    198.8631   9.1272174059e+01  -3.3192987756e+00    0.2583267    0.2443365  -9.21 0.0002816701    1.145    0.126
       123  -9.9929      1.2185     86.0104   1.2776866964e+02   5.7965415286e+01     0.157786   0.07870666 -60.08 0.0002938737    1.605    0.377
       124 -10.9070    230.9281     85.0737   6.7293985788e+01   1.7380980312e+01    0.2179316    0.1972648 -82.05 0.0003096599    1.129    0.114
       125 -11.2478    232.5658     81.2192   6.6284630469e+01   1.7695445431e+01    0.2296577    0.2029703  74.62 0.0008188643    1.239    0.193
       126 -16.5175    233.1388    122.7627   7.4831644155e+01   1.0185312469e+01     2.636701     1.846964  74.64   0.01366242    1.804    0.446
       127  -9.8766     23.4876    198.5739   1.3725326784e+02   2.9629946896e+01    0.1286386    0.1046251  89.93  7.40627e-05    1.013    0.013
       128 -10.2083     52.2246     81.2016   1.0831103231e+02   5.4364816474e+01     0.197033    0.1565202 -20.42  0.000545131    1.174    0.148
       129 -10.3928    250.6983     80.2260   6.3880702637e+01   1.4309278346e+01    0.1586405    0.1004684 -43.42 0.0003053283    1.447    0.309
       130 -10.8694     70.1101     77.9729   1.0123667365e+02   5.2465401490e+01    0.1978979    0.1800117 -11.32  0.000363295    1.024    0.024
       131 -11.5718    107.3621     83.0139   9.1293201796e+01   4.4869027175e+01    0.2275311    0.1918495  23.83 0.0003930144    1.217    0.178
       132 -12.5535    212.0837    196.1215   9.3675257445e+01  -3.1475597398e-01    0.7201927    0.2885436 -42.73  0.002027654    2.322    0.569
       133 -11.8702    215.5783    194.2309   9.2625469774e+01  -5.3503609733e-01    0.4710899    0.2928854 -41.80  0.001811219    1.488    0.328
       134 -12.6457    119.5309     71.3607   8.4630181790e+01   4.4431723452e+01    0.4221283     0.225188  41.71  0.001125906    1.866    0.464
       135 -13.0628    177.7534    213.2451   1.0401041117e+02   2.1918937373e+00    0.5028899    0.4154356 -67.54  0.002716351    1.500    0.333
       136 -12.2855    175.7616    196.4847   1.0127280227e+02   6.0008454727e+00    0.6267385    0.3892896  37.91   0.00288555    1.626    0.385
       137 -10.4372    221.6491     66.2820   6.4578319877e+01   2.2365490864e+01    0.2943115    0.1705438 -43.02  0.001504238    1.639    0.390
       138 -10.7430    226.0170     71.2478   6.5061526876e+01   2.0665099171e+01    0.2412466    0.1864708 -38.99   0.00125447    1.418    0.295
       139 -10.2574    224.7468     67.2513   6.4390707673e+01   2.1562869548e+01    0.2242758    0.1734857 -13.72  0.001209064    2.121    0.529
       140 -10.9787     88.7885     72.1290   9.3481941263e+01   5.0391758654e+01    0.1908718    0.1859097 -27.77 0.0003648028    1.147    0.128
       141 -10.9536    101.6253    194.6756   1.1829835340e+02   1.9856898954e+01    0.2827898    0.1767884  41.25 0.0007186037    1.586    0.370
       142 -10.4792     43.7594     68.4662   1.0766398807e+02   5.7859188497e+01    0.2598157    0.1452643 -56.02  0.001133465    2.131    0.531
       143 -10.3094    236.5705     56.9400   6.0924441748e+01   2.0704664883e+01    0.1968684    0.1666293 -59.33 0.0005062258    1.178    0.151
       144 -12.0873    243.9090     65.9124   6.1873050063e+01   1.7885187429e+01    0.7197185    0.3301024  77.85  0.003197585    2.835    0.647
       145 -10.9556    237.3390     62.7314   6.1980750797e+01   1.9678572761e+01    0.3717187    0.1940779 -65.40 0.0008474277    2.021    0.505
       146  -9.7259    237.2500     67.7413   6.2984722814e+01   1.8923268337e+01     0.123864   0.08141697 -69.29            0    1.427    0.299
       147 -11.8805    126.3500     65.4835   8.1228586793e+01   4.3926467885e+01    0.2929594     0.240015 -78.79  0.001572731    1.511    0.338
       148 -10.9594     52.4490     65.9501   1.0371029450e+02   5.7225838247e+01    0.2054707    0.1743563  38.01 0.0003653555    1.405    0.288
       149 -10.7729     11.1638     65.7991   1.1942671880e+02   6.1437131854e+01    0.1720827    0.1075401 -31.23 0.0005231992    1.349    0.259
       150 -11.9004    111.5053     64.2765   8.4603387038e+01   4.7282089906e+01    0.3667382    0.2520617  33.56  0.001850406    1.495    0.331
       151 -11.7758    100.9819     61.6298   8.6650483713e+01   4.9834952658e+01    0.3509324    0.2270998  17.79 0.0008704902    2.029    0.507
       152 -10.5362     75.1683     62.1540   9.4654189987e+01   5.4471625199e+01    0.1975363    0.1629995  -3.43 0.0003574273    1.161    0.138
       153 -11.8918    131.1218     60.6800   7.8723501310e+01   4.3626476772e+01    0.2633261    0.2171568   0.90  0.000345579    1.470    0.320
       154 -10.2842    220.1131     59.5198   6.3352507876e+01   2.3729400905e+01    0.1854762    0.1185513  70.49 0.0006913404    1.528    0.345
       155 -12.9817    117.7573    191.2251   1.1376308815e+02   1.7891047461e+01    0.6102647    0.4101007 -58.21  0.002277982    1.488    0.328
       156 -10.7466     11.2511     58.3596   1.1737613489e+02   6.2827646775e+01    0.2285559    0.1090493 -35.11  0.001107023    1.764    0.433
       157 -10.6591    226.8881    190.9908   8.9851458869e+01  -1.7728977900e+00    0.2785031    0.1796196 -45.54  0.001430508    1.476    0.322
       158 -10.0757     83.6628    192.3173   1.2231954589e+02   2.3346328989e+01    0.2362255    0.1573627  72.01  0.001045927    1.765    0.433
       159  -9.6898    231.3027     57.2541   6.1570464517e+01   2.1731089782e+01    0.1075638   0.09768163  50.25 0.0002164307    1.505    0.336
       160  -9.9282    241.5213     56.5805   6.0324472322e+01   1.9766258876e+01    0.1268643   0.09828525 -71.90 2.635297e-05    1.046    0.044
       161 -10.8238    115.5940     56.0870   8.1071857010e+01   4.7685349577e+01    0.2940227    0.1552542  38.02 0.0008572995    1.995    0.499
       162 -10.2738    226.0112     54.5155   6.1619342648e+01   2.3231694120e+01     0.202792    0.1516882 -54.87  0.001238212    1.207    0.171
       163 -11.4346    172.5352    247.0083   1.1089058198e+02  -3.3274032513e+00    0.3060079    0.1502454  50.42  0.001301986    2.576    0.612
       164 -10.5548     51.7112     54.9158   1.0042749694e+02   5.9218027785e+01    0.1717883    0.1420404 -18.58 0.0003323652    1.081    0.075
       165 -11.5553    249.4616     53.2193   5.8880230537e+01   1.8702618354e+01    0.2115209    0.1588009 -71.73 0.0003436017    1.068    0.064
       166 -11.6506    120.8398     53.1419   7.8905023000e+01   4.6991223757e+01    0.2015302    0.1824986  86.72 0.0005368482    1.246    0.198
       167 -11.5136     56.9959     52.9190   9.7836784280e+01   5.8799358523e+01    0.2068234    0.1703045  13.45   0.00034089    1.109    0.099
       168 -11.7932    131.2473     44.6488   7.4060252515e+01   4.5870514938e+01    0.3697433    0.1944968  61.09  0.001457407    1.842    0.457
       169 -13.2787    140.2737     47.8692   7.3115464609e+01   4.3418004102e+01     0.573916    0.3098634 -29.15  0.002242496    2.176    0.540
       170 -12.6705    136.2083     44.7065   7.3045953158e+01   4.4754849978e+01    0.3927001    0.3343032  76.57  0.001295717    1.188    0.158
       171 -11.2288    242.8577     48.0597   5.8559952662e+01   2.0734529277e+01    0.2284737    0.1861829  67.76 0.0006668445    1.418    0.295
       172  -9.8778    246.6963     46.2604   5.7850834553e+01   2.0233335995e+01    0.1443616    0.1066061 -41.89 0.0001706301    1.491    0.329
       173 -11.6163    195.0406     48.4846   6.4187392164e+01   3.0823925288e+01     0.271438    0.2016154 -67.40  0.001209961    1.278    0.217
       174 -11.6829    195.1100     43.8518   6.3131713280e+01   3.1446408291e+01    0.2751443    0.2315703  40.83 0.0004186371    1.544    0.352
       175 -10.6194     64.1054     47.6884   9.3545695802e+01   5.8530539670e+01    0.1880997    0.1534003  44.80 0.0008249666    1.450    0.310
       176 -10.6527    236.7542     45.9935   5.8774293879e+01   2.2246089691e+01    0.2225175    0.2186817  15.50  0.001586699    1.558    0.358
       177 -10.8921    230.5365     46.9805   5.9609809162e+01   2.3375632245e+01    0.2157651     0.160996  83.15 0.0003857432    1.225    0.184
       178 -12.2335    213.8980     44.5628   6.0962986176e+01   2.7219881975e+01    0.4490058    0.3031204 -19.26  0.002340975    2.444    0.591
       179 -12.5202    156.0314     43.8842   6.9075463396e+01   4.0355098762e+01    0.4269462    0.3087514 -35.38   0.00218769    1.534    0.348
       180 -10.1369     76.0373     46.7864   8.9272485195e+01   5.6693876397e+01    0.1730032    0.1453258  18.22  0.001085561    1.050    0.048
       181 -11.2805    202.8663     45.2712   6.2448759327e+01   2.9528633494e+01    0.2570455    0.1830154 -74.90 0.0005946732    1.328    0.247
       182 -12.0197    150.7951     43.7988   6.9985817224e+01   4.1565499656e+01    0.3092549    0.2154568 -57.35 0.0008744869    1.613    0.380
       183 -11.7014    146.0331     43.1803   7.0697454181e+01   4.2732169019e+01    0.2239746    0.2219977 -89.38 0.0003679933    1.123    0.109
       184 -12.7585    117.3707     41.7036   7.6259564266e+01   4.9282188930e+01    0.4389653    0.3738666 -56.11  0.002675575    1.382    0.276
       185 -12.2537     90.4177     44.5900   8.4167791689e+01   5.4383539190e+01      0.24335     0.207403  29.35 0.0003303251    1.044    0.042
       186 -11.5766    124.4472     43.1912   7.5104302228e+01   4.7559334994e+01     0.271995    0.1658781 -30.20  0.001018779    1.838    0.456
       187 -11.4463    191.8291     39.9330   6.2677319242e+01   3.2703991874e+01    0.1816184    0.1696606  61.39  0.000707591    1.274    0.215
       188 -12.4332    183.4565     38.4577   6.3462760911e+01   3.4784012206e+01    0.4255904    0.2613956 -69.88  0.002192554    1.815    0.449
       189 -10.5916     61.8956     40.1333   9.1656363658e+01   5.9953899938e+01     0.171676    0.1568509  17.48 0.0002582723    1.219    0.179
       190 -10.7833    208.1792     39.0665   6.0468683319e+01   2.9201099165e+01    0.1737978    0.1595557  83.66 0.0003194477    1.227    0.185
       191  -9.8786     67.1742     57.7889   9.5900197343e+01   5.6482705596e+01    0.1726429    0.1338972   1.39 0.0003610061    1.259    0.206
       192 -11.0456     92.9771     38.4640   8.1405979298e+01   5.4688509608e+01    0.2298121    0.1744002 -46.29 0.0008556354    1.624    0.384
       193 -10.7994    196.1938     38.1669   6.1721055896e+01   3.1959029879e+01    0.1813242      0.16143  65.60 0.0005990897    1.251    0.201
       194 -11.6240    233.1766     35.5693   5.7123111862e+01   2.4389716104e+01    0.2205546    0.1751938 -71.85 0.0004463011    1.053    0.050
       195 -11.2492    192.8496     36.1293   6.1687851095e+01   3.2967476703e+01    0.1618195    0.1479444  55.53 0.0005149312    1.322    0.243
       196 -11.9574    133.5538     34.1996   7.0576747640e+01   4.6652564049e+01    0.3955216    0.2339701  34.15  0.001541998    2.041    0.510
       197 -16.5927    205.5614    143.0531   8.3910981605e+01   1.1574826082e+01      2.41483     1.197807 -27.40  0.008159546    3.334    0.700
       198 -12.6948    199.5072     33.1599   6.0216971644e+01   3.1864807718e+01    0.3205827    0.2376001 -69.83 0.0009625678    1.232    0.188
       199 -10.8347     85.0191     35.0487   8.2500683890e+01   5.6626573954e+01     0.187918    0.1619594  21.64 0.0004237051    1.022    0.022
       200 -10.2807    171.4973     33.5527   6.3983708734e+01   3.8116709041e+01    0.2345522    0.1455321  78.10 0.0006647144    1.561    0.360
       201 -11.4563    166.8405     32.3652   6.4377772603e+01   3.9321553339e+01    0.2448586    0.2034799  82.80 0.0003908111    1.069    0.065
       202 -11.5009    146.1558     34.5751   6.8327599148e+01   4.3772942143e+01    0.2626539     0.157355  74.76   0.00131094    1.771    0.435
       203 -11.0319    187.1761     32.6749   6.1630488633e+01   3.4672302999e+01     0.204707    0.1371465  87.51  0.000797273    1.422    0.297
       204 -10.4991     99.6755     32.9598   7.7801998402e+01   5.4026826309e+01    0.1740254    0.1544734  -8.37   0.00113502    1.202    0.168
       205 -10.5194     55.4836     33.4793   9.1497473484e+01   6.1826044183e+01    0.1227767   0.09833449   7.92 0.0008098073    1.038    0.036
       206 -12.2062    214.7756     31.9884   5.8264826072e+01   2.8695880325e+01    0.3346739    0.1581983  73.25   0.00120812    1.971    0.493
       207 -10.3355     60.1367     30.6382   8.8806056726e+01   6.1466818533e+01    0.1969058    0.1522264 -29.41 0.0009801211    1.407    0.289
       208 -11.4817    119.9755     29.6472   7.2009891262e+01   5.0153118979e+01    0.2459724    0.1895575  25.07 0.0008806271    1.422    0.297
       209 -11.9069    203.5967     28.3868   5.8724424021e+01   3.1558572649e+01    0.2463634    0.2020712 -85.24  0.001080434    1.014    0.014
       210 -12.0454    201.2674     22.7852   5.7793585471e+01   3.2734537032e+01     0.328997    0.1450731 -40.31  0.001089165    2.262    0.558
       211 -11.6848    182.4389     28.1076   6.1191661840e+01   3.6287998545e+01    0.2601341    0.1596506 -73.62  0.001066757    1.781    0.438
       212 -11.4667    247.7867    185.4106   8.5065131182e+01  -3.9999128350e+00    0.4533817    0.2253312  27.10  0.002010462    2.800    0.643
       213 -11.7581    188.5026     27.4918   6.0289017419e+01   3.5000945116e+01    0.2396839    0.2017043  85.52 0.0005493943    1.037    0.036
       214 -14.1197    170.8831    203.7295   1.0372955115e+02   5.3588862742e+00     0.846867    0.5245747  29.78  0.001482297    1.722    0.419
       215 -11.1832    161.5131     27.1870   6.3879068377e+01   4.1135449020e+01    0.2568651    0.1528295  85.93  0.001054071    1.878    0.468
       216 -11.0891    209.2788     25.8555   5.7584211723e+01   3.0634289715e+01    0.2278273    0.1372381  49.65  0.001247111    2.096    0.523
       217 -12.5310    226.3318     23.8551   5.5518845681e+01   2.7280320819e+01    0.3546577    0.1258952  63.12  0.001677556    2.592    0.614
       218 -11.7103    235.1538     21.9777   5.4387127573e+01   2.5711780366e+01    0.1868813    0.1365787 -88.99 0.0002980859    1.130    0.115
       219 -11.4095    106.9376     22.5816   7.2681778764e+01   5.3665086538e+01    0.2023707    0.1777247  -4.92 0.0005499225    1.263    0.208
       220 -10.6278    175.0121     22.5415   6.0855177611e+01   3.8596110810e+01    0.1902105    0.1064197  69.21 0.0004756224    1.540    0.351
       221 -10.2782     92.3001    183.3361   1.1870698237e+02   2.4196548802e+01    0.1492846    0.1147407 -29.34 0.0003291951    1.658    0.397
       222 -12.1696     15.9644     20.1461   1.0237309055e+02   6.8490193355e+01    0.2109876    0.1634403 -10.26 0.0003510098    1.111    0.100
       223 -11.6397    157.5904    243.7237   1.1349332986e+02  -3.2728257883e-01    0.2643675    0.2281075 -37.18   0.00160043    1.255    0.203
       224 -11.5483    248.5632     19.2607   5.2818800456e+01   2.3401621883e+01    0.2120457   0.08375088 -46.28  0.001132244    2.130    0.530
       225 -10.1500    194.0050     19.7224   5.7932173422e+01   3.4675601860e+01    0.1686416    0.1313864  82.33 0.0002064936    1.074    0.069
       226  -9.7780     51.5092    245.4831   1.3586165556e+02   1.5634433174e+01    0.1263565    0.1019187  72.69 1.411873e-05    1.002    0.002
       227 -11.0684    121.8284    243.2485   1.2103547849e+02   5.6181780528e+00    0.2723723    0.2344887  39.21  0.001001716    1.096    0.088
       228 -10.9082    182.6281     16.1427   5.8436974418e+01   3.7583418455e+01    0.2276998    0.1438986  84.74  0.001209906    1.430    0.301
       229 -11.3425    126.8325    238.4521   1.1928137451e+02   5.7708868257e+00    0.3466023    0.2538877  25.84  0.001853509    1.468    0.319
       230 -10.6803    222.3121     13.3151   5.3862452887e+01   2.9346919106e+01     0.104332   0.08418623  54.54  0.000331941    1.638    0.389
       231 -11.0823    205.9653     12.9538   5.5278217910e+01   3.2826624501e+01    0.1936972    0.1136653 -71.78 0.0006207673    1.619    0.383
       232 -12.9980    189.9987    241.8242   1.0646510060e+02  -5.1577285533e+00    0.5747404     0.226915  31.15  0.002341286    2.598    0.615
       233 -10.5241     21.8113    243.1586   1.4134593956e+02   1.9746716771e+01    0.1795117    0.1235798  72.16 0.0003555371    1.161    0.138
       234 -10.1020      2.3451    242.8282   1.4484038595e+02   2.1884397007e+01    0.1560108   0.08283398 -71.81 0.0007582074    1.688    0.408
       235 -11.2555     85.7689    181.1103   1.1998597765e+02   2.5804141589e+01    0.3216538    0.2416807 -77.31 0.0007023977    1.345    0.257
       236 -11.5376     91.9383    241.0720   1.2711952897e+02   1.0804619542e+01    0.2086139    0.1794169  60.44  0.001279411    1.022    0.022
       237 -10.7198     32.7591    242.2495   1.3921794447e+02   1.8671716010e+01    0.1506105     0.133405 -74.48 0.0006912005    1.347    0.258
       238 -10.5331     13.5149    241.9980   1.4278840785e+02   2.0901700941e+01    0.1771136   0.09521665 -79.69  0.000633913    1.589    0.371
       239  -9.9655     56.7940    241.4169   1.3442847579e+02   1.5801326014e+01    0.1519385    0.1182634  33.24 0.0002592422    1.506    0.336
       240 -12.0681    234.5872    235.3665   9.6683897568e+01  -1.0578855569e+01    0.2474581     0.220011   0.75  0.001692937    1.176    0.150
       241  -9.9154     52.9988    235.9951   1.3466946549e+02   1.7484803619e+01    0.1531896    0.1254428  69.80            0    1.039    0.037
       242 -12.2384    192.6915    233.3198   1.0446842999e+02  -4.0847640831e+00    0.4080337    0.2167942 -31.57  0.001703613    2.104    0.525
