#   1 NUMBER                 Running object number                                     
#   2 MAG_AUTO               Kron-like elliptical aperture magnitude                    [mag]
#   3 X_IMAGE                Object position along x                                    [pixel]
#   4 Y_IMAGE                Object position along y                                    [pixel]
#   5 X_WORLD                Barycenter position along world x axis                     [deg]
#   6 Y_WORLD                Barycenter position along world y axis                     [deg]
#   7 A_WORLD                Profile RMS along major axis (world units)                 [deg]
#   8 B_WORLD                Profile RMS along minor axis (world units)                 [deg]
#   9 THETA_WORLD            Position angle (CCW/world-x)                               [deg]
#  10 FWHM_WORLD             FWHM assuming a gaussian core                              [deg]
#  11 ELONGATION             A_IMAGE/B_IMAGE                                           
#  12 ELLIPTICITY            1 - B_IMAGE/A_IMAGE                                       
         1 -14.2729    169.1169     53.5870   6.6361650879e+01   3.6258595283e+01     2.006927      1.32998  22.62  0.006198029    1.979    0.495
         2 -14.2847    183.5618     38.2640   5.8809346492e+01   3.4762410559e+01     1.075497     1.025085  12.05  0.003450924    1.084    0.077
         3 -13.6670    188.0597     31.9368   5.6086690308e+01   3.4417546898e+01    0.6512597    0.5929747  54.87  0.001316924    1.072    0.068
         4 -13.0076    198.3862     23.1706   5.1858857595e+01   3.2775375861e+01    0.5490323     0.466141  -6.87  0.001934934    1.306    0.234
         5 -14.7130    205.2609      7.1462   4.6257950803e+01   3.2735137653e+01     1.543052     1.259819  10.43  0.005412999    1.454    0.312
         6 -13.2097    189.8923     14.5795   5.0431397733e+01   3.5993882663e+01    0.5816725    0.4983851  22.54  0.001830298    1.285    0.222
         7 -12.2427     58.9039      3.3135   7.6546470847e+01   6.6385308009e+01    0.3189103    0.1940957  24.22  0.001855521    1.665    0.399
         8 -11.2675     64.5181    208.6312   1.2083424582e+02   2.5044098562e+01    0.2913706    0.2503455 -59.91  0.001372723    1.659    0.397
         9 -13.8861    246.3688    242.3073   9.4229102792e+01  -8.4307809116e+00     1.181361    0.6730052 -15.27  0.007570039    2.073    0.518
        10 -17.2989     52.0445    238.6554   1.2500839288e+02   2.1503217518e+01      7.53733     6.180946  75.50   0.06548098    1.319    0.242
        11 -12.5854    152.5804    198.0527   1.0364918060e+02   1.3218951617e+01    0.4414966    0.2649723 -50.18  0.002123644    1.939    0.484
        12 -11.6599    193.0264    194.9872   9.5682313884e+01   6.2503535286e+00    0.8236578    0.4310303 -64.00  0.002756827    5.758    0.826
        13 -10.6286    161.4101    200.2340   1.0233484334e+02   1.1275603443e+01    0.2003082    0.1552992  63.23 0.0004740917    1.281    0.219
        14 -10.5321    159.4968    196.5089   1.0212480543e+02   1.2223898185e+01    0.1975471    0.1514898 -86.01 0.0006321285    1.664    0.399
        15 -18.9988     28.3836    102.1566   1.1659004151e+02   5.0879165739e+01     14.11895     1.027196 -66.79   0.02966236   11.170    0.910
        16 -12.8523     67.1491    196.7604   1.1932129723e+02   2.6876820469e+01    0.3753994     0.260224 -82.19  0.001615133    1.298    0.229
        17 -10.8178     82.1347    195.0651   1.1642997994e+02   2.5168615457e+01     0.276455    0.2422511  55.59    0.0020054    1.313    0.238
        18 -10.7381     60.5147    189.2587   1.1982199307e+02   2.9142792294e+01    0.2334323    0.1359678 -81.50  0.001443904    1.554    0.357
        19 -11.5180     20.4018    185.5569   1.2667835158e+02   3.4280127212e+01    0.1576991    0.1237117 -89.44 0.0004971803    1.214    0.176
        20 -11.1425    204.5588    176.3986   9.0218946628e+01   6.8238421513e+00    0.3659782    0.2916335 -50.83  0.001281529    1.533    0.348
        21  -9.6462    197.6700    177.1853   9.1647256656e+01   8.0551310093e+00    0.1927365    0.1582555  46.28  0.001003088    1.136    0.120
        22 -12.3890     73.6502    210.2583   1.1941157591e+02   2.3561350624e+01     0.458467    0.3247298 -38.83  0.002138288    2.798    0.643
        23 -10.1070    185.1287    169.7267   9.2619532291e+01   1.1749548837e+01     0.228673    0.1905564 -54.35  0.001263762    1.386    0.279
        24 -10.6241    163.8240    169.7296   9.6810869842e+01   1.5987615887e+01    0.2367715    0.2054001 -81.12 0.0004270097    1.308    0.235
        25 -10.9738    229.8263    165.9712   8.3589877801e+01   3.4069455417e+00    0.2079522    0.1559887 -59.41 0.0007606986    1.999    0.500
        26  -9.9157    192.4877    164.9384   9.0267899343e+01   1.1056945560e+01    0.1979652    0.1384445 -39.15 0.0007022677    1.555    0.357
        27 -10.7954      2.5747    162.4537   1.2833843131e+02   4.0308638361e+01    0.1657068    0.1344964  82.05 0.0006275265    1.218    0.179
        28 -11.0506    188.7417    154.8992   8.8960862367e+01   1.3527190016e+01    0.5193579    0.2415369  45.87  0.002148719    2.000    0.500
        29 -11.8289    133.9834    146.0119   9.8611684920e+01   2.6356231376e+01     1.196059    0.3024534 -55.95  0.003008781    6.263    0.840
        30 -10.8046    174.5265    149.0002   9.0583057763e+01   1.7566160950e+01     0.263464    0.2383411  59.81 0.0007102882    1.103    0.094
        31 -10.3855    160.2351    147.8055   9.3305593256e+01   2.0771446764e+01    0.2347008    0.1539715 -89.45  0.000937246    2.703    0.630
        32 -11.5862    143.9811    146.7641   9.6573915331e+01   2.4261155906e+01    0.4309378    0.2343231 -59.68  0.001834174    2.185    0.542
        33 -12.3062    109.9668    138.5727   1.0260515730e+02   3.2287035920e+01     0.550563    0.3592365 -32.99  0.002574815    2.227    0.551
        34 -10.8885    113.4205    151.2682   1.0410590647e+02   2.9011459847e+01    0.3297985    0.2113617 -80.02  0.001372317    1.907    0.476
        35  99.0000     10.7425    206.3178   1.2947415420e+02   3.1396228499e+01    0.3655227    0.2010077  40.08  0.002656885    2.015    0.504
        36 -12.6134     98.9360    137.8001   1.0501341597e+02   3.4295211418e+01    0.2796395    0.2638662  58.37 0.0005333197    1.173    0.147
        37 -11.7268    105.9549    130.8434   1.0207054388e+02   3.4638128939e+01    0.4364991    0.2980388 -66.83  0.001185813    1.468    0.319
        38 -11.3317    104.5163    125.0019   1.0125783292e+02   3.6152198567e+01    0.2533037    0.2202233 -30.27 0.0006902097    1.395    0.283
        39 -11.0753    135.8657    128.1849   9.4509485211e+01   2.9666189769e+01    0.5294801    0.1732254 -52.49  0.001699912    3.398    0.706
        40 -11.0022     87.6321    202.6757   1.1622445837e+02   2.2986707440e+01    0.3374257    0.2216163 -71.80  0.002177387    1.529    0.346
        41 -11.1573    116.5414    129.1958   9.9235493583e+01   3.3133880354e+01    0.3028944    0.2418842 -32.09 0.0007558304    1.529    0.346
        42 -10.7646    160.5760    127.7086   8.8848502774e+01   2.4608401657e+01    0.3558338    0.2443995 -63.56  0.001557683    1.788    0.441
        43 -10.4240    120.8252    123.3056   9.6973540951e+01   3.3606572424e+01    0.2591119    0.1821161 -26.10  0.000871479    2.006    0.501
        44 -10.3424    111.3592    118.4011   9.8200747671e+01   3.6395828449e+01    0.2291509    0.2117787  45.98 0.0002997132    1.164    0.141
        45 -10.6238    168.0917    112.8862   8.3624179384e+01   2.5833053218e+01    0.3428754     0.271219 -80.45  0.001130544    1.613    0.380
        46 -11.2970    118.7879    110.1377   9.4481306756e+01   3.6811402712e+01    0.5405599    0.2585705  58.55  0.001965832    2.947    0.661
        47 -10.6321    205.5182    110.1490   7.5309274642e+01   1.7599420010e+01    0.3305819    0.2146682  42.38 0.0009308103    1.555    0.357
        48 -10.5547    134.5558    105.3360   8.9422698205e+01   3.4697334365e+01    0.4467349    0.1421823 -46.46   0.00142875    3.091    0.676
        49  -9.5429     75.3235    104.2836   1.0443358662e+02   4.5234570981e+01     0.127477    0.0986677 -30.09 0.0003127537    1.596    0.374
        50 -10.4087     63.6279     99.3320   1.0658066071e+02   4.7863619733e+01    0.1973696    0.1423296  85.10 0.0006686426    1.641    0.390
        51  -9.5161    127.9526     94.9940   8.8356195073e+01   3.8199887325e+01    0.1753915    0.1729513  70.18 0.0006155078    1.045    0.043
        52 -10.1534      1.8010     91.9072   1.2220320305e+02   5.4938857238e+01    0.1582559    0.1109965 -63.69 0.0004710774    1.163    0.140
        53  -9.8198    151.9913     81.2426   7.8629902332e+01   3.5651742569e+01    0.2154883    0.2012556  40.03 0.0004731136    1.084    0.077
        54 -12.6640    168.0923     68.0273   7.1077733187e+01   3.4145056178e+01    0.9915823    0.6114144 -79.47  0.001109952    3.258    0.693
        55 -11.3237    158.3587    234.2609   1.0749117630e+02   6.7510281690e+00    0.2378965    0.1591651  50.34  0.001556761    1.173    0.147
        56 -11.3262    168.0955    232.8983   1.0568454625e+02   5.3206694051e+00    0.2384306    0.1746374  57.45 0.0007969451    1.265    0.209
        57 -11.4526     71.8433    230.8038   1.2140925222e+02   2.0299463810e+01    0.2138366    0.1373821  69.68 0.0007359444    1.211    0.174
        58 -12.8355    149.0654    186.5436   1.0256365000e+02   1.5812479663e+01    0.5196074    0.3403679  81.39  0.002205665    2.224    0.550
        59 -11.9090    153.9615    186.2545   1.0157214092e+02   1.4962277251e+01    0.3259352    0.2521682 -81.88  0.001726074    1.573    0.364
        60 -12.5494     57.5407    213.4475   1.2239572247e+02   2.5064205837e+01     0.285582    0.1754505  46.50   0.00101965    1.552    0.356
