#   1 NUMBER                 Running object number                                     
#   2 MAG_AUTO               Kron-like elliptical aperture magnitude                    [mag]
#   3 X_IMAGE                Object position along x                                    [pixel]
#   4 Y_IMAGE                Object position along y                                    [pixel]
#   5 X_WORLD                Barycenter position along world x axis                     [deg]
#   6 Y_WORLD                Barycenter position along world y axis                     [deg]
#   7 A_WORLD                Profile RMS along major axis (world units)                 [deg]
#   8 B_WORLD                Profile RMS along minor axis (world units)                 [deg]
#   9 THETA_WORLD            Position angle (CCW/world-x)                               [deg]
#  10 FWHM_WORLD             FWHM assuming a gaussian core                              [deg]
#  11 ELONGATION             A_IMAGE/B_IMAGE                                           
#  12 ELLIPTICITY            1 - B_IMAGE/A_IMAGE                                       
         1 -14.2527     28.9725     58.8478   9.5713964542e+01   6.2399972276e+01     1.362567     1.044585  60.78   0.00403687    2.025    0.506
         2 -10.0721     45.9953     18.4707   7.2111518962e+01   6.7270894583e+01     0.194344    0.1556327 -26.79 0.0006401723    1.334    0.250
         3 -12.0980    215.9847     14.2148   3.4739390955e+01   2.9932824699e+01    0.3946073    0.3361197  52.69  0.002027474    1.465    0.317
         4 -11.2075    115.2775     11.8578   4.7658415195e+01   5.4196132165e+01    0.2866583    0.1914558  52.72 0.0006394286    1.281    0.219
         5 -11.9055    191.6735      9.8440   3.5976347484e+01   3.5990257380e+01    0.4039113    0.2597225  49.73  0.001485743    1.777    0.437
         6 -11.5712     65.6542     10.5920   6.0600597878e+01   6.4867023697e+01    0.2971624    0.2400183  39.30 0.0008493543    1.190    0.159
         7 -12.8803     55.1718      6.9799   6.2731514579e+01   6.7119297545e+01    0.9008409    0.5803564  68.60  0.004426227    3.118    0.679
         8 -10.3791     46.5377     11.2278   6.8365119212e+01   6.8083272341e+01    0.2137199    0.1429202  33.69 0.0008323047    1.360    0.265
         9 -11.6344     37.1110      9.4674   7.1739167717e+01   6.9702321149e+01    0.3155095    0.2436191   8.02  0.001761898    1.032    0.031
        10 -11.7679    185.6069      4.9323   3.5357460637e+01   3.7909240382e+01    0.4019657    0.2585091 -59.04  0.002282668    1.509    0.337
        11 -11.3782    201.7211      5.3194   3.3944933349e+01   3.4110421153e+01    0.2346002    0.1279954 -47.33  0.001268976    1.709    0.415
        12  -9.6799    128.0093      5.9939   4.3212565741e+01   5.1702988164e+01    0.1602852    0.1331745  62.36 0.0004160521    1.035    0.034
        13 -10.9648    104.4825      4.4041   4.7167872612e+01   5.7321688359e+01     0.350305    0.2071956  16.46   0.00178299    2.082    0.520
        14 -11.2205    207.1358      8.3050   3.4164892554e+01   3.2566583690e+01    0.1977472    0.1774747 -28.60  0.001338193    1.393    0.282
        15 -10.1785    176.4486    210.2283   8.6523822470e+01   4.0694760683e+00    0.1772366    0.1335247 -56.82 0.0009421775    1.677    0.404
        16 -10.3777    205.7623    206.8746   7.9941648440e+01  -1.8469271693e-01    0.2547191    0.1576905 -40.23  0.001323506    1.662    0.398
        17 -10.1151     70.7014    207.0387   1.0984293318e+02   2.1928968322e+01     0.183677    0.1546559  89.32 0.0004298243    1.118    0.105
        18 -10.2777    133.1450    195.6785   9.3636007051e+01   1.4498439268e+01    0.2532048    0.1998437 -71.04  0.001314222    1.472    0.321
        19 -12.1317    159.2215    191.1829   8.6836217363e+01   1.0754790323e+01    0.8107192    0.5305513 -85.80  0.003036324    3.415    0.707
        20 -10.5079    173.1749    191.5099   8.3807241289e+01   8.1611150531e+00    0.2967957    0.2322891  83.05  0.001445362    2.000    0.500
        21  -9.9841    210.5878    182.1914   7.4246880289e+01   3.2774770352e+00    0.2048677    0.1203808 -28.26 0.0009564864    1.727    0.421
        22 -10.2144    191.5727    176.7265   7.6957813757e+01   7.6722879391e+00    0.2890595    0.1333445 -38.14  0.001156061    2.165    0.538
        23 -10.2768     58.6315    176.0703   1.0900111859e+02   3.0834183318e+01    0.2197692    0.1513807  90.00 0.0007824971    1.454    0.312
        24  -9.6172     28.6978    176.6966   1.1649933280e+02   3.4120786707e+01    0.1231101   0.09064607 -48.63 0.0002886764    1.592    0.372
        25 -10.2259    159.3867    175.2022   8.3701801238e+01   1.4048813047e+01    0.2147833     0.141972 -58.24 0.0009522029    1.775    0.437
        26 -10.0472    138.3314    164.6528   8.6577535470e+01   2.0436178391e+01    0.1596167    0.1215253  80.20 0.0007049355    1.764    0.433
        27 -11.0287     52.5205    162.5399   1.0879372537e+02   3.4954850085e+01        0.312    0.2175093  88.20 0.0009964714    1.446    0.309
        28 -12.9507    116.8585    158.7779   9.0851647517e+01   2.5888157275e+01    0.4786929    0.3963829   8.93 0.0008637206    1.463    0.316
        29 -10.0803     23.5952    159.8248   1.1607414561e+02   3.8719429651e+01    0.1855224    0.1061825 -87.65 0.0008786405    1.627    0.385
        30 -10.8748    107.7164    158.9876   9.3309147407e+01   2.7496209431e+01    0.5236365    0.2879357  48.93  0.002137815    1.917    0.478
        31  -9.9057    110.6370    155.1531   9.1769686472e+01   2.7904751969e+01    0.2194437    0.1358794 -44.47 0.0005037859    1.682    0.405
        32 -10.1017    205.0000    162.0043   7.1147426731e+01   7.9896609163e+00    0.2423596   0.07742628 -41.19 0.0008042027    2.955    0.662
        33 -11.2213    167.4991    156.5719   7.7905324240e+01   1.6426682129e+01    0.4504302    0.2774161 -56.20  0.001891858    1.884    0.469
        34 -10.3507    218.5302    156.4456   6.7379623242e+01   6.5244752093e+00    0.3021446    0.1280439 -39.51   0.00120644    2.156    0.536
        35 -10.8855    232.4890    152.9870   6.4161222708e+01   4.6494936636e+00    0.1948247    0.1090606 -55.84 0.0008103137    2.535    0.606
        36  -9.6190     23.4664    153.5230   1.1542903902e+02   4.0286527745e+01    0.1329027    0.1083597  89.58 0.0008084269    1.065    0.061
        37 -11.9663    113.6078    149.9060   8.9890517420e+01   2.8634266203e+01    0.5185612    0.3154017  69.79  0.001894762    2.690    0.628
        38  -9.9808    189.7832    150.5862   7.1714020919e+01   1.3166761895e+01     0.207419    0.1440415  55.32 0.0009504765    1.690    0.408
        39 -10.3485     55.3207    145.6374   1.0551226413e+02   3.8878298743e+01    0.1520324    0.1008672  73.13 0.0007041511    1.777    0.437
        40 -10.4073     87.6778    144.3528   9.5961373849e+01   3.4550162323e+01     0.159825    0.1145601  76.78 0.0007047429    1.754    0.430
        41 -10.7754     93.3040    160.8686   9.7525111014e+01   2.9504675804e+01    0.2472277    0.1878184 -86.37  0.001156635    1.471    0.320
        42 -10.1148    181.9776    141.9881   7.1393918972e+01   1.6513385128e+01     0.246456    0.1939413 -81.60  0.001140304    1.755    0.430
        43 -10.6510     22.2371    139.4378   1.1411935156e+02   4.3897603319e+01    0.2307474    0.1745836 -55.32 0.0005924618    1.265    0.210
        44 -10.5050      1.7955    137.6600   1.1962157464e+02   4.5836642864e+01    0.2674265    0.1415446 -87.80  0.001390396    1.688    0.407
        45 -10.1382     82.6878    132.3315   9.4958997572e+01   3.8375546574e+01    0.1552808      0.11561  77.85  0.000704397    1.676    0.403
        46 -11.4885     98.2880    127.6225   8.9275281902e+01   3.6900626626e+01    0.7058347    0.4068237 -79.40  0.002339743    3.314    0.698
        47 -11.2624     94.8279    119.6133   8.8403805165e+01   3.9474743042e+01     0.442848     0.268931 -32.03  0.001410748    2.053    0.513
        48 -11.6360     90.0765    120.5557   9.0075522757e+01   4.0075674779e+01    0.4294733    0.2523841  48.73  0.001249863    1.899    0.473
        49 -10.4522    118.2532    125.9752   8.3157129767e+01   3.3502717333e+01     0.335187    0.1963061  64.42  0.001181756    2.697    0.629
        50 -10.9383     42.9820    121.9746   1.0523329680e+02   4.6309472778e+01    0.6337017    0.2449702 -79.63  0.001701032    5.602    0.821
        51 -10.0877    188.6914    123.3659   6.5562362182e+01   1.8863943288e+01    0.2429961     0.185756 -77.43  0.001115443    1.738    0.425
        52 -11.4664    155.0730    115.8489   7.1030253898e+01   2.7896634095e+01    0.4662643    0.2781007  55.78  0.001296448    1.871    0.465
        53 -13.0574    144.6935    104.5433   7.0532748037e+01   3.2648781258e+01    0.9933316    0.7600374 -87.78  0.004393025    1.771    0.435
        54 -11.7640    161.2789    112.5022   6.8710173876e+01   2.7201186266e+01    0.5837606    0.3718687  65.50   0.00235811    2.029    0.507
        55 -11.7435    160.1193    105.6330   6.7159901042e+01   2.8887311136e+01     0.696521    0.3404628  55.08  0.002563557    2.262    0.558
        56 -10.5527     92.2950    112.8632   8.7505718087e+01   4.1553541581e+01    0.3005611    0.2385932 -83.22  0.001217498    1.555    0.357
        57 -10.8416     78.8371    112.6962   9.1707979941e+01   4.3856073610e+01    0.3317063    0.1819055 -77.23  0.001093956    3.449    0.710
        58 -11.9527    122.6069    110.0011   7.7827942113e+01   3.6309765519e+01     0.652702    0.1821736 -40.91  0.001728562    4.073    0.754
        59 -11.4092     19.9050    111.8216   1.1097759103e+02   5.0945044624e+01    0.2682889    0.2243228  -5.37  0.001612293    1.439    0.305
        60 -11.4109     14.3690    109.1749   1.1238421845e+02   5.1989968774e+01    0.6279331    0.2392319 -71.94  0.002659152    2.311    0.567
        61 -10.9127     58.2948    105.4714   9.6788335079e+01   4.8591512972e+01    0.2942106     0.206255 -37.59 0.0007271208    1.428    0.300
        62 -10.0628    105.3777     94.1341   7.8375563235e+01   4.3388499981e+01     0.284033    0.1950773 -54.07  0.000908019    1.540    0.351
        63 -12.6385    113.9359    102.2648   7.8161947489e+01   3.9854141833e+01     1.157417    0.3844407  44.98  0.003615832    3.101    0.678
        64 -10.8890    107.2565     98.6344   7.9104257732e+01   4.2020764686e+01     0.400131    0.2731715 -60.84   0.00145445    1.708    0.414
        65 -12.1619     43.8131    100.1932   1.0061406305e+02   5.1602431121e+01    0.6848761    0.4031702 -85.71  0.002881106    2.601    0.616
        66 -10.7812     48.9004     99.0647   9.8561260520e+01   5.1300503586e+01    0.3177075    0.2336524 -17.78 0.0008585349    1.574    0.365
        67 -11.6624     64.6582    102.8722   9.3998404810e+01   4.8358388478e+01    0.3755086    0.3024808  71.22 0.0006723926    1.562    0.360
        68 -10.9422    140.2919    110.5040   7.3255858412e+01   3.2359602534e+01    0.2821651    0.2519551 -60.19 0.0006021425    1.157    0.135
        69 -11.5602    128.2388     97.7511   7.2885799572e+01   3.7779659472e+01    0.5413742    0.2451169 -36.77  0.001892445    2.423    0.587
        70 -10.9356     19.7395     96.6409   1.0845026646e+02   5.4643780535e+01    0.2603242    0.1206637 -55.71  0.001130507    1.691    0.409
        71 -10.0644    160.0419     96.1879   6.4618024962e+01   3.0805255415e+01    0.2506011    0.1751398  24.78 0.0005750145    1.914    0.478
        72  -9.7859     49.7093     94.3287   9.7145984129e+01   5.2333652460e+01    0.1347772     0.107618  81.46 0.0005424062    1.622    0.383
        73 -10.3019    128.8707     92.3568   7.1160011623e+01   3.8769429876e+01    0.2717303    0.2052043 -50.97 0.0006578665    1.367    0.269
        74 -11.6394     87.1785     87.3403   8.2134242679e+01   4.8331302334e+01    0.4557558    0.2880503  63.67  0.001824962    2.556    0.609
        75 -10.5903     44.2038     86.5952   9.7249260930e+01   5.4773810225e+01    0.2405875    0.1717642 -15.21 0.0005287364    1.592    0.372
        76 -11.4773     45.2066     82.4024   9.5781296991e+01   5.5619979537e+01    0.6222704    0.3861492  67.75  0.002476642    3.179    0.685
        77 -10.5930    107.8629    111.8987   8.2551226407e+01   3.8876043157e+01    0.5012198    0.2130638 -60.26   0.00148438    3.590    0.721
        78 -11.5987    103.9605     83.7532   7.5697724300e+01   4.5881665788e+01    0.7004353    0.4187542 -45.08   0.00304369    1.661    0.398
        79 -10.5969    140.4173     82.8537   6.5402293220e+01   3.8014768396e+01    0.3653382    0.1921736 -42.09  0.001449275    1.900    0.474
        80 -11.1191     24.0014     80.0448   1.0342839340e+02   5.8207933834e+01    0.3295787    0.1725741 -75.57  0.001475841    2.423    0.587
        81 -11.2239     61.3212     76.1235   8.7868359123e+01   5.4937594233e+01    0.5814741    0.2496418 -34.33  0.002129494    2.860    0.650
        82 -11.3026     15.2263     76.3215   1.0606445964e+02   5.9695475698e+01    0.3437821    0.2127322  23.68 0.0009801791    1.879    0.468
        83 -11.4879     81.8358     72.5052   7.9313005815e+01   5.2395825973e+01    0.4278486    0.2976067 -76.77   0.00155395    2.620    0.618
        84 -10.3867     95.5584     72.8079   7.4849124128e+01   4.9763975329e+01    0.2047064    0.1389107 -52.64 0.0007053851    1.658    0.397
        85 -11.1908     52.0542     70.8350   8.9808532199e+01   5.7326476875e+01    0.4540933    0.2906148 -71.51  0.002053554    2.432    0.589
        86 -12.0964      8.2362     65.7916   1.0656993865e+02   6.2465633724e+01    0.4810945    0.2642493  21.26  0.002085315    2.110    0.526
        87 -10.8781    100.5712     65.7540   7.0926921768e+01   5.0088367592e+01    0.2441062    0.2105674  29.02 0.0002030792    1.134    0.118
        88 -10.7902     40.7745     61.9727   9.1622111190e+01   6.0539603615e+01    0.2420412    0.1838513   2.10 0.0005493073    1.357    0.263
        89 -11.1222    219.1411    247.9734   8.4422216237e+01  -8.2975213723e+00    0.1620213    0.1469531 -70.72  0.001092914    2.049    0.512
        90 -10.2854    145.1880     64.0490   5.8607475705e+01   4.0241992952e+01    0.2482913    0.1983301  57.01 0.0004204459    1.219    0.180
        91  -9.8159    129.5125     59.4744   6.0828309466e+01   4.4741665963e+01    0.1474418    0.1400173  35.13 5.058465e-05    1.031    0.030
        92 -10.2504    116.3490     73.6626   6.8884083059e+01   4.5251041830e+01    0.1551826    0.1215144 -83.51 0.0006938841    1.786    0.440
        93  -9.8745    161.7444     53.5368   5.2085975283e+01   3.7848846215e+01    0.2021253    0.1367365  76.04 0.0005125807    1.611    0.379
        94 -10.3200     92.1629     50.3575   6.8139162159e+01   5.4461019219e+01    0.3924392   0.08866961 -41.05  0.001125062    4.633    0.784
        95 -10.5585    112.7346     49.4134   6.1759042172e+01   5.0201784652e+01    0.3614593    0.2596407 -85.36  0.001631097    2.236    0.553
        96 -10.9985     15.0653     54.2162   1.0056981626e+02   6.4491806590e+01    0.3024445    0.2053058 -11.80  0.001186672    1.496    0.332
        97 -11.0646      5.4928     42.8637   1.0177559870e+02   6.7388802408e+01    0.3374507    0.1862039 -69.97  0.001781319    2.308    0.567
        98 -12.1465     73.3183     41.6323   7.1215684429e+01   5.9448127829e+01    0.5102157    0.4552923  76.98  0.003017311    1.616    0.381
        99 -13.6940     42.1855     37.6742   8.2263884754e+01   6.4923013203e+01     0.581292    0.4335362  20.38  0.001160318    1.309    0.236
       100 -10.8387     72.8739     31.9811   6.7459389111e+01   6.0949880852e+01    0.2669725    0.2262889 -70.71  0.001536233    1.845    0.458
       101 -10.9963    109.3995     31.9257   5.6360203488e+01   5.3382899346e+01    0.2618471    0.1900481  54.82 0.0004276524    1.293    0.227
       102 -13.5567      9.8747     49.6644   1.0166879512e+02   6.5767023843e+01    0.3495319    0.2741596 -13.21 0.0009358076    1.243    0.196
       103 -11.9891      1.9270     29.4371   9.9253464163e+01   7.0141435899e+01    0.3314275    0.1461338 -49.42  0.001175186    1.759    0.431
       104 -10.5008    177.0157     26.4858   4.1998292306e+01   3.7687015742e+01    0.2047293     0.121919  70.35 0.0005799838    1.541    0.351
       105 -11.0971     38.0035     25.5275   7.9021068719e+01   6.7401078213e+01    0.3640937    0.2286781   3.04   0.00131221    1.676    0.403
       106 -11.8525     42.3205     20.9378   7.4919056633e+01   6.7475797292e+01    0.2908263    0.1795092  29.42 0.0003921725    1.519    0.342
       107 -11.0560     23.0294    248.2690   1.2288132877e+02   1.9174643172e+01    0.1608309    0.1152173  59.96 0.0005971933    1.084    0.077
       108 -10.4195     37.5052     18.4984   7.6010228319e+01   6.8479878702e+01    0.2160304    0.1738277  -7.83 0.0008541109    1.071    0.067
       109 -10.2369    123.1805     22.9090   4.9931566328e+01   5.1228767034e+01    0.2024349    0.1788852  84.05 0.0006452209    1.211    0.174
       110 -12.2716    203.2469     21.6397   3.7673697075e+01   3.1994828700e+01    0.3902189    0.2183156 -89.27  0.001865684    1.847    0.459
       111 -10.3069     30.4926     21.0206   8.0614359648e+01   6.9013850252e+01    0.1773514    0.1030054 -34.78   0.00102648    1.571    0.363
       112 -11.2524     90.3515     18.4158   5.6239208408e+01   5.9127108269e+01    0.3099143    0.2294493  72.30 0.0008982006    1.703    0.413
       113  -9.6167     32.6753    242.3068   1.2076511472e+02   1.9261918372e+01    0.1249989   0.06406627  62.48 0.0003970586    1.647    0.393
       114 -10.5975    222.7570     15.8723   3.4528399483e+01   2.8245763087e+01     0.228645    0.1510998  61.22  0.001345769    1.628    0.386
       115 -10.9880    130.3605     15.0408   4.5833278943e+01   5.0320490877e+01    0.2675958    0.1804195  49.88 0.0008028956    1.337    0.252
       116 -10.7461    110.1032     13.5002   4.9367448295e+01   5.5241133665e+01    0.2347256    0.1733945  61.78 0.0006792008    1.249    0.200
       117 -11.8800     16.9400    237.2880   1.2339296084e+02   2.1955729625e+01    0.4323092    0.1477267  49.61  0.002223928    2.222    0.550
       118 -10.9261     15.4622    232.3152   1.2339598543e+02   2.3102754541e+01    0.3081161    0.1191329  54.79   0.00130481    2.086    0.521
       119 -10.9098    109.2038    232.9821   1.0442773350e+02   1.0801477688e+01    0.2364579     0.165678  39.96 0.0007979303    1.244    0.196
       120 -11.4229     72.3861    228.8799   1.1178088711e+02   1.7002235476e+01    0.2898869    0.2412838  67.66 0.0009667512    1.038    0.037
       121 -11.9705     97.0287    223.4594   1.0589588841e+02   1.4558621664e+01    0.4792731    0.3696156  68.20  0.002814644    1.282    0.220
       122 -11.3247     35.9297    223.2762   1.1883477214e+02   2.2766476796e+01    0.2947366    0.1808465  74.27 0.0008951475    1.448    0.309
       123 -10.3760    173.8713    220.9866   8.8898496561e+01   2.5885961190e+00    0.2555317    0.1629481 -42.50  0.001340507    1.710    0.415
       124 -10.5131    125.0097    214.2520   9.8446509265e+01   1.2002862554e+01    0.3939918     0.192825 -69.52  0.001498832    3.314    0.698
       125 -11.4572    149.4018    221.8640   9.4231230234e+01   6.4676599205e+00    0.5238305    0.2424738 -48.43  0.002327166    2.402    0.584
       126 -10.5436     24.6027    215.1903   1.2055699990e+02   2.5734956820e+01    0.1589086   0.09572212 -69.60 0.0003070905    1.606    0.377
