#   1 NUMBER                 Running object number                                     
#   2 MAG_AUTO               Kron-like elliptical aperture magnitude                    [mag]
#   3 X_IMAGE                Object position along x                                    [pixel]
#   4 Y_IMAGE                Object position along y                                    [pixel]
#   5 X_WORLD                Barycenter position along world x axis                     [deg]
#   6 Y_WORLD                Barycenter position along world y axis                     [deg]
#   7 A_WORLD                Profile RMS along major axis (world units)                 [deg]
#   8 B_WORLD                Profile RMS along minor axis (world units)                 [deg]
#   9 THETA_WORLD            Position angle (CCW/world-x)                               [deg]
#  10 FWHM_WORLD             FWHM assuming a gaussian core                              [deg]
#  11 ELONGATION             A_IMAGE/B_IMAGE                                           
#  12 ELLIPTICITY            1 - B_IMAGE/A_IMAGE                                       
         1 -13.1739    173.6988     54.4520   5.7698393878e+01   3.4761397621e+01      1.74665     1.092871  30.48  0.005015527    2.146    0.534
         2 -13.5983    188.8490     40.6058   5.1094521503e+01   3.2902466719e+01     1.127794     1.013101  36.88   0.00399767    1.237    0.192
         3 -12.6092    198.1273     22.8878   4.4885306691e+01   3.2801065460e+01    0.6288931    0.3967703 -36.31   0.00233313    1.581    0.367
         4 -13.9376    212.6394      9.4123   3.9799858012e+01   3.0731509985e+01     1.578138     1.023698  57.23  0.008549101    1.594    0.373
         5 -10.5555     53.7798      7.3841   7.2051898181e+01   6.7443995507e+01    0.1751109   0.09744158  30.54 0.0009529381    1.686    0.407
         6 -10.9918    245.3038      2.0499   3.5424890909e+01   2.3972738387e+01    0.5266355    0.1918195  75.41  0.002367537    2.618    0.618
         7  -9.4612     72.2017    202.9956   1.1517414705e+02   2.3410799882e+01    0.2790798    0.1674272  73.55   0.00102037    1.725    0.420
         8 -12.2402    247.5146    246.5409   8.7220136338e+01  -1.1100349068e+01    0.6769222    0.4424348  -2.12  0.004588577    1.385    0.278
         9 -18.0545     30.5402    240.2412   1.2595112074e+02   2.1292960234e+01     6.582813     5.685307  43.81   0.05297387    1.531    0.347
        10 -10.0112    160.2799    205.5711   9.6905815421e+01   8.5588179686e+00    0.1913674    0.1178953  32.57 0.0009465357    1.560    0.359
        11 -10.9907    193.0233    195.1890   8.8408652814e+01   4.4554473517e+00     1.019694    0.5417476 -63.21  0.003164921    5.811    0.828
        12 -19.1634     18.0919    104.1127   1.1642074428e+02   5.2195502303e+01     16.76782    0.8377461 -68.88   0.02831126   15.338    0.935
        13 -10.3019     58.5032    202.1352   1.1792488832e+02   2.5409683736e+01    0.2622448    0.1930531 -42.19 0.0008980539    2.008    0.502
        14 -11.4290     61.4267    194.9800   1.1660706772e+02   2.6551185176e+01    0.3451524    0.2424793 -41.09  0.001250328    2.105    0.525
        15  -9.4424     82.1869    195.0407   1.1215032148e+02   2.3673067039e+01     0.212637    0.1723661  55.07 0.0006418935    1.125    0.111
        16 -11.7512    149.6445    188.4422   9.6282155040e+01   1.3692499050e+01     0.445698    0.3401097  75.50  0.001553872    1.675    0.403
        17 -11.0993     99.2431    180.8668   1.0642864821e+02   2.4132014118e+01    0.3248747    0.2889679 -14.19  0.001231761    1.510    0.338
        18 -10.6020     95.6408    189.4882   1.0847144003e+02   2.2826755549e+01    0.4181206      0.28218  51.48  0.001113004    1.355    0.262
        19 -10.5797     98.9477    186.0111   1.0724268715e+02   2.3054310245e+01    0.3933655    0.1731513  46.18  0.001309471    2.098    0.523
        20 -10.8757     39.1027    212.6850   1.2265191293e+02   2.5586147026e+01    0.1565269    0.1216089  73.07 0.0002681104    1.033    0.032
        21  -9.1537    184.4441    212.4752   9.3156994341e+01   3.1435674391e+00    0.1313669    0.1136842  27.99 0.0001591218    1.026    0.025
        22 -11.0960    150.3292    178.7674   9.4396282476e+01   1.5488380982e+01    0.4265801    0.2718669 -68.51  0.001215416    2.209    0.547
        23 -12.1006    143.9564    178.5422   9.5784815710e+01   1.6740957946e+01    0.5400662    0.3687951 -65.19  0.001791765    1.771    0.435
        24 -11.4930    139.8766    172.4094   9.5587597713e+01   1.8788828658e+01    0.4138322    0.3146798  49.06  0.001549666    1.259    0.206
        25  -9.6465     55.7768    211.5038   1.1932493820e+02   2.3824462158e+01    0.2984132      0.12603  55.24  0.001466458    2.136    0.532
        26  -7.3456     43.9503    211.6471   1.2164424241e+02   2.5233850392e+01    0.2464038    0.1329172 -83.37  0.001070548    1.722    0.419
        27 -10.3606    188.7417    176.7128   8.5725397062e+01   8.4720202950e+00    0.3945894    0.3392577 -59.29  0.001977195    1.420    0.296
        28  -9.4823     48.6227    172.1082   1.1700740203e+02   3.3216460744e+01    0.2214234    0.1734158  -0.68  0.001282626    2.047    0.511
        29 -10.7191    239.1726    175.1810   7.5757185024e+01  -5.2321444205e-01    0.1713255    0.1616516 -37.43  0.001084151    1.353    0.261
        30 -11.0897     67.0270    205.8914   1.1654080495e+02   2.3512773587e+01    0.2113116      0.19832   4.81 0.0003164877    1.549    0.354
        31  -8.8392    188.0000    163.9742   8.3256533455e+01   1.0967814708e+01    0.2339337   0.08251812 -41.62 0.0007958619    2.897    0.655
        32  -8.7901      1.6520    161.8999   1.2661277691e+02   4.0009608139e+01     0.151854    0.1150092  84.59  0.001075306    1.038    0.036
        33 -10.9802     91.5702    157.4500   1.0458441649e+02   3.0706359008e+01    0.2734747    0.2551909  19.91 0.0001173169    1.277    0.217
        34 -11.0454    133.9161    145.9591   9.1717891060e+01   2.5727675942e+01     1.359384    0.3315493 -54.92  0.003032663    6.545    0.847
        35 -11.7547     97.2912    150.9675   1.0199598536e+02   3.1300413843e+01    0.5740089    0.4728304 -18.79  0.002991137    1.621    0.383
        36 -10.0390    187.4572    151.7993   8.0723660797e+01   1.3396375478e+01    0.2818813    0.2447637  86.29  0.001104595    1.478    0.324
        37  -9.8260    113.4713    151.4309   9.7960142780e+01   2.8375673766e+01    0.3511481    0.2216847  78.78  0.001390769    2.496    0.599
        38  -9.5236    174.8899    149.1741   8.2839402018e+01   1.6548270591e+01    0.2313863    0.2112882  88.57 0.0007024609    1.281    0.219
        39 -10.2076    106.9563    144.9878   9.8361728130e+01   3.1047837798e+01    0.3979828    0.2184973 -69.48  0.001157175    2.317    0.568
        40 -11.3057    108.4557    137.5825   9.6454813587e+01   3.2522571312e+01    0.5786778     0.346329 -41.21  0.002489818    1.849    0.459
        41 -11.0212    105.8212    131.0275   9.5755785612e+01   3.4547571279e+01    0.4703876    0.3313445 -50.45  0.001502371    1.379    0.275
        42 -11.8037     96.7434    136.9480   9.9455127845e+01   3.4724929153e+01    0.3061723    0.2831963 -72.53 0.0005205214    1.022    0.021
        43 -10.4573    135.5863    127.9017   8.7187976211e+01   2.9450096101e+01    0.5105546    0.1497599 -50.90  0.001430203    3.752    0.734
        44 -10.3497    115.2995    128.8054   9.2703476322e+01   3.3308730185e+01    0.3441441    0.2633997 -30.72 0.0005927169    1.514    0.340
        45  -8.5765     83.4839    130.4375   1.0178964557e+02   3.8439009250e+01     0.143333    0.1330046 -72.06 0.0002137657    1.016    0.016
        46  -9.6107    160.8397    128.4812   8.1165754154e+01   2.3870523557e+01    0.3122889     0.223957 -43.74  0.001420808    1.391    0.281
        47 -10.6112    103.1064    124.3704   9.5018959941e+01   3.6612608383e+01    0.3129673    0.2674956 -15.43 0.0009131571    1.411    0.291
        48 -10.1808    120.3707    122.7955   8.9932676223e+01   3.3715447067e+01    0.3340794    0.2298419 -24.49  0.001316626    1.949    0.487
        49  -9.5294    110.5839    118.1056   9.1468858180e+01   3.6703453009e+01    0.2366825    0.2043038  55.38 0.0003954494    1.212    0.175
        50  -9.9504    231.2026    113.6166   6.3469401084e+01   1.1121171810e+01    0.2656115    0.2410356 -26.70 0.0007430198    1.016    0.015
        51  -9.6363    167.4007    112.3453   7.5550598612e+01   2.5741897911e+01    0.3308975    0.2602476 -77.52  0.001286233    1.639    0.390
        52 -11.3148    118.5407    110.5300   8.7361034599e+01   3.6888730493e+01    0.6202608    0.4006538  63.11  0.002329275    2.042    0.510
        53  -9.6312    205.4419    110.2141   6.7151559397e+01   1.7358799542e+01    0.3259892    0.2142964  41.53 0.0009019107    1.628    0.386
        54 -10.2914    134.5655    105.2880   8.1655426754e+01   3.4681535576e+01    0.4820046    0.1508858 -45.87  0.001435853    3.173    0.685
        55  -9.5694     75.5896    247.2818   1.1860381875e+02   1.4499166046e+01    0.3278916   0.07910912 -59.77  0.001372269    4.462    0.776
        56  -9.1135    182.4827     82.4882   6.4174657254e+01   2.7869433112e+01    0.1530165    0.1502638 -50.38 0.0008103111    1.007    0.007
        57  -8.5537     71.0266     72.7534   9.1442721507e+01   5.3728441701e+01    0.1653977    0.1195661  32.72 0.0004165405    1.500    0.333
        58 -12.4757    248.9361    233.4031   8.4839431896e+01  -9.8292398676e+00    0.7888512    0.2870776 -29.81   0.00382951    2.845    0.649
        59 -10.1883     71.9254    244.5256   1.1903719324e+02   1.5469958323e+01     0.193619    0.1423763 -82.91  0.001082857    1.400    0.286
        60 -12.7195    193.5937     34.5239   4.8685980993e+01   3.2507116370e+01     0.602309    0.5179808  71.97  0.001310088    1.115    0.103
        61 -10.3236     58.8433    229.6003   1.2023508133e+02   1.9895807625e+01    0.1756895    0.1294848  82.89 0.0003585278    1.193    0.162
        62  -9.9895     50.4850    224.8261   1.2141608440e+02   2.1849047005e+01    0.1986241   0.09659686 -86.64  0.001070165    2.115    0.527
        63  -9.9076     64.9723    223.6505   1.1859229073e+02   2.0237627910e+01    0.1599459    0.1195276  82.37 0.0005579691    1.186    0.157
