#   1 NUMBER                 Running object number                                     
#   2 MAG_AUTO               Kron-like elliptical aperture magnitude                    [mag]
#   3 X_IMAGE                Object position along x                                    [pixel]
#   4 Y_IMAGE                Object position along y                                    [pixel]
#   5 X_WORLD                Barycenter position along world x axis                     [deg]
#   6 Y_WORLD                Barycenter position along world y axis                     [deg]
#   7 A_WORLD                Profile RMS along major axis (world units)                 [deg]
#   8 B_WORLD                Profile RMS along minor axis (world units)                 [deg]
#   9 THETA_WORLD            Position angle (CCW/world-x)                               [deg]
#  10 FWHM_WORLD             FWHM assuming a gaussian core                              [deg]
#  11 ELONGATION             A_IMAGE/B_IMAGE                                           
#  12 ELLIPTICITY            1 - B_IMAGE/A_IMAGE                                       
         1 -11.2197    134.5492     33.9949   8.5909061639e+01   4.7336995310e+01    0.2435778    0.2036017  44.11 0.0003737271    1.212    0.175
         2 -12.0716     76.5426     23.9818   9.7791043942e+01   6.1122060121e+01    0.5922958    0.4230419 -54.82  0.001593508    1.643    0.391
         3 -11.2542     13.9456     20.9912   1.2212871876e+02   6.9528791953e+01    0.3435187    0.2714877  72.69  0.001881558    1.741    0.426
         4 -10.0944     88.9418     20.8096   9.2430674298e+01   5.9330154217e+01    0.4656992    0.1409538 -41.54  0.001595743    3.269    0.694
         5 -11.1958     41.3822     18.7375   1.0888410422e+02   6.7272363037e+01      0.39672    0.3360409  -2.31  0.002526612    1.292    0.226
         6 -10.9122     27.0404     15.5936   1.1395267408e+02   6.9438893576e+01    0.3265169    0.2354078 -39.14  0.001546545    1.131    0.116
         7 -10.7113     40.8754      6.5244   1.0337946507e+02   6.9453346764e+01    0.3713061    0.2071415  45.52  0.001551497    2.335    0.572
         8 -10.0902     39.6057      1.5557   1.0133551452e+02   7.0414559709e+01    0.2803736    0.1599751  24.63  0.001532372    2.176    0.541
         9 -10.1908     39.0125     10.0760   1.0597469968e+02   6.9094761552e+01    0.2301747    0.1832395 -68.07  0.001445561    1.759    0.432
        10 -11.1786     22.3240      9.3685   1.1353019045e+02   7.1048895707e+01    0.3068717    0.2516644 -10.17  0.002213989    1.315    0.239
        11 -11.6377     34.9323     13.3418   1.0934085608e+02   6.9008683198e+01    0.4410955    0.2506905 -53.91   0.00148603    1.738    0.425
        12 -12.0823     29.9202      7.2728   1.0883821084e+02   7.0643259110e+01    0.4646705    0.2937931 -45.70  0.002505975    1.323    0.244
        13 -11.5566    212.4135     11.7854   6.5948283311e+01   2.9797630436e+01    0.4676242    0.2790138 -38.06 0.0005659111    1.589    0.371
        14 -10.6578    207.8176     10.3774   6.6003756416e+01   3.1131422233e+01     0.425528     0.188263  45.98  0.001507723    2.450    0.592
        15 -10.4030    184.4640     11.9726   6.9272809390e+01   3.7154761945e+01    0.2286932    0.1960508  70.16 0.0006162903    1.176    0.150
        16 -10.2871    140.8703     11.4300   7.5858834552e+01   4.8691165126e+01    0.2541614    0.1811318 -34.12  0.001246444    1.400    0.286
        17 -11.0619    118.9666     11.9938   8.0591624002e+01   5.4015972793e+01    0.2151474    0.1991998  32.01            0    1.070    0.065
        18 -11.1928     87.4473     10.5236   8.8159461306e+01   6.1110105042e+01    0.6007713    0.2968252 -10.82  0.002280575    3.047    0.672
        19  -9.6006     68.1687     12.2174   9.5300808672e+01   6.4443524652e+01    0.1745374    0.1452984 -48.14  0.001058173    1.355    0.262
        20  -9.6901      9.0084     10.4996   1.2076443079e+02   7.1942193266e+01    0.1784233    0.1092241 -31.26  0.001012096    1.615    0.381
        21 -11.2541     13.6571      8.4328   1.1751804053e+02   7.1982500779e+01    0.3111338    0.2483778  18.57  0.001120429    1.548    0.354
        22 -10.9301     92.6197      9.4007   8.6114201828e+01   6.0205210758e+01     0.266086    0.2077309   5.34 0.0008329697    1.298    0.230
        23 -12.0388     55.8911      5.1841   9.6359059794e+01   6.7509218789e+01    0.6197504    0.5097506 -78.54  0.003716075    1.989    0.497
        24 -10.7999     70.4356      6.5642   9.1688801187e+01   6.4873901681e+01    0.3664637    0.3262895 -66.20  0.002053664    1.506    0.336
        25 -10.3873     66.0246      6.4839   9.3207444123e+01   6.5656837180e+01    0.2540437    0.2031725  12.74 0.0008986343    1.278    0.217
        26 -10.8528      9.3346      2.4401   1.1719838964e+02   7.3431024962e+01    0.5099018    0.2391142 -17.95  0.002333857    3.776    0.735
        27 -10.4500      3.8675     10.1037   1.2329515261e+02   7.2361884788e+01    0.2037403    0.1342398 -57.16  0.000423827    1.177    0.150
        28 -10.6139      2.4989      6.5459   1.2268854104e+02   7.3133427552e+01    0.2236383    0.1403738 -41.55  0.001035561    1.293    0.227
        29 -11.4612    151.5307      5.3805   7.1641254981e+01   4.6569856005e+01    0.6020489    0.2853916  -6.78  0.001567592    2.595    0.615
        30  -8.9627    124.5180      8.4391   7.7853862640e+01   5.3097936555e+01    0.1435258    0.1322448  16.68 9.649638e-05    1.030    0.029
        31 -10.9638    218.0757      6.9928   6.3940786127e+01   2.8797677085e+01    0.2178217      0.20688 -56.19 0.0007771402    1.029    0.028
        32 -11.2369    192.3715      5.5692   6.6179869955e+01   3.5671566559e+01    0.4532945     0.245175  44.86   0.00193646    1.939    0.484
        33 -10.0659    160.3117      4.7661   7.0058929030e+01   4.4314086651e+01    0.2365865    0.1776096 -40.06 0.0009518109    1.367    0.268
        34 -10.7260     66.3360      2.7665   9.1153671196e+01   6.6120194664e+01    0.3024013     0.176865  -5.91 0.0008570037    2.172    0.540
        35  -9.4568    235.4754      4.4933   6.1681024578e+01   2.4652502229e+01    0.1356101    0.1271474 -39.63 0.0008101112    1.012    0.012
        36 -11.0689    130.2210      3.2527   7.4502236278e+01   5.2244154404e+01    0.3490025    0.2524305  77.86  0.001551123    1.585    0.369
        37  -9.9797    120.9759      4.1066   7.6719106874e+01   5.4427825121e+01    0.2118069    0.1952605   9.46 0.0004896236    1.014    0.014
        38 -10.7453    243.4277      2.3423   6.0464449939e+01   2.2913571288e+01    0.2771909    0.2391475  88.45  0.000743538    1.208    0.172
        39 -10.3652    199.4458      2.8978   6.4542794894e+01   3.4038694821e+01    0.2325487    0.1937186 -81.63 0.0003395203    1.247    0.198
        40  -9.7893    174.4389      3.4915   6.7648753853e+01   4.0664019438e+01    0.1432288    0.1397504  29.70  0.000165156    1.017    0.017
        41  -9.8000     91.1894      2.8033   8.3317923368e+01   6.1321422701e+01    0.3284247    0.2017141  61.34  0.001630862    1.889    0.471
        42 -10.6663     19.4005      2.5350   1.1180462835e+02   7.2550422779e+01    0.2997392    0.1942178   1.09    0.0018662    1.968    0.492
        43 -11.4549     80.3554      1.6042   8.5886067747e+01   6.3665326893e+01    0.3322321    0.1588666  47.47 0.0008187684    2.123    0.529
        44  -9.6218      2.0536      2.5334   1.2132190674e+02   7.3922787267e+01    0.1297686    0.1059313   4.94 0.0005711943    1.499    0.333
        45  -9.7873      5.3508    150.6930   1.4335048817e+02   4.3098563009e+01     0.111413   0.05348477  65.44 0.0004261975    1.710    0.415
        46 -13.0093      4.7908    240.5346   1.4701468311e+02   2.8314543074e+01    0.7505539    0.2024106  52.92  0.005129303    2.131    0.531
        47 -12.6823      9.8902    231.6775   1.4602946430e+02   2.9115637833e+01    0.3294635    0.2774052  73.86  0.002562062    1.476    0.323
        48 -12.0247      8.6117    227.7880   1.4608823508e+02   2.9800220098e+01    0.2782953    0.1923285  51.98  0.001679031    1.340    0.254
        49 -10.3470     22.0914    143.1337   1.3941551265e+02   4.3134986964e+01    0.1936685    0.1256954 -85.31  0.001312904    1.239    0.193
        50 -10.9928     12.5677    130.3683   1.4049551927e+02   4.6497547553e+01    0.2741674    0.1327367  64.76  0.001205214    1.886    0.470
        51  -9.7726     29.1587    128.8639   1.3661797136e+02   4.5347346622e+01    0.2250514    0.1220775  79.30  0.001143396    1.748    0.428
        52  -9.3340     21.0575    125.9903   1.3820880205e+02   4.6673144788e+01    0.1319943    0.1009531  85.63 0.0004594249    1.011    0.011
        53  -9.9230     24.3810    121.8222   1.3704003952e+02   4.7238716558e+01    0.1796546     0.146984  87.87 0.0008155053    1.087    0.080
        54 -10.5603     22.0000    118.9960   1.3732845355e+02   4.8035630869e+01    0.2371077     0.125658 -78.33 0.0009862733    1.530    0.346
        55  -9.7235     96.3133    113.8455   1.1836724246e+02   3.9954606308e+01    0.2051576    0.1501161 -79.76 0.0005891705    1.447    0.309
        56 -10.8919      3.6232    113.7222   1.4126872396e+02   5.0568588966e+01    0.2486095    0.1835246  -4.15  0.001770355    2.283    0.562
        57  -9.6166    248.6877    111.6588   8.8124265110e+01   9.4832899589e+00    0.1410929   0.09072641  15.50 8.407955e-05    1.699    0.411
        58 -10.1548     65.6376    110.3018   1.2534279608e+02   4.5179062916e+01    0.2219277    0.1681959  83.88 0.0005767308    1.275    0.215
        59 -11.3594     12.9090    108.8053   1.3856192028e+02   5.0911511755e+01    0.2877432    0.1432756  86.53    0.0016571    1.822    0.451
        60 -11.0163      5.7255    108.5905   1.4033306987e+02   5.1485029656e+01    0.2316613    0.1397926 -55.06  0.001534894    1.794    0.443
        61 -10.2762     58.7674    107.1046   1.2657749018e+02   4.6731165787e+01    0.2183407    0.1655462 -17.45  0.001249854    2.197    0.545
        62  -9.3495     81.3420     99.6949   1.1932187596e+02   4.5244576764e+01    0.1349906   0.09451768  79.76 0.0003906635    1.684    0.406
        63 -11.3069     26.7374     89.9577   1.3262621036e+02   5.3816021070e+01    0.5788476    0.3134732  70.38  0.003142017    2.156    0.536
        64 -10.1333     84.4275     94.0979   1.1732250307e+02   4.5962278195e+01    0.2220772     0.192462  20.34 0.0008977485    1.470    0.320
        65 -11.4642     11.2464     87.7719   1.3674298895e+02   5.5511997518e+01     0.538766    0.1884865 -73.64  0.002430397    2.220    0.550
        66 -10.2536     16.0380     89.4900   1.3559687046e+02   5.4790284552e+01    0.2033754    0.1777245  63.92 0.0007944219    1.274    0.215
        67 -10.0836     18.6441     86.8248   1.3450533830e+02   5.5165572246e+01    0.2218421    0.1386166 -81.46 0.0007792123    1.312    0.238
        68 -10.1788    107.6755     90.3349   1.1036864380e+02   4.2823574354e+01    0.1434049       0.1061 -88.77 0.0007051108    1.714    0.416
        69 -10.7400     43.3049     89.2746   1.2778660571e+02   5.2365099541e+01    0.3440558    0.1673416  49.20  0.001769303    2.285    0.562
        70 -10.3047      1.6494     89.5158   1.3962713394e+02   5.5774972208e+01    0.2366963   0.09793437 -76.52 0.0005155309    1.824    0.452
        71  -9.6614    117.3560     89.8227   1.0781025959e+02   4.1109277767e+01    0.2689009    0.1047054  48.69  0.001004898    2.668    0.625
        72 -10.0805     77.0184     88.7431   1.1815210411e+02   4.8219238490e+01    0.2453788     0.198663 -22.37  0.001391892    1.667    0.400
        73 -11.5401     17.8913     95.1526   1.3578107837e+02   5.3427336133e+01    0.3826215    0.2058145  67.60  0.001197923    1.982    0.495
        74  -9.8912    124.0123     86.9717   1.0543804472e+02   4.0358858488e+01    0.2094138     0.205724 -51.36 0.0004631738    1.045    0.043
        75  -9.5334     92.6436     85.1122   1.1301951758e+02   4.6529932861e+01    0.1854418    0.1573042 -56.09 0.0004204765    1.097    0.088
        76 -11.1523     54.4307     84.1125   1.2359757998e+02   5.2235416188e+01    0.2513389    0.1891479 -72.32 0.0003939569    1.165    0.142
        77  -9.1717     42.9959     84.0535   1.2694517525e+02   5.3537622370e+01    0.1442856    0.1143538 -72.10 0.0003026567    1.043    0.041
        78 -10.7772      3.8784     82.5371   1.3824840700e+02   5.7126797056e+01    0.2654619    0.1172106 -66.39  0.001529766    1.715    0.417
        79 -12.0233     64.0418     80.6701   1.2004548862e+02   5.1769839542e+01    0.6130366    0.2859291 -53.94  0.002908303    1.870    0.465
        80  -9.0643     37.6484     82.3081   1.2821570355e+02   5.4467438066e+01    0.1240413   0.08132666  75.33 0.0007043345    1.714    0.417
        81  -9.8086    250.3775     80.7937   8.0505248596e+01   1.2810293285e+01    0.1941153    0.1198443 -11.96 0.0006342137    1.627    0.385
        82  -9.8818     89.2920     80.5938   1.1280256105e+02   4.8028883915e+01    0.2454414    0.1550422 -63.13 0.0007203892    1.634    0.388
        83  -9.8374    139.6440     80.3151   9.9919700727e+01   3.8339535405e+01    0.1515297    0.1150019 -81.27 0.0007044974    1.744    0.426
        84  -8.7479    124.4678     79.4523   1.0327852676e+02   4.1719021578e+01    0.1427137    0.1356748 -69.43 0.0001178987    1.046    0.044
        85  -9.3717     85.3890     79.5849   1.1363617036e+02   4.8874677530e+01    0.1322718    0.1189266 -59.15 -0.0001541599    1.032    0.031
        86  -9.2919     79.0704     79.5289   1.1541518452e+02   4.9874113577e+01    0.1773668    0.1321764  41.60 0.0003076813    1.489    0.328
        87  -9.9712     20.5240     91.4730   1.3458902940e+02   5.4010198184e+01    0.1743221    0.1332561 -37.08 0.0009343614    1.713    0.416
        88  -9.0671    198.3483     77.7329   8.7485463191e+01   2.5089366431e+01    0.1451804    0.1151475 -72.52 0.0002394191    1.616    0.381
        89  -9.6503    176.7079     77.0054   9.1188748334e+01   3.0376295611e+01    0.2113306    0.2025633 -14.92  0.001170281    1.027    0.026
        90 -10.1984     56.1473     75.5537   1.2125711710e+02   5.3886309835e+01    0.2594539    0.1973266 -67.30  0.001236337    1.147    0.128
        91 -10.0265     37.5838     75.2609   1.2692583685e+02   5.6013996814e+01    0.2719233    0.1599795 -64.27 0.0009141759    1.386    0.279
        92 -10.0350     32.9587     73.4599   1.2802956062e+02   5.6853610976e+01    0.2636093    0.1473876  58.21  0.001054131    2.207    0.547
        93 -10.3658     36.4377     71.5058   1.2654545556e+02   5.6946796552e+01     0.309354    0.1413112 -48.25  0.001154344    2.129    0.530
        94 -10.6477     16.2672     75.9188   1.3366223303e+02   5.7713814379e+01    0.1842523    0.1754783 -19.08  0.001416231    1.399    0.285
        95  -9.3493    136.6041     74.2234   9.8869248151e+01   4.0120255386e+01    0.1970579    0.1383903 -28.57  0.000333556    1.534    0.348
        96  -9.6907     95.8721     73.8409   1.0917736717e+02   4.8301470275e+01    0.1904762    0.1789005 -40.25 0.0003726532    1.096    0.088
        97  -9.4554     92.4831     72.4336   1.0973347035e+02   4.9178627374e+01    0.2374082    0.1789626  59.71 0.0007846591    1.496    0.331
        98  -9.5587     90.6009     69.4522   1.0942795658e+02   5.0110900447e+01    0.2029843    0.1538833 -71.53 9.398908e-05    1.478    0.323
        99 -11.3141      3.9610     73.6989   1.3715686812e+02   5.9021318212e+01    0.2778588    0.2002513  20.90  0.001185666    1.868    0.465
       100  -9.5399    216.8632     72.2161   8.2991105124e+01   2.1457484539e+01    0.1994219    0.1610705  16.14 0.0005048218    1.302    0.232
       101 -10.1081    152.9250     71.9682   9.4543242381e+01   3.6828852081e+01    0.2154464     0.208478 -49.90  0.001198313    1.045    0.043
       102 -10.4758    105.9532     71.6741   1.0580961366e+02   4.6896216769e+01    0.2383673    0.1923279 -50.84 0.0003947162    1.172    0.147
       103 -10.1685     80.7779     71.9364   1.1296467795e+02   5.1208883788e+01    0.2209758    0.1473176 -77.41  0.001034074    1.946    0.486
       104  -9.7421     75.7718     70.9688   1.1418809738e+02   5.2182043410e+01    0.1807125   0.09932154 -52.72 0.0007597978    1.621    0.383
       105 -10.1717     45.8587     69.6751   1.2314860224e+02   5.6363638879e+01     0.253857     0.220229  26.13  0.001237683    1.434    0.303
       106  -9.0400     42.0737     66.8129   1.2372915684e+02   5.7393853520e+01    0.1715837    0.1299723  89.81  0.001060574    1.403    0.287
       107 -10.7317     10.7356     68.9656   1.3435673905e+02   5.9613049754e+01    0.3199899    0.1517194 -80.10  0.001743912    1.850    0.459
       108  -9.9909     51.8636     67.5376   1.2073002012e+02   5.6137592388e+01    0.2706637    0.1996578 -10.17 0.0009817028    2.039    0.510
       109  -9.3743     57.3313     67.6868   1.1902307900e+02   5.5435073456e+01     0.127986   0.09335484  84.59 0.0007044567    1.677    0.404
       110  -8.9822    114.2683     66.2868   1.0199798954e+02   4.6318431397e+01    0.1357467    0.1117386  -4.49 0.0002567422    1.500    0.333
       111 -10.8744     16.9246     64.4614   1.3158608659e+02   6.0155500437e+01    0.2791998    0.2460717 -66.30  0.001236578    1.161    0.139
       112 -10.2422    132.5325     64.3273   9.6825768155e+01   4.2809724469e+01       0.3645    0.2943817   2.00  0.001835096    1.514    0.340
       113 -10.5061     35.1485     64.8482   1.2557715758e+02   5.8521451620e+01    0.3330525    0.2046401  45.02  0.001960146    1.900    0.474
       114 -10.8119     39.8055     62.4051   1.2347182472e+02   5.8584998730e+01    0.4206849     0.224967 -45.10  0.001755738    1.845    0.458
       115 -10.0419     38.2457     59.6683   1.2335598986e+02   5.9335049413e+01    0.3287168    0.1747168 -45.88  0.001750191    1.796    0.443
       116  -9.2395    109.6694     64.2822   1.0259442057e+02   4.7619773074e+01    0.1407422    0.1111474 -83.39 0.0005593556    1.608    0.378
       117 -11.1204      8.7613     61.4152   1.3381804996e+02   6.1376055005e+01    0.4849207    0.1313848 -52.86  0.002159626    2.971    0.663
       118 -10.2407      7.4921     56.1147   1.3336302673e+02   6.2599107826e+01    0.1994282    0.1788761  -7.55  0.001146684    1.482    0.325
       119 -10.3828      8.8927     44.7803   1.3067336379e+02   6.4941020801e+01    0.2068253    0.1471506 -22.90  0.001401484    1.782    0.439
       120 -11.2060      5.2904     51.7210   1.3337759788e+02   6.3675774280e+01    0.7511283    0.2504703 -38.02  0.002983179    4.753    0.790
       121 -11.7766     17.0641     45.5020   1.2768579079e+02   6.4228717941e+01    0.5020182    0.3970891 -67.98  0.003504647    1.064    0.060
       122 -12.3642     20.3049     57.2596   1.2905874123e+02   6.1460492963e+01    0.2675563    0.2359823 -83.31 0.0009510723    1.159    0.137
       123 -10.9153     19.2024     52.2043   1.2839146564e+02   6.2634785679e+01    0.2207508     0.158172 -61.66 0.0004061287    1.094    0.086
       124 -10.4657    126.9705     61.8678   9.7393305958e+01   4.4473691454e+01    0.2296737    0.2004605 -39.75 0.0003572349    1.103    0.093
       125 -10.3586     62.8584     61.9012   1.1573908471e+02   5.5941912885e+01    0.2012463    0.1578924 -38.85 0.0007161887    1.298    0.229
       126 -10.0243     53.8053     62.1544   1.1875284521e+02   5.7057701021e+01    0.1910702     0.183876  79.55 0.0005558403    1.174    0.148
       127 -10.7854     54.9808     58.8045   1.1747095438e+02   5.7623552631e+01    0.4965152    0.3151576 -87.47  0.002414803    2.391    0.582
       128 -10.7105      2.2061     59.8900   1.3580940985e+02   6.2097152412e+01    0.2778637    0.1410587  74.85  0.001509161    2.390    0.582
       129  -8.6393     67.3098     60.3137   1.1386380015e+02   5.5655534541e+01    0.1301651   0.09619529 -27.16 0.0007029264    1.630    0.386
       130  -9.4805    178.2079     59.2203   8.5654400223e+01   3.2762591164e+01    0.2035252    0.1724401 -65.35 0.0005415831    1.341    0.254
       131  -9.6067    119.3286     59.6573   9.8597799205e+01   4.6513996809e+01     0.150329    0.1128982 -73.75 0.0007051138    1.744    0.427
       132 -10.7274     60.3049     57.9245   1.1545849381e+02   5.7120642766e+01    0.2434917    0.2081455 -65.22 0.0005099603    1.101    0.092
       133 -10.3200     26.4566     57.3429   1.2691333175e+02   6.0939957187e+01    0.2835468    0.1773042 -56.91  0.001742282    1.292    0.226
       134 -10.1492     71.8262     57.3598   1.1155030669e+02   5.5605403499e+01    0.2303942    0.1664498 -44.89 0.0006304143    1.251    0.201
       135  -9.4454    129.7183     56.9515   9.5129193921e+01   4.4742025772e+01    0.2652897    0.1631243 -81.19 0.0008980469    3.641    0.725
       136 -10.3271     34.5059     53.6458   1.2319467505e+02   6.0999076993e+01      0.29779    0.1379114 -45.44  0.001266835    2.052    0.513
       137 -11.9521    113.8777     54.7985   9.8412538990e+01   4.8542161643e+01    0.3089697    0.2814107   9.59  0.001131975    1.191    0.160
       138 -10.4260    104.2406     55.9766   1.0141377294e+02   5.0265582354e+01     0.198691    0.1718838 -38.71 0.0003037778    1.085    0.078
       139 -10.6236    106.8245     53.7363   9.9952857492e+01   5.0173567785e+01    0.3818983    0.2644489 -66.16  0.001237112    1.893    0.472
       140 -11.5602     86.4463     53.3298   1.0571268852e+02   5.4051896388e+01    0.5203722    0.3388392  57.24  0.002052316    1.888    0.470
       141  -9.2429     76.8316     54.8288   1.0917843168e+02   5.5347205064e+01    0.1691667    0.1472588 -76.27            0    1.260    0.206
       142 -11.7810     66.9167     52.5225   1.1165827837e+02   5.7317896298e+01    0.5131914    0.2484594  34.81  0.002099368    2.505    0.601
       143  -9.6670     46.6757     52.8528   1.1867116663e+02   5.9877845132e+01    0.1654033    0.1388895 -64.14 0.0004329711    1.083    0.076
       144  -8.8737    176.2925     52.3035   8.3849925154e+01   3.4262403540e+01    0.1539621    0.1140052  21.43 0.0001773755    1.573    0.364
       145  -9.1911     75.6229     49.7262   1.0790983747e+02   5.6556132497e+01    0.1877671    0.1219354 -35.50 0.0005708754    1.541    0.351
       146 -10.5450     77.3141     45.9510   1.0608040722e+02   5.7021332421e+01    0.2606275    0.2344889 -13.25 0.0008222898    1.190    0.160
       147  -9.4878    212.1466     48.8495   7.7086612674e+01   2.5666428859e+01    0.1971804    0.1646067  26.51 0.0002801759    1.259    0.206
       148  -8.8715     59.6330     49.2686   1.1309605391e+02   5.9002143083e+01    0.1237507   0.09748095  84.65 0.0002348805    1.660    0.397
       149 -10.4808     38.3057     48.7161   1.2052428596e+02   6.1664357357e+01    0.2134394    0.1623283 -44.10 0.0008740111    1.224    0.183
       150 -10.3565    102.1064     48.1857   9.9354286521e+01   5.2127976012e+01    0.2067782    0.1846449  -9.11 0.0003893145    1.184    0.156
       151 -10.0359     31.5696     46.7493   1.2248601868e+02   6.2745889659e+01    0.3399207    0.1809486 -79.13  0.001042459    2.571    0.611
       152 -10.4619     68.6923     46.7923   1.0920943247e+02   5.8207899952e+01    0.2151396    0.1912826 -42.35 0.0002783886    1.029    0.028
       153  -9.8527    135.9335     46.4774   9.0106859833e+01   4.5081224566e+01    0.2152725    0.1476405  56.15 0.0007143375    1.518    0.341
       154 -10.7824     70.7114     43.0256   1.0723520393e+02   5.8638380170e+01    0.2704712    0.2111298 -44.33 0.0002838393    1.124    0.110
       155  -9.4064     55.1165     45.6230   1.1351742385e+02   6.0343871787e+01    0.1557023    0.1212399  11.82 0.0005425671    1.648    0.393
       156  -9.3750    180.6575     43.8466   8.0396454015e+01   3.4340127741e+01    0.2188468    0.2007702  47.86 0.0004076745    1.099    0.090
       157 -11.0128    183.9792     38.9215   7.8265227459e+01   3.4138542228e+01    0.4631038    0.3192242  35.62 0.0009404256    1.580    0.367
       158 -11.0966     25.9210     43.7373   1.2383344207e+02   6.3892422234e+01    0.2321895    0.2065927  46.16 0.0005318802    1.387    0.279
       159  -9.4507     95.5126     41.9721   9.9015784125e+01   5.4530650333e+01    0.2150373    0.1286481 -37.13 0.0008940125    1.553    0.356
       160 -10.6361     35.0678     40.9997   1.1952205771e+02   6.3607559653e+01    0.3617753    0.2757513  -6.21  0.002157884    1.709    0.415
       161 -10.9475    139.6924     40.6887   8.7216485650e+01   4.5096055726e+01     0.257702    0.2372852 -55.40 0.0004221537    1.151    0.131
       162  -9.2444     82.4604     41.5898   1.0287205345e+02   5.6982363448e+01    0.1343834    0.1218543 -34.54 0.0001074895    1.015    0.015
       163 -10.3404      5.2041     40.3456   1.3117886379e+02   6.6105602593e+01    0.2879087    0.1117756 -46.64  0.001493526    2.299    0.565
       164  -9.8964     12.8645     38.6341   1.2769679712e+02   6.5981572935e+01    0.3346431   0.07579794 -68.19  0.001094928    4.793    0.791
       165  -9.7886    134.1023     39.0225   8.7865157984e+01   4.6687771589e+01    0.2209543    0.2093577 -47.18  0.000817846    1.092    0.085
       166 -11.2142    121.1463     36.5170   9.0009347342e+01   5.0080388420e+01    0.5029457    0.3726305 -72.75  0.002389306    1.864    0.464
       167  -9.9349     66.8087     36.8251   1.0632532192e+02   6.0425471314e+01    0.2029114    0.1732879  41.92 0.0002766544    1.350    0.259
       168 -10.2687     70.2975     34.6059   1.0427192130e+02   6.0297659945e+01    0.3426769     0.138936 -39.16  0.001421114    2.286    0.562
       169 -10.2823      7.1155     28.2371   1.2744599616e+02   6.8523086449e+01     0.205583    0.1682443 -76.69  0.001096649    1.231    0.187
       170 -11.1061      2.1663     35.0352   1.3125772403e+02   6.7395109805e+01    0.4315097    0.1241337 -59.93  0.001910084    2.254    0.556
       171 -10.6328      2.5592     28.5031   1.2953626474e+02   6.8735172323e+01    0.2569181     0.158191 -48.47 0.0007850034    1.352    0.261
       172 -10.4138    150.2021     34.3134   8.2727645572e+01   4.3439661464e+01    0.3668174    0.1806468 -41.12 0.0007352448    2.054    0.513
       173  -9.8336     80.3572     35.7726   1.0135657335e+02   5.8412421166e+01    0.2560836    0.1623205 -33.03  0.001294799    1.501    0.334
       174 -11.0514     26.4876     35.0478   1.2114072040e+02   6.5652819054e+01    0.2772139    0.1747483 -42.17 0.0008993134    1.432    0.302
       175 -11.6442     20.1594     32.1382   1.2290098613e+02   6.6789732632e+01    0.4919772    0.2844405 -17.15  0.001525357    2.595    0.615
       176 -10.8982      1.7715    248.5129   1.4763798617e+02   2.7482770951e+01    0.2719209    0.1118214  89.06  0.002145805    2.128    0.530
       177 -11.9841    144.8841     33.1443   8.3380076318e+01   4.4932771830e+01     0.445777    0.3000195 -50.88 0.0003856632    1.670    0.401
       178  -9.9361     88.5950     32.1066   9.7299643579e+01   5.7567430668e+01    0.2866376    0.1619093 -51.16  0.001292465    2.003    0.501
       179 -11.1733     43.2112     29.5220   1.1244721044e+02   6.5022891969e+01    0.5392137    0.3180913 -30.69  0.002881265    1.862    0.463
       180  -9.8546    187.2990     29.7693   7.4784516339e+01   3.4419991499e+01    0.2681574    0.2153216  55.18  0.001360898    1.248    0.199
       181  -9.9252    166.7839     29.6916   7.8024324248e+01   3.9806049907e+01     0.244904   0.09906142 -35.69 0.0006826833    2.326    0.570
       182 -10.9098    151.4235     29.6353   8.0796800375e+01   4.3770116150e+01    0.2771843    0.2412286  25.79 0.0005813261    1.177    0.150
       183 -10.5240    103.2554     27.8914   9.1290651526e+01   5.5335873681e+01    0.5441709    0.3500895 -47.98  0.002615929    1.688    0.408
       184  -9.7742     69.9864     28.6900   1.0202548655e+02   6.1418541504e+01    0.1794001    0.1626674 -25.80 0.0004369912    1.048    0.046
       185  -9.3440    229.6209    248.2360   1.1471134476e+02  -1.0274053370e+00    0.1151061   0.08041112   3.24 0.0009379248    1.557    0.358
       186  -9.4084    243.6612     26.3159   6.6966501855e+01   2.0530997333e+01    0.1490785   0.09383171 -54.06  0.000704812    1.702    0.412
       187  -9.8185    229.5535     25.5068   6.8175872498e+01   2.4039570451e+01    0.2520551    0.1340148  -5.67 0.0009355516    2.302    0.566
       188 -12.0378     50.6007     33.7321   1.1110636598e+02   6.3293534564e+01    0.3185773    0.2387679  50.67 0.0005517285    1.686    0.407
       189 -10.4078    114.1930     25.2908   8.7332233467e+01   5.3348154132e+01    0.2650479    0.2397639  -4.21 0.0006561393    1.065    0.061
       190 -10.4908     58.9482     24.2637   1.0418998533e+02   6.3912351554e+01    0.3128609    0.1902559 -36.23  0.001425258    1.448    0.310
       191  -9.4267    158.7937     24.0799   7.7421439702e+01   4.2588612291e+01    0.2063977    0.1638331  23.79 0.0004301025    1.347    0.258
       192 -10.1394     52.3820     23.2986   1.0631583991e+02   6.5019640367e+01     0.351488    0.1615956 -36.35   0.00113703    2.059    0.514
       193 -10.3316     34.0697    247.4729   1.4316833283e+02   2.4555788642e+01     0.132082   0.06210232  46.36 0.0007105801    1.567    0.362
       194 -10.2683     12.7824     16.0935   1.2096861148e+02   7.0582724200e+01    0.2683305    0.1581097  25.18  0.001695159    2.132    0.531
       195 -10.8119    191.1560    246.6739   1.2001407482e+02   4.5073105687e+00    0.2151798   0.06800351  48.24  0.001101819    2.629    0.620
       196  -9.3491     22.5468     22.1786   1.1857935656e+02   6.8593765472e+01    0.1733865   0.08377749 -47.28 0.0009444171    1.614    0.380
       197  -9.3954      2.0178     20.9422   1.2774538460e+02   7.0315368952e+01    0.2155713    0.1108724 -62.08  0.001311033    1.445    0.308
       198  -9.4413     84.2673     21.3769   9.4132488362e+01   6.0138851550e+01    0.1646451    0.1319583  57.10 0.0003983018    1.486    0.327
       199  -9.6847     34.5357     21.5089   1.1298752094e+02   6.7544858809e+01    0.1505082    0.1146144  47.13 0.0006234116    1.724    0.420
       200 -10.4796     31.0529     20.1296   1.1397221459e+02   6.8175978850e+01    0.2274184    0.1792439 -31.62 0.0007991958    1.171    0.146
       201 -10.1071    236.1707     18.9405   6.5654635396e+01   2.3092540537e+01    0.3503779    0.1755928  10.46  0.001050198    3.284    0.696
       202 -11.5449      6.0301    247.6959   1.4704350811e+02   2.7214058336e+01    0.2927648    0.1503512  73.09   0.00257704    1.394    0.283
       203  -9.2912    115.5330     17.7200   8.3844859147e+01   5.4093475940e+01    0.2122349    0.1227327 -38.54 0.0006823813    1.718    0.418
       204  -9.4055     53.8339     18.2267   1.0353331898e+02   6.5714159256e+01    0.1651045    0.1280462 -16.53 0.0002390008    1.297    0.229
       205  -9.7928    190.4651     17.4505   7.0312085111e+01   3.4985271989e+01    0.1447584     0.141718 -44.12  5.93964e-05    1.022    0.021
       206 -10.5857    108.1802     16.7288   8.5246686191e+01   5.5889434015e+01    0.2198692    0.1736618 -33.58  0.000337556    1.234    0.190
       207  -9.6683    217.2534    244.8333   1.1603959719e+02   9.6670358273e-01    0.2269885   0.05735903  47.62  0.001001212    3.629    0.724
       208 -10.4889     20.3461     16.7857   1.1758456834e+02   6.9836261895e+01     0.165402    0.1515238 -11.21 0.0003724527    1.265    0.209
       209  -9.8382    146.5076    244.4989   1.2640182816e+02   1.1076942728e+01    0.1019619   0.07242839  47.77 0.0008106463    1.003    0.003
       210 -10.0275     39.9719    243.9719   1.4218298671e+02   2.4425078117e+01    0.1983109   0.05038296  62.52  0.000954842    4.099    0.756
       211  -9.6611     60.5214    241.2617   1.3905919400e+02   2.2556941017e+01    0.1727936   0.06003254  42.56  0.001068608    2.196    0.545
       212  -9.7081    202.4785    240.0154   1.1759319443e+02   3.4980230227e+00    0.1190316   0.09900497 -16.97 0.0006791575    1.547    0.354
       213 -11.9043      4.2519    232.8221   1.4686937897e+02   2.9458616432e+01    0.3126952    0.1542944  62.76 0.0008663074    1.315    0.239
       214  -9.2349    222.6701    238.3219   1.1446009472e+02   7.4381431058e-01    0.0914821   0.07079946  55.47 0.0006930416    1.695    0.410
       215 -10.1499    156.4165     13.7826   7.4038453647e+01   4.4411489841e+01    0.2763706    0.1671492  35.31  0.001195524    1.812    0.448
       216  -9.6680    144.2729     14.4168   7.6406464271e+01   4.7486038813e+01    0.1898189    0.1441832  77.62 0.0003835299    1.477    0.323
       217 -11.3512     20.8986    235.8768   1.4459251984e+02   2.7477019255e+01    0.1860749   0.09890104  84.18  0.001534639    1.592    0.372
       218  -9.7868    217.4059    235.7861   1.1489783032e+02   1.7168844167e+00    0.1294546   0.08768672  -3.43 0.0009644974    1.793    0.442
       219  -9.5203    173.8216     13.4160   7.1221289681e+01   3.9844710184e+01    0.2147379    0.1268443  53.23 0.0005310377    1.639    0.390
       220  -9.0350    183.3513    236.2617   1.1998978766e+02   6.6519305418e+00    0.1037804   0.06259689  29.11 0.0004111888    1.612    0.380
       221  -9.0039    155.5628    235.5252   1.2413281336e+02   1.0798893658e+01    0.1038851   0.07614473  46.26 3.928777e-05    1.007    0.007
       222  -9.8227    249.1617    234.1592   1.1017528825e+02  -2.6530401366e+00    0.1548745   0.09591813  26.68 0.0005376985    1.182    0.154
       223  -9.3119    152.3165    234.3432   1.2450924445e+02   1.1405623682e+01   0.09869768   0.07013373  24.41 0.0007048518    1.714    0.417
       224  -9.4561     79.8290    231.5897   1.3553809481e+02   2.1608744250e+01    0.1431862   0.06254554  52.08 0.0006318875    1.657    0.397
       225  -8.9674    124.3053    230.3333   1.2847952130e+02   1.5899572808e+01   0.09272345   0.07335203  25.82 0.0003457714    1.664    0.399
       226  -9.2868    209.7860    229.4428   1.1520566788e+02   3.4058630272e+00    0.1525287   0.07302906  36.23 0.0008269875    1.614    0.380
       227  -9.4567    140.6826    227.3440   1.2560333697e+02   1.3937125780e+01     0.105913   0.06700289  65.27 0.0007048838    1.719    0.418
       228 -10.1149     25.5387    224.9709   1.4347963667e+02   2.8614926511e+01    0.1272956   0.07190476 -89.40  0.001026733    1.581    0.367
       229  -9.3424     37.4976    223.9866   1.4161887653e+02   2.7546691911e+01    0.1366157   0.05349938  73.77 0.0008104985    2.570    0.611
       230 -10.9949      2.1742    219.8400   1.4678096082e+02   3.1559204166e+01    0.1916528   0.08160249  78.20   0.00119832    1.837    0.456
       231 -10.7165      7.6154    217.4074   1.4588903112e+02   3.1447413158e+01    0.2124007    0.1379044  80.41  0.001897817    1.211    0.175
       232  -9.6008    246.6750    216.6637   1.0805583569e+02  -9.2190776195e-01     0.112405    0.0614366  20.63 0.0007051311    1.718    0.418
       233  -9.8052    209.2112    212.1458   1.1296367793e+02   5.1803706937e+00    0.1671781    0.1202733  24.78 0.0007844793    1.231    0.187
       234 -10.1983      3.7201    212.2226   1.4630424916e+02   3.2592506765e+01    0.1670029    0.1087741  40.52  0.001431129    1.679    0.404
       235  -9.4423    249.4960    211.4870   1.0688217241e+02  -9.0567004695e-01    0.1083716   0.07855664  24.84 -2.020885e-05    1.000    0.000
       236  -9.8385    246.8621    206.8935   1.0656150958e+02  -1.2316140886e-01    0.1683308    0.1130347  18.16 0.0008629205    1.255    0.203
       237 -10.0515      2.1951    206.1381   1.4633455074e+02   3.3681591337e+01    0.1373466    0.0701813  66.62 0.0009725685    1.350    0.259
       238  -9.5490    197.0151    204.0032   1.1371569116e+02   7.9905081000e+00    0.1630913     0.127443  64.50  0.000929312    1.649    0.393
       239 -10.7101      9.5699    203.4262   1.4507320281e+02   3.3466425964e+01     0.172433    0.1138886  69.39 0.0007946899    1.012    0.012
       240  -9.0226    181.5597    199.4973   1.1557752679e+02   1.1037498319e+01     0.114304   0.09206253  42.47 0.0001137374    1.045    0.043
       241  -9.7765     23.1978    197.1720   1.4257352341e+02   3.3216412670e+01    0.1380277    0.1081966  76.52 0.0005094079    1.201    0.168
       242  -9.5297      6.3889    191.7159   1.4512337645e+02   3.5671489005e+01    0.1057974   0.04444112  61.58 0.0002253962    1.748    0.428
       243 -10.4247     15.4468    184.9018   1.4328064746e+02   3.6021537794e+01    0.2678024   0.07861476 -80.15    0.0014253    3.032    0.670
       244  -9.1079    250.4777    183.4707   1.0222716525e+02   1.4349578092e+00     0.115651   0.08855683  20.77 0.0003341821    1.006    0.006
       245  -9.4053     21.9921    179.4989   1.4184250820e+02   3.6352907596e+01    0.1093324   0.08951047  -6.84 0.0008100129    2.497    0.599
       246 -10.4164      4.5588    167.2210   1.4436100122e+02   4.0096304145e+01    0.2355526    0.1198866  69.25  0.001321835    1.507    0.337
       247  -9.3795    243.2049    154.9984   9.8115558067e+01   5.5561908910e+00     0.153908   0.09115823 -23.38 0.0004720904    1.705    0.414
       248  -9.4461     15.2948    150.6430   1.4135655342e+02   4.2279210982e+01    0.1136987    0.0570557  69.71 0.0007032108    1.695    0.410
