#   1 NUMBER                 Running object number                                     
#   2 MAG_AUTO               Kron-like elliptical aperture magnitude                    [mag]
#   3 X_IMAGE                Object position along x                                    [pixel]
#   4 Y_IMAGE                Object position along y                                    [pixel]
#   5 X_WORLD                Barycenter position along world x axis                     [deg]
#   6 Y_WORLD                Barycenter position along world y axis                     [deg]
#   7 A_WORLD                Profile RMS along major axis (world units)                 [deg]
#   8 B_WORLD                Profile RMS along minor axis (world units)                 [deg]
#   9 THETA_WORLD            Position angle (CCW/world-x)                               [deg]
#  10 FWHM_WORLD             FWHM assuming a gaussian core                              [deg]
#  11 ELONGATION             A_IMAGE/B_IMAGE                                           
#  12 ELLIPTICITY            1 - B_IMAGE/A_IMAGE                                       
         1 -16.5338     31.4442    132.1147   1.2962324440e+02   4.5537622493e+01      4.95656      3.80753  28.49   0.02961871    1.531    0.347
         2 -10.4449    183.6796     29.6197   6.3623221187e+01   3.5944006878e+01    0.4367806    0.3677761  -5.12  0.001770002    1.680    0.405
         3 -12.6068     12.0531      7.7877   1.0260764539e+02   7.0927368378e+01     1.539727    0.8050708  16.56   0.01004463    1.740    0.425
         4  -7.8534    212.1833      7.6554   5.5599341805e+01   3.1933060067e+01    0.1677439   0.08905832  66.99 0.0002784186    1.659    0.397
         5 -10.3693    200.6078      5.8093   5.6292931923e+01   3.4687768787e+01     0.547423    0.3490191  39.34  0.003045511    2.388    0.581
         6  -8.3161     70.0841     14.3012   8.2339420149e+01   6.2248294839e+01    0.1668852    0.1264174  35.42 0.0004667966    1.122    0.108
         7 -13.8532    247.9220    245.2629   9.9095562665e+01  -1.3837703540e+01     5.444203      1.41263 -42.97   0.02017991    4.503    0.778
         8 -16.1188    103.2537    232.0599   1.2640479752e+02   1.1701914896e+01     5.947997     3.433077  19.15  0.006390579    3.126    0.680
         9 -15.5248     94.2230    220.9441   1.2690721290e+02   1.5580315349e+01     5.077203     2.876827 -28.38   0.01683961    5.004    0.800
        10 -15.1139     90.4053    247.7088   1.3097435982e+02   1.0506414483e+01     2.817442    0.6388863  40.55  0.008837361    3.570    0.720
        11  99.0000     47.7426    216.2765   1.3644458222e+02   2.3388532093e+01     2.526502     1.697303 -30.53   0.01242673    2.798    0.643
        12 -16.7256     72.9568    244.3682   1.3412384192e+02   1.3799827427e+01     1.995876    0.9784827 -60.26   0.01002776    2.158    0.537
        13 -17.7603     62.1884    239.8979   1.3582557472e+02   1.6265049193e+01     2.925428     1.966884  44.97   0.01514906    1.392    0.281
        14 -11.1306     68.1717    213.4246   1.3171707001e+02   2.1266680320e+01    0.2028533    0.1554775 -75.04 0.0003853753    1.231    0.188
        15 -12.3667     69.5732    208.5578   1.3081192334e+02   2.2193386214e+01     0.230799    0.1987602 -88.92  0.001383959    1.062    0.059
        16 -11.4977     76.9171    211.3649   1.2951480025e+02   2.0456208606e+01     0.232297    0.1761474 -74.39 0.0001622034    1.260    0.206
        17 -12.4930     62.4295    194.5459   1.3067138297e+02   2.6534550226e+01    0.2490641    0.2071571  82.55  0.001453206    1.067    0.063
        18 -12.3913     49.8739    197.5365   1.3394148337e+02   2.7485589630e+01    0.3851405    0.3083088  70.37  0.002124002    1.134    0.118
        19 -11.7208     53.5595    197.5379   1.3310066989e+02   2.7009535336e+01    0.2068735     0.161549  77.85 0.0001968418    1.151    0.131
        20  99.0000     40.3748    198.6180   1.3620012635e+02   2.8400401878e+01     0.482241    0.2931078 -85.62  0.002560982    1.517    0.341
        21 -11.8404     44.5017    197.5093   1.3515459667e+02   2.8163920000e+01    0.2175582    0.1670828  54.08  0.001293164    1.276    0.217
        22 -12.7162     63.3108    210.6254   1.3245954924e+02   2.2603446552e+01    0.4598321    0.1930958 -56.78  0.001978594    2.377    0.579
        23 -12.3506     59.8176    210.2881   1.3319192236e+02   2.3165518109e+01    0.4053744    0.1898171 -51.63  0.001537407    2.460    0.594
        24 -13.2100     61.0032    202.5152   1.3200497905e+02   2.4826133544e+01    0.7849913    0.4652511  80.30  0.003740949    1.894    0.472
        25 -10.6784     53.8978    208.2535   1.3426463687e+02   2.4435727069e+01    0.1416632    0.1132382 -87.01 0.0003049224    1.090    0.082
        26 -13.5559     77.9571    203.5280   1.2824731261e+02   2.2132736592e+01    0.5688978    0.4242329  24.78  0.002992955    1.689    0.408
        27  -8.0427    163.4008    201.4210   1.0810117232e+02   7.5295536989e+00    0.1957792    0.1351108  49.05 0.0009232178    1.471    0.320
        28 -11.5651     70.2663    198.9842   1.2942287347e+02   2.4356082433e+01    0.2066623    0.1794252  61.88 0.0003531348    1.114    0.102
        29  99.0000     20.2104    193.7548   1.4014319061e+02   3.1762021180e+01    0.1502862    0.1205863  57.96  0.000396649    1.262    0.208
        30  99.0000     22.4640    197.0968   1.3996752697e+02   3.0752221122e+01    0.5585408    0.2539299 -53.54  0.002663441    2.413    0.586
        31  -6.1862     27.0253    194.1854   1.3869682639e+02   3.0954469329e+01    0.2504516    0.1412629 -58.31  0.001332158    1.739    0.425
        32 -11.4371     82.9558    197.9374   1.2629776108e+02   2.2693648952e+01    0.2070161    0.1831081  89.97  0.001186467    1.035    0.034
        33 -10.9988     56.8442    192.6400   1.3173619439e+02   2.7752935580e+01    0.3854859      0.20384  85.34  0.001613049    2.441    0.590
        34 -11.0607     76.8784    192.3804   1.2694409653e+02   2.4966268352e+01    0.2150924    0.1775577 -73.75 0.0003135548    1.135    0.119
        35 -10.4628     51.0000    192.3026   1.3305880887e+02   2.8596700669e+01    0.1586641    0.1299063  48.26 0.0003329707    1.280    0.219
        36 -11.3013     45.6372    190.7039   1.3411218671e+02   2.9653107506e+01    0.5935751    0.3593584  23.45  0.002957809    2.220    0.550
        37  -8.8391      1.8628    193.0000   1.4396326136e+02   3.3644355569e+01    0.1729727   0.06689864  28.48 0.0008251514    3.102    0.678
        38  -9.1348     35.4714    189.9678   1.3636605799e+02   3.1027529628e+01    0.2755474    0.1918314  84.82  0.001573463    1.299    0.230
        39 -12.2414     35.2611    183.9508   1.3574172183e+02   3.2496676326e+01    0.6510422    0.2068249  38.57  0.002658184    3.011    0.668
        40 -10.6221     61.7587    188.2927   1.3000196838e+02   2.8143796896e+01    0.1923587    0.1634987 -87.79 0.0001974732    1.030    0.029
        41 -12.4431     63.1127    184.5108   1.2915514579e+02   2.8882569764e+01    0.2568399     0.214853 -74.10 0.0005322816    1.095    0.087
        42  -7.8272     93.1677    187.6281   1.2225719538e+02   2.3541519971e+01    0.1425394   0.09973378 -82.66 0.0002721809    1.562    0.360
        43 -10.5939     82.7057    185.2247   1.2445099848e+02   2.5814859756e+01    0.2497603    0.1996436  68.79 0.0004255003    1.234    0.190
        44 -11.6022     43.0176    183.2461   1.3383077584e+02   3.1774634655e+01    0.1952571     0.161731 -79.59 0.0004483593    1.055    0.052
        45  99.0000     86.4394    214.0874   1.2773006627e+02   1.8365420804e+01     10.00167     2.559164  52.27   0.00757775    6.796    0.853
        46  -9.6716     53.3018    182.4927   1.3126522184e+02   3.0687227697e+01    0.1667431    0.1285445  49.09 0.0009332497    1.328    0.247
        47 -11.3512     50.2632    180.1462   1.3169337025e+02   3.1648478979e+01    0.2010316    0.1833484 -76.44 0.0003428179    1.130    0.115
        48 -11.3974     16.5310    182.4921   1.3988318411e+02   3.4769133486e+01    0.1419467    0.1138734 -70.53 0.0001524587    1.182    0.154
        49  -9.8765     19.0598    179.8735   1.3904882621e+02   3.5150687790e+01    0.1549709      0.12633 -64.12 0.0002683957    1.246    0.197
        50 -12.5386    236.1511    247.9529   1.0168538456e+02  -1.2654438297e+01    0.5801119    0.5718975 -51.13  0.000481145    1.581    0.368
        51 -15.2361     96.5501    238.9109   1.2868857323e+02   1.1344424060e+01     3.191179     1.114166  53.44   0.01146584    3.279    0.695
        52  -7.5112     86.2245    178.6809   1.2251993201e+02   2.6868960058e+01    0.1461847    0.1328233 -70.48 0.0002275779    1.078    0.073
        53  -8.8365     88.9202    175.8319   1.2135681546e+02   2.7138126110e+01    0.2622434    0.1936923 -48.95 0.0007199098    1.410    0.291
        54 -12.0217     39.1106    172.3021   1.3340786034e+02   3.4900888329e+01    0.2910473    0.2623363 -16.88  0.001512499    1.467    0.318
        55  -9.4494    175.2847    172.2212   9.9617859165e+01   1.1488294532e+01    0.3046314    0.2798062 -49.87 0.0007189662    1.086    0.079
        56  -9.9851    241.9049    170.9302   8.6214357792e+01  -8.2616247852e-01     0.274283    0.2391584  17.32 0.0008060508    1.248    0.199
        57  -9.8227    242.4913    165.9984   8.5116006249e+01  -2.5376182397e-02    0.2647572    0.1606296 -44.87  0.001323524    1.494    0.331
        58  -8.5342     92.0996    170.8066   1.1966179412e+02   2.7861043769e+01    0.2954758    0.2189081 -34.83 0.0006611151    1.658    0.397
        59  -9.3687    143.6648    169.7360   1.0643613438e+02   1.8484074909e+01    0.3617661    0.2527409  33.05 0.0008857021    1.548    0.354
        60  -9.1350     23.9918    168.8515   1.3668987461e+02   3.7323181114e+01     0.260024    0.1607549  35.27  0.001441007    1.826    0.452
        61  -7.6220    155.4588    168.4731   1.0335415376e+02   1.6376151479e+01    0.1536839    0.1508623 -85.71 0.0002888183    1.014    0.014
        62  -9.1232     38.3474    166.0592   1.3278226948e+02   3.6519960005e+01    0.1763863    0.1351726 -73.10 0.0003204932    1.110    0.099
        63 -10.3078     97.1867    162.5116   1.1679297040e+02   2.9060709045e+01    0.5048735    0.4271539 -85.79  0.002208675    1.208    0.172
        64  -9.3024     14.1956    232.0000   1.4438958507e+02   2.3841752914e+01    0.1451611   0.06061109  35.82 0.0007362498    2.503    0.600
        65  99.0000     27.3754    211.3028   1.4021974955e+02   2.6955691397e+01      1.68535     1.120001 -52.98  0.009862086    1.805    0.446
        66  -7.6736     71.4638    163.4754   1.2378596309e+02   3.2925103790e+01    0.1460054    0.1303763 -83.40 0.0003396175    1.032    0.031
        67  -7.8291    133.7858    145.0222   1.0348683578e+02   2.6341404991e+01    0.2143137    0.1265103 -50.18 0.0008389921    1.668    0.401
        68  -7.9783    196.7024    171.0087   9.4776895488e+01   7.4600085744e+00     0.209837    0.1779589 -43.22 0.0004836632    1.139    0.122
        69  -8.8842    161.4716    128.3183   9.2758026529e+01   2.4159969937e+01    0.4707105    0.3339926 -84.66  0.001944996    2.021    0.505
        70  -7.8765    105.3674    127.0702   1.0688340694e+02   3.6247901602e+01    0.2121871     0.187861 -55.33 0.0004750378    1.096    0.088
        71  -8.5865    185.4943    116.9862   8.4818833084e+01   2.1123186269e+01    0.2168054    0.1253063 -64.18 0.0005091676    2.352    0.575
        72  -8.4089    211.3321    158.8304   8.9257040307e+01   7.0682064280e+00    0.2267645    0.1981611  64.10 0.0005519829    1.307    0.235
        73  -9.3983    196.7205    107.2609   8.0330596521e+01   2.0508401129e+01    0.2552448    0.2491161  81.22 0.0005390003    1.101    0.091
        74  -7.6899    170.4172    158.4675   9.7728526925e+01   1.5523033237e+01    0.1539595    0.1486144 -61.99 -4.265027e-05    1.029    0.028
        75  -7.6589    110.4777    157.4871   1.1228124386e+02   2.7918870943e+01    0.1544421    0.1472784 -80.37 0.0002023861    1.002    0.002
        76  -8.0032    181.1083    104.9080   8.2750002440e+01   2.4541424186e+01      0.22375    0.1946432 -80.55 0.0003144975    1.174    0.149
        77  -8.0303    135.1947    106.1629   9.3468881205e+01   3.4805780183e+01    0.2110208    0.1823444 -79.44 0.0005256124    1.298    0.230
        78  -8.0603    122.6359     95.8091   9.3925224454e+01   3.9668886471e+01     0.208751    0.1865697  32.44 0.0005711027    1.138    0.121
        79  -8.5251     94.9657     93.4877   1.0116410639e+02   4.5656335511e+01    0.2089834    0.1423979  39.58 0.0003131957    1.493    0.330
        80  -8.4835    109.9490     84.0921   9.4065541464e+01   4.4618739856e+01    0.2116998    0.2043412   4.84 0.0003215553    1.009    0.009
        81  -8.1997    104.3952     82.2845   9.5121585698e+01   4.6076868249e+01    0.2545164    0.1697679  33.19 0.0006679186    1.561    0.359
        82  -8.1780    182.1917     78.0743   7.5846862488e+01   2.9234232582e+01    0.3077842      0.17276  35.91  0.001195565    2.691    0.628
        83  -8.1734    101.5017    156.5502   1.1447120320e+02   2.9784020840e+01    0.2636653     0.250358  25.46 0.0006959214    1.163    0.140
        84  -8.2823     81.2370     77.0350   1.0064115707e+02   5.1329347333e+01     0.221796    0.1778113 -10.41 0.0008654422    1.297    0.229
        85  -7.6062    171.3571     67.2979   7.5061308808e+01   3.3602268673e+01    0.1449343    0.1098951  30.74  0.000703502    1.703    0.413
        86  -8.4340    105.0265    154.4851   1.1310697551e+02   2.9660738075e+01    0.3676107    0.2568622  47.34 0.0009601682    1.469    0.319
        87  -8.5694    155.1581     65.0903   7.7598831759e+01   3.7811195520e+01    0.2126757    0.1896246  37.26 0.0003793465    1.213    0.175
        88  -8.1287    144.5161     57.4972   7.7675757328e+01   4.1486699537e+01    0.1411105    0.1304733  66.43 -0.0001134819    1.019    0.019
        89 -11.2089    165.7347     50.5903   7.1685002911e+01   3.7466805307e+01    0.7724294     0.285264  53.91  0.003001546    2.440    0.590
        90  -7.4857    128.2755     54.3332   8.0358026015e+01   4.5682725625e+01    0.1387342    0.1046247  19.54  0.000302618    1.601    0.375
        91  -9.4178    172.1640     48.0798   6.9938342254e+01   3.6285779061e+01     0.240393    0.1787955  68.60 0.0004726795    1.222    0.182
        92 -11.0311    177.5737     43.7325   6.7970871304e+01   3.5592488333e+01    0.5709774    0.3561057 -12.56  0.002578431    2.724    0.633
        93 -11.1984    179.2948     35.9140   6.5765817892e+01   3.6201500043e+01    0.5723844    0.4392687  62.63  0.002914667    1.212    0.175
        94  -9.0937     78.1213    227.5985   1.3123250791e+02   1.6611730266e+01    0.1253708   0.07840124 -82.58 0.0003157452    1.680    0.405
        95 -12.3641     81.6201    223.4268   1.2998371080e+02   1.7004248824e+01    0.2588355    0.1946838  67.13  0.001138777    1.214    0.176
        96 -10.6356      8.1856    220.8048   1.4474410562e+02   2.6859686992e+01    0.1263665   0.09229752   8.68 0.0007638736    2.434    0.589
        97  99.0000     10.7483    215.8146   1.4390166307e+02   2.7696273684e+01    0.2793444    0.1497028  31.06  0.001575048    2.261    0.558
