#   1 NUMBER                 Running object number                                     
#   2 MAG_AUTO               Kron-like elliptical aperture magnitude                    [mag]
#   3 X_IMAGE                Object position along x                                    [pixel]
#   4 Y_IMAGE                Object position along y                                    [pixel]
#   5 X_WORLD                Barycenter position along world x axis                     [deg]
#   6 Y_WORLD                Barycenter position along world y axis                     [deg]
#   7 A_WORLD                Profile RMS along major axis (world units)                 [deg]
#   8 B_WORLD                Profile RMS along minor axis (world units)                 [deg]
#   9 THETA_WORLD            Position angle (CCW/world-x)                               [deg]
#  10 FWHM_WORLD             FWHM assuming a gaussian core                              [deg]
#  11 ELONGATION             A_IMAGE/B_IMAGE                                           
#  12 ELLIPTICITY            1 - B_IMAGE/A_IMAGE                                       
         1  99.0000    126.2133    103.1838   5.7405460070e+01   3.6892875825e+01     7.261345     5.467449 -10.66   0.03357484    1.721    0.419
         2 -15.1457    231.3197     41.0444   2.3776507062e+01   2.3786997315e+01     1.782952    0.4999906 -30.06   0.00735945    2.756    0.637
         3 -18.1935    239.8576     58.1192   2.6989719934e+01   2.0267107736e+01     8.262329     4.359928 -23.20   0.03892339    1.775    0.437
         4 -15.0735    247.2354      7.3390   1.5223744556e+01   2.4197176206e+01     1.265543    0.5484533 -50.34  0.007186126    1.802    0.445
         5 -14.7980    215.7410     26.5883   2.1470477692e+01   2.8456316783e+01     1.847001     1.402391   6.60   0.01111849    1.749    0.428
         6 -12.4934    159.4632     33.0548   2.8955760889e+01   4.0690164540e+01    0.7862869    0.2955531 -21.50 0.0005550671    3.185    0.686
         7 -12.9464    152.9055     26.2365   2.7599175956e+01   4.3147135903e+01     1.079979    0.2678818  70.40  0.003246088    4.148    0.759
         8 -11.9468    135.1051     16.1585   2.6481941275e+01   4.8857552427e+01    0.3251444    0.2066745  -5.39  0.001115639    1.996    0.499
         9 -11.7819    126.6179     16.3245   2.7813676389e+01   5.1081837054e+01    0.3369544    0.2121983 -47.28 0.0009037682    1.611    0.379
        10 -12.4226    156.3140     11.2300   2.2194745133e+01   4.3841176565e+01    0.6385371    0.3211825  -6.27  0.002615015    2.808    0.644
        11 -11.0718    211.6073     13.1771   1.8387712538e+01   3.0672605513e+01    0.3602852    0.1908068 -64.15  0.001126889    1.841    0.457
        12 -11.5458    208.4873      7.2092   1.7059842598e+01   3.1898389107e+01     0.290064    0.1969896  -2.82  0.001006254    1.914    0.477
        13 -10.2135     81.6618     10.0746   3.4314696195e+01   6.3522459262e+01    0.1854434    0.1744555  -4.59 0.0003658395    1.125    0.111
        14 -11.7111    181.4818      3.8744   1.7821049884e+01   3.8310754206e+01    0.6092282    0.3217744 -71.94  0.002981545    1.899    0.473
        15  -9.8796    126.4243      2.1856   2.2251287729e+01   5.2436997382e+01     0.191573    0.1174061 -38.98 0.0006700729    1.623    0.384
        16  -9.6645    106.6605      2.3273   2.5094832206e+01   5.7695509423e+01    0.1513719   0.09646402 -61.67 0.0007051608    1.733    0.423
        17 -11.2021    183.5282    212.1209   6.6469368336e+01   8.0985144534e+00      0.25666    0.1283889  17.71   0.00134528    2.047    0.511
        18 -11.9923    200.4890    164.5163   5.5314110976e+01   1.2423205954e+01    0.3543987    0.2580161 -66.96  0.001779326    3.065    0.674
        19 -11.3333    187.7930    174.8051   5.9514008603e+01   1.2795442528e+01    0.2145539    0.2093426  16.17  0.001336196    1.414    0.293
        20 -12.4894     20.0002    158.4199   9.9959013172e+01   3.9591901069e+01    0.6431091    0.2656279  75.09  0.002636718    2.724    0.633
        21 -12.5684     16.7887    149.9391   1.0037639426e+02   4.1910315247e+01    0.4547074    0.2446716  89.72  0.002234729    1.811    0.448
        22 -13.7540    192.4951    154.8749   5.4877164113e+01   1.5082110506e+01    0.6214048    0.5338688  54.50   0.00389188    1.592    0.372
        23 -11.7318    189.6713    148.3491   5.4082794481e+01   1.6544509981e+01    0.2302908    0.2018254  63.26  0.001407536    1.617    0.381
        24 -12.4337    225.4151    204.4504   5.8078304454e+01   3.9457686358e+00     0.611552    0.2877879 -14.69  0.003269104    2.405    0.584
        25 -12.3975    172.7938    149.9072   5.7638803278e+01   1.9115160336e+01    0.4614757    0.2082296 -41.23  0.002024821    2.217    0.549
        26 -11.5803    211.5676    150.2167   5.0672622941e+01   1.2800309730e+01    0.2437074    0.1431935 -32.11 0.0007445583    1.525    0.344
        27 -11.3925    207.7966    150.7964   5.1408524925e+01   1.3294286670e+01    0.1797262    0.1704241  -4.06 0.0007318714    1.288    0.223
        28 -13.5233     66.4177    141.1173   8.3645782507e+01   3.8737808983e+01     1.696752     1.141057  48.94  0.006743637    1.452    0.311
        29 -13.5551     36.9619    148.6670   9.3959335160e+01   4.0399580311e+01    0.5232844    0.4094545  12.98  0.001393884    1.431    0.301
        30 -14.1451     44.9499    145.3995   9.1070564840e+01   4.0355795449e+01     0.852221    0.6800282 -84.85  0.002484065    1.249    0.199
        31 -11.4812    133.7874    146.0374   6.5512809423e+01   2.6650820127e+01     0.767816    0.2423939 -53.13  0.002333199    4.323    0.769
        32 -10.3450    132.4624    138.4789   6.4264496364e+01   2.8405652988e+01    0.2786288     0.173312 -49.63  0.001161516    1.713    0.416
        33 -10.7017    144.2497    146.7479   6.3163061959e+01   2.4655995493e+01    0.4077721    0.2628398 -76.51  0.001533668    3.612    0.723
        34 -13.6995     51.5882    143.6097   8.8726721664e+01   4.0031692882e+01    0.7271859    0.5061856 -85.81  0.001681305    1.520    0.342
        35 -11.2301     25.4788    141.0206   9.6924041739e+01   4.3402073755e+01    0.2581488    0.1694054  87.56  0.001339159    1.488    0.328
        36  -9.3469    219.2769    142.3294   4.7877030047e+01   1.2728117330e+01    0.1251918   0.08298485  -3.76 0.0003905658    1.595    0.373
        37 -11.6156    201.0856    141.0349   5.0559864411e+01   1.5789903862e+01    0.3019092    0.1711902 -29.13 0.0006983784    1.624    0.384
        38 -11.4883    228.6488    186.9066   5.4681365605e+01   5.6395235065e+00     0.187489    0.1430742  19.05 0.0003327917    1.281    0.219
        39 -13.7431    203.0674    131.9605   4.8315233270e+01   1.6818355418e+01    0.8072626    0.3431138 -37.35  0.003645693    2.140    0.533
        40  -9.3740    201.6898    183.2892   5.8507541900e+01   9.6098555086e+00   0.09940875   0.09670681  32.48 0.0002222787    1.580    0.367
        41 -12.3814    161.0038    128.4715   5.5451812697e+01   2.4971934315e+01    0.4180258    0.3874665 -33.34  0.001468446    1.116    0.104
        42  -9.5561     93.4193    126.5110   7.2499601438e+01   3.8061993146e+01     0.146073    0.1436184  17.18 0.0001221319    1.037    0.035
        43 -12.0514    212.3408    123.3075   4.4973842548e+01   1.6525344914e+01    0.3611847    0.2209605 -46.23  0.001348085    1.815    0.449
        44 -13.6339    247.3147    164.0569   4.7924068236e+01   6.0657417518e+00     1.046462    0.4549752 -33.24  0.005855513    1.960    0.490
        45 -12.3212    172.5139    123.9620   5.2058602715e+01   2.3580877089e+01    0.3670158    0.3224949 -85.93  0.001637555    1.540    0.351
        46 -14.7544    195.6730     86.8656   3.9012814230e+01   2.4966081608e+01     2.127732    0.6218674  44.00  0.006861928    4.527    0.779
        47  -9.6498    177.2722    121.6192   5.0594567983e+01   2.3076935483e+01      0.13632    0.1062524 -62.32 0.0006996947    1.699    0.412
        48 -12.6581    166.3929    116.6593   5.1562090397e+01   2.6033254203e+01    0.7344745    0.4508971  19.59   0.00313903    2.340    0.573
        49 -12.0612    175.6965    111.7014   4.8543844264e+01   2.5047672982e+01     0.621996     0.370243   6.02  0.002339833    3.273    0.695
        50 -13.1372    244.1889    169.3860   4.9316076077e+01   5.8217717966e+00    0.7221833    0.3376402 -44.38  0.003585831    3.182    0.686
        51 -12.5450    248.7508    171.0121   4.8964477052e+01   5.0727941980e+00    0.4723789    0.2047543 -36.77  0.001962087    2.218    0.549
        52 -12.6869    176.3840    172.4809   6.1276441186e+01   1.4863576215e+01    0.4700372    0.2746953 -26.40  0.002455525    1.778    0.438
        53 -12.8299    232.5262    207.9805   5.7525348951e+01   2.7356125189e+00    0.4123887    0.2390881  -6.27  0.002044159    1.538    0.350
        54 -15.0407    174.4258     82.6089   4.1313163630e+01   3.0087250033e+01     1.463923     1.115024   3.76  0.002275129    1.648    0.393
        55 -12.4693    193.5731    166.3069   5.6884225307e+01   1.3196267626e+01    0.3755655    0.3181251  89.03  0.002201677    2.256    0.557
        56 -11.6777    148.8260    104.9859   5.2386901733e+01   3.1747168000e+01    0.3204684    0.3152267 -86.61 0.0005911261    1.100    0.091
        57 -11.3746    143.3351     80.0796   4.6666000792e+01   3.7536923183e+01    0.3080455    0.2502403 -51.42 0.0007618355    1.257    0.205
        58 -10.6403    162.4655     66.0896   3.8720728407e+01   3.5385616761e+01    0.2169369     0.136744 -33.35  0.000332555    1.521    0.343
        59 -11.2935    185.6707     59.3979   3.3223224495e+01   3.1029670628e+01    0.4511138    0.2200577 -24.56  0.001485534    2.165    0.538
        60 -13.4171      3.7100    164.2363   1.0497558060e+02   3.9452451201e+01     0.583371    0.3390948  50.46  0.002519864    1.449    0.310
        61 -10.4547    192.6353     47.2550   2.9022418731e+01   3.1067631249e+01    0.2571173    0.1820718 -27.59 0.0004756955    1.348    0.258
        62 -12.3158    192.0724     51.7937   3.0322947515e+01   3.0615758047e+01    0.3639743    0.2615277 -53.49 0.0004611408    1.340    0.254
        63 -10.9346    187.5388     51.5309   3.0807569900e+01   3.1662670885e+01    0.2741819    0.2082041 -59.91 0.0007390595    1.320    0.242
        64 -12.0131    175.2742     48.5072   3.1546585097e+01   3.4884866987e+01    0.3542212    0.2788783  66.71 0.0007355808    1.327    0.246
        65 -12.2476    191.4456     37.9865   2.6612128367e+01   3.2463587624e+01    0.5841966    0.2465355 -38.62  0.002130308    1.998    0.499
        66 -10.7872    195.9159     36.0545   2.5628161603e+01   3.1685144231e+01    0.3732141    0.1701358 -27.79  0.001685319    2.025    0.506
        67 -14.0398      5.8306    158.7725   1.0414577160e+02   4.0589689722e+01    0.8422853    0.4566809  52.85  0.004478192    1.587    0.370
        68 -11.7704    166.7842     39.0367   2.9851401743e+01   3.8143533189e+01     0.364606    0.2184423 -28.25   0.00109279    1.642    0.391
        69 -11.5992    166.5761     35.2080   2.8695877895e+01   3.8667997563e+01    0.3795049    0.2674639 -10.27  0.001290739    1.705    0.414
        70 -14.0608    232.6477    198.6910   5.6023028228e+01   3.7728773944e+00    0.6854774    0.4366531  10.31  0.004664134    1.337    0.252
        71 -11.9624    123.6768     37.3933   3.6538148717e+01   4.9289663184e+01    0.3156919    0.2813733 -72.75  0.001089301    1.143    0.125
        72 -11.6047    148.9872     34.2932   3.0872543741e+01   4.3181845420e+01    0.2089457    0.1880525  78.43  0.001177853    1.091    0.084
        73 -12.1729    133.8775     31.1114   3.2225154379e+01   4.7474172659e+01    0.3056667    0.2150414 -21.55 0.0009535739    1.546    0.353
        74 -11.4262    249.5610    203.3328   5.4259329704e+01   1.3849177882e+00     0.194683    0.1108045  22.95  0.001355881    1.598    0.374
        75  -9.8330    174.3304     25.9396   2.4954749201e+01   3.7852510737e+01    0.1815543    0.1623928 -32.03 0.0004599953    1.144    0.126
        76 -10.0828    177.9539     21.4376   2.3246154608e+01   3.7464718150e+01    0.2102498    0.1575324 -31.55 0.0006967262    1.284    0.221
        77  -9.6169    189.3844     19.8429   2.1760541115e+01   3.4940524131e+01    0.1660024    0.1203487  -9.26 0.0004271927    1.634    0.388
        78  -9.8353     78.8559     17.8515   3.9327958544e+01   6.3323931965e+01    0.1871301     0.160483 -52.01 0.0005243788    1.287    0.223
        79 -12.6459    192.5634    194.7953   6.2085337854e+01   9.2674698969e+00     0.868522    0.4962057 -58.67  0.003294681    5.927    0.831
        80 -11.5496    204.9803    198.4946   6.0495941139e+01   7.1573945042e+00    0.2890375    0.1513052 -32.86  0.001682936    1.858    0.462
        81 -12.0833    248.2081    195.0712   5.3124070622e+01   2.4202893082e+00    0.3374755    0.1736932  -5.71  0.002007934    2.020    0.505
        82 -10.3787    225.5459     24.7716   2.0343619535e+01   2.6651227541e+01    0.1640118    0.1558678  82.01 0.0005475808    1.253    0.202
        83 -12.0092    249.9209    186.7151   5.1498822207e+01   3.1500647220e+00    0.4536454      0.13852 -30.53  0.002229712    2.785    0.641
        84 -12.3785    245.5235    184.7144   5.1787627343e+01   3.8788768602e+00    0.2588645    0.2054682  21.08  0.001365527    1.417    0.294
        85 -11.2806    242.7117    230.9846   5.9442148175e+01  -7.4466200552e-01    0.1428325   0.09633614  -5.19 0.0004061048    1.092    0.084
        86 -11.3474    231.3430    214.5524   5.8726496077e+01   2.1406169984e+00    0.1707055    0.1365535  18.52  0.001056359    1.444    0.307
        87 -15.1195    212.9241     79.4977   3.4834633778e+01   2.2599173763e+01     1.021767    0.8181224 -26.35  0.003303978    1.120    0.107
