#   1 NUMBER                 Running object number                                     
#   2 MAG_AUTO               Kron-like elliptical aperture magnitude                    [mag]
#   3 X_IMAGE                Object position along x                                    [pixel]
#   4 Y_IMAGE                Object position along y                                    [pixel]
#   5 X_WORLD                Barycenter position along world x axis                     [deg]
#   6 Y_WORLD                Barycenter position along world y axis                     [deg]
#   7 A_WORLD                Profile RMS along major axis (world units)                 [deg]
#   8 B_WORLD                Profile RMS along minor axis (world units)                 [deg]
#   9 THETA_WORLD            Position angle (CCW/world-x)                               [deg]
#  10 FWHM_WORLD             FWHM assuming a gaussian core                              [deg]
#  11 ELONGATION             A_IMAGE/B_IMAGE                                           
#  12 ELLIPTICITY            1 - B_IMAGE/A_IMAGE                                       
         1 -12.2844     75.0510     53.9783   7.1297252202e+01   5.6891378048e+01    0.8688492    0.7198752   1.69  0.002582549    1.150    0.131
         2 -10.3788     63.0075     34.6682   6.8387858029e+01   6.2026621436e+01    0.9705807       0.5242  19.55    0.0033651    2.320    0.569
         3 -11.3332     60.1877     46.2210   7.4068342184e+01   6.0700228917e+01     1.803021    0.6761719 -39.47  0.007378589    2.637    0.621
         4 -13.1215     42.8719     45.1863   8.1010936282e+01   6.3374692744e+01    0.7033061    0.5906695  43.12 0.0009314522    1.575    0.365
         5 -12.3811     58.2141     29.8448   6.8273136169e+01   6.3514576011e+01    0.5883489    0.3118663 -19.16  0.001127727    2.211    0.548
         6 -12.3501    119.9531     57.5615   5.8719759497e+01   4.7108574802e+01     2.207666     1.300552 -69.49  0.007657759    3.828    0.739
         7 -10.9029    105.9033     20.2831   4.9411495056e+01   5.5153184900e+01    0.4800823    0.4265814 -58.59  0.002057431    1.363    0.266
         8 -12.7947    119.3677     37.8021   5.2331881092e+01   5.0070237578e+01    0.8867792    0.6319218 -70.37  0.002754154    1.983    0.496
         9 -11.6941    165.4891     17.7027   3.7988852116e+01   4.1453811040e+01    0.6616049    0.3943215  25.56   0.00308503    2.782    0.641
        10 -12.4193    125.0605     27.7044   4.7709197481e+01   4.9964443746e+01    0.7406636    0.4756432  59.21   0.00287464    1.388    0.279
        11 -10.9994    183.2861     25.4594   3.7750649804e+01   3.6447722405e+01    0.6198622    0.3136008  47.39  0.002749501    2.331    0.571
        12 -10.8511     79.7725     35.2181   6.2555967815e+01   5.8888114933e+01     0.865818     0.561722 -25.32  0.004617879    1.613    0.380
        13 -10.5134    147.6744     16.4811   4.0168157598e+01   4.5797684708e+01    0.5912271    0.3271766  39.95  0.002874953    2.104    0.525
        14 -11.5421    135.6821     23.4320   4.4270156999e+01   4.7931592173e+01    0.8492707    0.4280964  51.81  0.003531329    1.759    0.431
        15 -11.9881    134.9806     15.0117   4.1767742545e+01   4.8947816522e+01     1.645678     0.580645  75.16  0.005423064    4.105    0.756
        16 -10.3817    127.0203     16.5287   4.3665951419e+01   5.0674754497e+01    0.4467058    0.2709793  78.53  0.001835739    1.810    0.447
        17 -10.6950    198.8403     29.0176   3.6809031952e+01   3.2483512087e+01    0.4329182    0.3772168 -40.72  0.002832142    1.270    0.213
        18  -9.2541     13.9206     23.2889   8.6670324869e+01   7.0212898769e+01    0.6744811    0.4535585  33.76  0.002630193    1.889    0.470
        19 -12.3914     36.1130     17.2800   7.2354627926e+01   6.8571837954e+01     0.594025    0.3701997 -30.00  0.003597888    1.562    0.360
        20 -11.6361     26.3329     28.0939   8.2087730481e+01   6.8206842391e+01    0.4492644     0.317132 -39.94  0.001707922    1.462    0.316
        21 -11.9005     20.0916     21.3590   8.2448390475e+01   6.9924426365e+01    0.6551986    0.2337359 -39.65  0.002244989    2.487    0.598
        22 -12.4997     17.2211     12.4658   7.9903140233e+01   7.1531053266e+01    0.6854547     0.457742 -10.25  0.003949949    1.240    0.194
        23 -11.6307     23.1258     11.4523   7.6147094513e+01   7.1008267861e+01    0.9816183    0.4309545  12.73  0.004196097    3.416    0.707
        24 -11.9814     48.5227     12.9381   6.4686493209e+01   6.7238827151e+01    0.6436155     0.272779  43.14  0.002291319    2.173    0.540
        25 -10.0567     86.5826      7.4094   4.9343020937e+01   6.0575350745e+01    0.7020382    0.2862201  56.18  0.003254461    2.073    0.518
        26 -10.9787     90.8012     20.8166   5.3511414250e+01   5.8390937876e+01    0.5611897    0.3289869 -27.84  0.002811725    1.868    0.465
        27 -11.3537     85.8440     14.4322   5.2376116391e+01   6.0086228363e+01    0.6680428    0.3986664  15.45  0.002643627    2.034    0.508
        28  -9.9974     78.2638      7.4533   5.1673795472e+01   6.2297215451e+01    0.2180809    0.1575943  53.09 0.0008576697    1.279    0.218
        29 -10.9468     74.9404      3.4921   5.0954928287e+01   6.3308204504e+01    0.4665684    0.2811102  53.36  0.002390952    1.454    0.312
        30 -10.9850    178.6966     21.1103   3.7212189998e+01   3.7997721260e+01    0.5505067    0.2319315  49.38  0.002125295    2.671    0.626
        31 -11.9971     68.3476     18.0632   5.9401167065e+01   6.3186683539e+01    0.5487228     0.377426  41.53  0.002625831    1.285    0.222
        32 -10.2068     47.1731     19.6232   6.8384182749e+01   6.6646448718e+01    0.2918785    0.2214694 -14.46    0.0018804    1.231    0.188
        33 -12.4866    246.9757      6.6252   2.8089097623e+01   2.4970047282e+01     1.126155    0.5031228 -27.34  0.005782451    2.990    0.665
        34 -11.4154    241.8089      3.7350   2.7871314591e+01   2.6272341651e+01    0.3718993    0.2181031  63.49  0.002370529    1.881    0.468
        35 -11.2926    232.7355      7.4608   2.9179645054e+01   2.7674527938e+01    0.3040946    0.2087639 -71.98  0.001175745    1.181    0.153
        36 -10.8788    233.2063      2.7428   2.8229766514e+01   2.8071736936e+01    0.1986158    0.1663152 -60.50 0.0006946459    1.196    0.164
        37 -12.0304    237.3707     16.1212   3.0546167876e+01   2.5801742871e+01    0.4800439    0.3389354  66.39  0.003028587    1.544    0.352
        38 -11.6095    227.4218     15.4218   3.1160203555e+01   2.7891673412e+01    0.5149622    0.3042972  88.20  0.001266959    1.562    0.360
        39 -10.5171    211.1615     17.5193   3.2968369804e+01   3.1088262468e+01    0.3292902    0.1639743 -32.96  0.001728996    2.107    0.525
        40 -11.9045    192.2523      9.0577   3.2814813557e+01   3.6151797197e+01    0.8016146    0.4571464 -17.71  0.001840904    2.499    0.600
        41 -12.1346    104.8290     12.5749   4.6859505178e+01   5.6142594206e+01    0.5117494    0.3740453 -27.08  0.001846961    1.557    0.358
        42  -9.0358    108.5372      5.9543   4.3674808111e+01   5.5878444806e+01    0.2197573    0.1841464 -14.09 0.0007112367    1.379    0.275
        43  -9.7858    116.6126      2.2567   4.0839781389e+01   5.4328015600e+01    0.2079467    0.1835129 -17.02 0.0008290921    1.335    0.251
        44 -10.8297    106.1473      1.8555   4.2692177258e+01   5.6739458312e+01    0.9726233    0.1990428  66.17  0.002838029    5.287    0.811
        45  -9.8295      5.1707     12.5501   8.7020866606e+01   7.2638148449e+01    0.2558385    0.1672428  18.66  0.001734834    1.529    0.346
        46  -9.2240      5.3380      9.3191   8.5399077277e+01   7.3108227748e+01     0.178076    0.1034737 -22.94 0.0007379219    1.405    0.288
        47 -11.4446    211.7333      9.8107   3.1249798879e+01   3.1793214125e+01    0.4735246    0.3354289   7.93  0.002192317    2.622    0.619
        48 -10.9452    218.8593      2.8906   2.9245718000e+01   3.0991144845e+01    0.2952501    0.2428887 -44.83 0.0008287544    1.329    0.248
        49 -11.8435    223.9894      2.0382   2.8709781002e+01   3.0012956620e+01    0.6053947    0.2621781 -89.45  0.002380698    2.322    0.569
        50  -9.9989     65.8032     10.4606   5.6936972778e+01   6.4461810525e+01    0.2578506    0.1698955  47.94  0.001231488    1.401    0.286
        51  -9.7284     62.7519      6.8399   5.6353698683e+01   6.5381263778e+01    0.2767653    0.1767495  23.25  0.001505357    1.453    0.312
        52  -9.8606    169.0397      9.4921   3.5378546474e+01   4.1433753191e+01    0.3463945    0.1342687  51.84  0.001508627    2.601    0.616
        53  -9.5569    163.1326      9.1434   3.5994719477e+01   4.2848502025e+01    0.3470001    0.1676459 -24.68  0.001694324    2.466    0.595
        54  -9.4773      1.2027      7.7839   8.7252230888e+01   7.3665325237e+01    0.2560051   0.07053316 -46.19 0.0009551374    3.239    0.691
        55 -11.1343      2.4475      1.9948   8.3558338673e+01   7.4393625669e+01    0.2790612    0.1534759   2.04  0.001471185    1.669    0.401
        56  -9.7498     12.3161      1.5213   7.7147040791e+01   7.3508735742e+01    0.4645205    0.1343704  32.37  0.002136635    3.259    0.693
        57 -10.9006    183.9783      4.8869   3.2628389340e+01   3.8425946402e+01     0.376278    0.3354528  -5.29  0.002034897    1.507    0.337
        58 -11.1103    177.1036      5.9101   3.3574407653e+01   3.9902244662e+01    0.4488476    0.1963665  82.48  0.000924356    2.310    0.567
        59  -9.2716    157.5804      6.9234   3.6084961618e+01   4.4355115860e+01    0.1575734    0.1207731   1.72 0.0004817416    1.767    0.434
        60  -9.3982    157.4116      3.2327   3.5098357698e+01   4.4717982374e+01    0.2068511    0.1481155 -45.66 0.0007912007    1.499    0.333
        61 -11.3814    153.1895     25.4392   4.1909648459e+01   4.3547377182e+01    0.6452826    0.4920302  71.38  0.003754294    1.180    0.153
        62 -10.3584     41.2644      4.6380   6.3753800717e+01   6.9301021515e+01     0.328615    0.1830492   7.25  0.001275973    2.035    0.509
        63 -11.8482    134.5142      2.8298   3.8075977634e+01   5.0124756988e+01    0.5003659    0.2712404  80.19  0.001955616    1.867    0.464
        64  -8.4595    126.3100      5.2726   4.0149053314e+01   5.1844804522e+01      0.12932   0.08067016  43.51 0.0003053017    1.549    0.355
        65  -9.8085    122.2504      5.0738   4.0780118158e+01   5.2804716231e+01    0.2164917    0.1521238  62.95 0.0006166609    1.196    0.164
        66  -9.9554    142.9211      3.6003   3.7088315491e+01   4.8089111852e+01    0.3169888    0.1827447  74.28  0.001698202    1.535    0.349
        67 -10.8015    205.2417      2.2704   3.0151165370e+01   3.3951124989e+01    0.4452058    0.1876413  83.45  0.001506421    2.273    0.560
        68  -9.4157    151.7308      1.2798   3.5259566039e+01   4.6212135280e+01     0.327738    0.1035762  75.78   0.00121505    3.266    0.694
        69  -9.0641    123.1716      1.3246   3.9394596864e+01   5.2885847603e+01    0.1865848    0.1029587  76.46 0.0006675109    1.784    0.440
        70 -10.6684     82.1946      1.3243   4.8015255473e+01   6.1992183381e+01    0.1976173   0.09427246  55.15 0.0003330864    1.725    0.420
        71  -9.0445     99.7511     30.4071   5.4681282457e+01   5.5381194013e+01    0.1878929    0.1112954  44.86 0.0004528405    1.493    0.330
        72 -10.1769    143.0890    249.8677   9.5564815567e+01   2.5065680663e+00     0.198378    0.1579975  43.92  0.001232549    1.239    0.193
        73 -11.1512     46.7891    146.4298   1.0458835431e+02   3.9698897710e+01    0.5873173    0.3572837 -54.98  0.002599251    1.497    0.332
        74  -9.1629    104.8225    142.8205   8.6689903917e+01   3.2129384894e+01    0.2060573    0.1805207 -89.13 0.0003518414    1.289    0.224
        75  -9.5653    132.8780    140.4021   7.8415841268e+01   2.7398962716e+01    0.2867071    0.2180484 -57.99  0.001323886    1.398    0.285
        76 -10.4480    217.0839    138.3835   5.9489611766e+01   1.1024525556e+01     0.328655    0.2432001 -44.99  0.001074353    1.260    0.206
        77 -10.4347     70.2710    139.1788   9.6213760031e+01   3.8590780615e+01    0.2462998    0.1695383 -42.06 0.0007359313    1.482    0.325
        78 -10.2139     46.9869    135.8434   1.0282006744e+02   4.2386841080e+01    0.5587265    0.2048296 -64.55   0.00157555    2.484    0.597
        79 -10.9608     22.8086    127.0110   1.0904623256e+02   4.6941529347e+01    0.2496223    0.2195253  52.31 0.0003206354    1.276    0.216
        80  -9.7691     32.5860    137.7096   1.0756124580e+02   4.3385643048e+01    0.3463565    0.2437663  53.64  0.001337626    1.580    0.367
        81 -11.4386     23.5287    135.2458   1.0997695744e+02   4.4806074370e+01    0.5996932    0.4334027  41.02  0.003393733    1.535    0.349
        82 -11.5818     29.9973    132.8628   1.0764631462e+02   4.4854304136e+01    0.4899118    0.3561337 -71.42 0.0003885807    1.223    0.183
        83  -9.9017     80.2284    137.2426   9.2782212210e+01   3.7614649948e+01    0.4546613    0.2754233 -24.09  0.001769049    2.471    0.595
        84  -9.4832     38.4645    133.2870   1.0506490427e+02   4.3942325513e+01    0.2519968    0.1753231  70.30 0.0009414814    1.712    0.416
        85  -9.9133    245.0195    134.7175   5.4171000534e+01   6.7715159090e+00    0.1779959    0.1590766 -31.29 0.0004546448    1.074    0.069
        86 -10.2059     39.1781    137.5272   1.0551303826e+02   4.2788819753e+01    0.3835963    0.2106964  45.56  0.001038938    2.030    0.507
        87 -10.3558     74.2231    132.6537   9.3685933516e+01   3.9676741282e+01    0.3376576    0.2309923 -33.33  0.001548459    1.642    0.391
        88 -10.1866     61.5042    132.3937   9.7631642347e+01   4.1510250565e+01    0.4290674    0.2912281   9.60   0.00200529    1.859    0.462
        89  -9.7121    103.8574    130.9018   8.4279842937e+01   3.5217789305e+01    0.2280888    0.2039921 -16.73 0.0002983657    1.187    0.158
        90 -10.2334     93.0825    129.6403   8.7208924251e+01   3.7427099858e+01    0.3545065    0.2311389 -71.41  0.001477533    1.941    0.485
        91 -10.7221      9.5785    128.3354   1.1335092070e+02   4.7560136421e+01    0.4721833    0.2799266 -59.46   0.00256065    1.395    0.283
        92 -10.0192     81.5165    125.5434   8.9856617940e+01   4.0344230632e+01    0.3662198    0.2432825   1.33  0.001521608    2.195    0.544
        93  -9.9087     41.0269    126.5997   1.0312934404e+02   4.5381463740e+01     0.260921    0.1778168 -57.94 0.0003762375    1.285    0.222
        94  -9.9368     49.5850    123.1194   9.9691681944e+01   4.5327815465e+01    0.2989371    0.2399291 -22.76   0.00100692    1.372    0.271
        95 -11.0238     44.6084    118.6457   1.0048792394e+02   4.7009464364e+01    0.5687177    0.3543941 -81.90   0.00203141    1.957    0.489
        96  -9.4978     53.4953    125.0365   9.8779049589e+01   4.4382886698e+01    0.3262353    0.1968948 -59.04  0.001525752    1.494    0.331
        97  -9.6759     56.4722    122.4790   9.7293412012e+01   4.4662846291e+01    0.2631769    0.2079597 -39.08 0.0008330515    1.241    0.194
        98  -9.8367      2.0093    125.8580   1.1537282734e+02   4.8624771180e+01    0.2299757    0.1566681 -77.54 0.0008240558    1.237    0.192
        99 -12.7777    103.7123    122.3896   8.2280045193e+01   3.7294452944e+01    0.4210125    0.3783451  -6.14 0.0006137525    1.185    0.156
       100 -10.2599     18.9591    122.5710   1.0963306459e+02   4.8351037467e+01    0.2438262    0.1681301 -68.43 0.0004146801    1.235    0.190
       101  -9.2351     71.3327    120.8868   9.2074733668e+01   4.3049323334e+01    0.2118867    0.1798828 -46.40 0.0005534588    1.103    0.093
       102  -8.7783    221.4643    120.4989   5.4817099396e+01   1.3459809428e+01    0.1400604    0.1230275 -43.07 0.0001769957    1.026    0.025
       103  -9.9557     34.0153    118.5064   1.0402288802e+02   4.8112280917e+01    0.1873798    0.1061941 -21.19 0.0008082548    2.405    0.584
       104  -9.4985    113.7056    116.0834   7.7745056677e+01   3.6861655810e+01    0.3057432     0.190996 -43.72  0.001297991    1.575    0.365
       105 -11.7874      9.5363     97.3845   1.0894316748e+02   5.5145627880e+01    0.7327436    0.5911703 -79.77 0.0006185604    1.254    0.202
       106 -11.9155      7.3930     88.8483   1.0826753410e+02   5.7286712964e+01    0.6205539    0.4307863  13.81  0.001998268    1.678    0.404
       107 -11.0032     18.6854    106.0348   1.0712791276e+02   5.2463483699e+01    0.2692582    0.2201122 -36.19  0.000182527    1.196    0.164
       108 -12.0539     42.2624     85.6891   9.3986999010e+01   5.5200528463e+01     1.009103    0.4502958  19.04  0.003353936    2.656    0.624
       109 -11.3981     26.5174     86.2725   1.0031026382e+02   5.6580750617e+01    0.7315695    0.5240573  22.36  0.004189984    1.558    0.358
       110 -12.0769     17.3864    100.8583   1.0669294018e+02   5.3812649271e+01    0.5167392     0.310848  11.24  0.000659856    1.957    0.489
       111 -12.1881     24.9781    108.0967   1.0527617890e+02   5.1481795685e+01     1.179267    0.6614756 -11.20   0.00546424    2.404    0.584
       112 -11.7358     22.7847     94.8619   1.0357466329e+02   5.4859422866e+01    0.4124722    0.2814771  -1.91 0.0007632225    1.687    0.407
       113 -11.4951     18.3881     90.3781   1.0434791561e+02   5.6244503497e+01    0.4095711    0.2717644 -61.54 0.0007365441    1.305    0.234
       114 -11.2502     22.0413    114.2923   1.0734377458e+02   5.0181654756e+01     1.179939    0.4069611   8.76  0.003966585    4.799    0.792
       115 -11.5711     28.0688    113.3164   1.0512698638e+02   4.9937185116e+01     0.544385    0.3781937  23.22  0.002983111    1.634    0.388
       116 -10.5047      7.1569    114.3952   1.1232777350e+02   5.1154673454e+01    0.2847207    0.2371398 -58.63  0.001315248    1.053    0.051
       117 -12.5289      2.1844    111.3789   1.1356441346e+02   5.2162575877e+01    0.4054011    0.2186754 -79.22  0.000470575    1.696    0.410
       118 -11.5313      4.8453    106.3623   1.1198620192e+02   5.3242445859e+01    0.5946682    0.3678371 -88.36  0.003196082    1.711    0.416
       119  -9.4076     79.1290    114.3399   8.7999706372e+01   4.3470762359e+01    0.2774295    0.1917908 -42.42  0.001298463    1.395    0.283
       120  -9.5456     67.0040    114.4827   9.2053124571e+01   4.5252672549e+01    0.3244384     0.219055  55.94  0.001479335    1.885    0.470
       121  -9.5898     67.1643    110.0205   9.0952685868e+01   4.6319246229e+01    0.4612018    0.2959225 -37.97  0.002131883    1.570    0.363
       122  -9.2161    126.9688    113.5125   7.3342945599e+01   3.4746892933e+01    0.2338873    0.1548603  40.99 0.0005410954    1.531    0.347
       123 -10.7098    108.4980    112.2017   7.8259282699e+01   3.8773523567e+01    0.5847827    0.4644138  89.80  0.002695981    1.713    0.416
       124 -10.8246    103.1608    111.5033   7.9678662523e+01   3.9957148322e+01    0.5629252    0.4306449 -88.36  0.002514816    1.870    0.465
       125  -9.2816    103.1912    105.8209   7.8154069241e+01   4.1251469441e+01    0.4793918    0.3311009  49.89  0.001437577    1.589    0.371
       126  -9.4643     94.1389    112.6759   8.2769208670e+01   4.1340492374e+01    0.2680999    0.2120375 -62.38  0.001104877    1.369    0.269
       127 -10.1582     49.0748    112.2182   9.7667246489e+01   4.8111993408e+01    0.3523707    0.2580492 -33.67  0.001829799    1.383    0.277
       128 -10.5854    170.5098    110.5791   6.1994605781e+01   2.5904042926e+01    0.3891743    0.2867352 -38.79  0.001278161    1.322    0.244
       129  -9.9261    120.1510    109.3203   7.4118755289e+01   3.7091118684e+01    0.2761747    0.2088835 -33.57 0.0007235564    1.365    0.267
       130 -11.5459     79.6537    108.1540   8.6289431203e+01   4.4871057739e+01    0.6249406    0.3409575  28.12 0.0007490399    2.026    0.507
       131 -10.1731    131.5609    111.0781   7.1461403295e+01   3.4315049542e+01     0.487615    0.3286806  80.39  0.001831615    2.642    0.622
       132  -9.5384    157.3793    106.2937   6.3798270216e+01   2.9672109240e+01    0.2414095    0.1874979   3.15 0.0007031172    1.706    0.414
       133 -10.4912    143.4569    106.0043   6.7043811515e+01   3.2818886901e+01    0.3068188    0.3010457 -68.00  0.001326191    1.047    0.045
       134 -11.3937    145.6691    100.3130   6.4964329375e+01   3.3495986795e+01    0.4271557    0.3374829 -30.40 0.0005958553    1.325    0.245
       135 -11.1909     49.3386    101.4178   9.5179398603e+01   5.0715200933e+01     1.058518    0.4068801 -37.80  0.003644453    3.187    0.686
       136 -10.6326     49.3469     91.2097   9.2686932317e+01   5.3121909765e+01    0.3456037    0.3115765  56.78  0.001525857    1.351    0.260
       137 -11.6899     88.7850    104.2884   8.2280449005e+01   4.4242975407e+01    0.5184825    0.3465129  36.22 0.0009216895    1.537    0.349
       138  -9.8017     57.2653    102.4569   9.2581266891e+01   4.9488501047e+01    0.2785501    0.1875144 -52.96 0.0008229425    1.362    0.266
       139 -11.1538     89.7143     89.7657   7.7900247842e+01   4.7318104695e+01    0.6720119    0.4108313 -24.76  0.002448545    2.074    0.518
       140  -9.8271     82.5061     93.4768   8.1382725311e+01   4.7777156342e+01    0.2998561    0.2297862 -13.80 0.0008679494    1.473    0.321
       141 -10.9482     78.2472     92.9960   8.2702272190e+01   4.8597643459e+01     0.502151    0.4267812   8.35  0.002682636    1.216    0.177
       142 -10.1014     80.5125     98.4793   8.3450712093e+01   4.6985164072e+01    0.3179585    0.2521618 -33.57 0.0009560325    1.228    0.186
       143  -9.9741     77.6682     96.7095   8.3934936770e+01   4.7854869154e+01    0.2796402    0.2148901  -7.56 0.0007465626    1.495    0.331
       144 -11.1593     67.7903     95.6867   8.7105944921e+01   4.9620546597e+01    0.5150483    0.4230913   9.95  0.002345122    1.284    0.221
       145  -9.9408    210.9340     97.5730   5.1322439832e+01   1.9616145626e+01     0.419885    0.2635478  25.39   0.00177615    2.750    0.636
       146  -9.1156     98.5120     97.9982   7.7440088573e+01   4.3890831588e+01    0.3023093    0.1926143  74.57  0.001037021    3.405    0.706
       147  -9.4837    120.6430    101.6471   7.1883520531e+01   3.8663972134e+01    0.2458694    0.1875493  -2.22  0.001101092    1.694    0.410
       148 -10.3563     42.9920     94.6609   9.5926488194e+01   5.3039715613e+01    0.3452324    0.3067969   5.02  0.001663334    1.193    0.162
       149 -12.3700     34.8362     94.0313   9.8851778834e+01   5.4020022562e+01      1.28889    0.8507476 -43.64  0.006852649    1.328    0.247
       150 -10.0919    116.9630     94.2066   7.0820102503e+01   4.1009950119e+01    0.4099291    0.2900537 -17.83  0.001800361    1.786    0.440
       151 -10.4913    119.7504     85.5361   6.7495499840e+01   4.2173664538e+01      0.37197    0.2562486  36.29   0.00170924    1.490    0.329
       152 -11.1666    124.5864     93.9533   6.8619296311e+01   3.9438166108e+01    0.6712024    0.3710307  47.60  0.002035124    1.829    0.453
       153  -9.2327    160.9965     94.0025   5.9734345930e+01   3.1267172802e+01    0.2415427    0.1853182 -82.31 0.0007258162    1.678    0.404
       154 -10.7221    152.5695     92.0179   6.1072122430e+01   3.3568653706e+01    0.4069694     0.330681  22.20  0.002003782    1.444    0.308
       155 -10.6958    121.0139     89.0469   6.8181159317e+01   4.1203388983e+01    0.3998075    0.2988069 -18.24  0.001133148    1.586    0.369
       156 -10.7661     98.6373     91.1251   7.5423337719e+01   4.5355940614e+01    0.3246338    0.2527339  39.68  0.001609373    1.298    0.230
       157 -10.1288     66.5287     88.8368   8.5677334807e+01   5.1360317818e+01    0.3251314    0.2244997  -6.40  0.001048298    1.796    0.443
       158 -10.5440    183.2766     85.1095   5.2980751076e+01   2.7807650170e+01     0.854037    0.2919912 -49.32  0.002726435    3.438    0.709
       159 -10.5069    104.6647     86.8352   7.2281587115e+01   4.5064562052e+01    0.5348275     0.312824 -16.90  0.001909526    2.942    0.660
       160 -11.0491    113.9067     83.8497   6.8643405671e+01   4.3755348926e+01    0.5092474    0.3795745 -60.52  0.002397946    1.630    0.387
       161 -10.6013    109.1932     80.7962   6.9088038815e+01   4.5344533971e+01    0.3492946     0.323011 -23.73 0.0009167906    1.075    0.070
       162 -10.9141    142.8316     84.4674   6.1229559576e+01   3.7224272704e+01    0.5394438     0.312347  38.98  0.001892231    1.885    0.469
       163 -10.6286     80.4562     83.7369   7.9234405047e+01   5.0240885775e+01    0.4562744    0.3203305 -30.71  0.002218741    1.447    0.309
       164 -11.6490     75.2482     79.8731   7.9890026185e+01   5.1930821078e+01    0.7116016    0.5200544  60.13  0.001758096    1.923    0.480
       165 -10.0449     75.5002     75.4767   7.8428538800e+01   5.2793567938e+01    0.2620139    0.2280264  11.03   0.00114604    1.113    0.102
       166 -10.0992    165.5105     83.6743   5.6011245671e+01   3.2132541586e+01    0.3334263    0.2602146 -60.46  0.001227935    1.372    0.271
       167 -10.3750     67.1491     82.2552   8.3548050486e+01   5.2711075778e+01    0.4031202    0.2902374 -38.22  0.002067726    1.302    0.232
       168  -9.4275     46.8440     75.9219   8.9503192716e+01   5.6844315076e+01    0.2731023    0.1736731 -41.58  0.001397508    1.401    0.286
       169 -10.5493     60.5641     83.6099   8.6393579088e+01   5.3379214690e+01    0.2742213     0.239737 -50.13 0.0002684195    1.184    0.155
       170 -11.5914     53.4690     76.1095   8.6925984954e+01   5.5969281563e+01    0.6423939     0.389408 -47.39  0.003172945    1.527    0.345
       171 -10.9611     58.3596     77.6141   8.5472914423e+01   5.4985581738e+01    0.3430794    0.2868287 -30.74 0.0007335885    1.082    0.076
       172  -9.6732    127.5416     83.0326   6.4643170613e+01   4.0950792229e+01    0.2387311    0.2036107  44.42 0.0007398999    1.155    0.134
       173 -10.0140      1.4336     80.2565   1.0903929787e+02   5.9571286318e+01    0.3419632    0.1087191 -65.22 0.0009659543    2.451    0.592
       174 -11.5660      2.0896     71.3138   1.0704497818e+02   6.1557514256e+01    0.6031173    0.2215377 -65.57  0.002592682    2.314    0.568
       175 -11.8883      9.8827     62.2013   1.0156830261e+02   6.3129500243e+01     0.558706     0.319792 -40.97  0.001257839    1.404    0.288
       176 -13.0919      4.3369     61.7452   1.0395637300e+02   6.3535869804e+01    0.3358782    0.2743111 -51.90 0.0005783375    1.132    0.116
       177 -10.9363    103.4032     75.6069   6.9207484986e+01   4.7541218530e+01    0.6623142      0.36588 -50.03  0.002759452    2.063    0.515
       178  -9.0077     30.0933     80.2018   9.7438499892e+01   5.7659432568e+01    0.1603227    0.1498213 -80.46 0.0003652502    1.292    0.226
       179 -11.6445     13.8910     74.5782   1.0278484908e+02   6.0176056533e+01    0.5452694    0.3856404 -71.00  0.002431059    1.495    0.331
       180  -9.9357     13.8113     67.4700   1.0113713396e+02   6.1748369289e+01    0.4493343    0.2365118   9.19  0.002336168    2.125    0.529
       181  -9.8578    233.1489     77.4639   4.3682120931e+01   1.8411770484e+01    0.2652137    0.2032159 -44.03  0.001099149    1.162    0.140
       182  -9.9865     94.8158     76.3315   7.2126833815e+01   4.9115789943e+01    0.5887951    0.3732761  33.58  0.002435845    1.605    0.377
       183 -11.5922     85.3505     73.2462   7.4270716388e+01   5.1506189235e+01     1.040197    0.6704878  53.42  0.004753036    1.921    0.480
       184 -11.0455     75.9826     63.7577   7.4398800138e+01   5.4987217454e+01    0.5594358    0.3140094 -49.63  0.001397385    2.033    0.508
       185  -9.8166    174.8280    247.1384   8.8586523739e+01  -1.6558500880e+00    0.2347509    0.1940197  16.44  0.001522375    1.018    0.018
       186 -10.0548    126.8113     77.0126   6.3032422206e+01   4.2239541842e+01    0.2629366    0.2181263  32.10 0.0006402925    1.232    0.189
       187 -12.2104    186.3680     70.6960   4.8778029871e+01   2.9514756455e+01    0.8606073    0.5467057 -42.74  0.003016086    1.513    0.339
       188  -9.4765     24.7471     74.3569   9.8176285468e+01   5.9427553504e+01    0.5850441    0.2549879 -33.77  0.002231893    2.375    0.579
       189 -11.3357     40.5384     71.8385   9.0889116589e+01   5.8449890223e+01    0.5313185    0.2916916 -52.95  0.001984602    1.707    0.414
       190 -11.5821     35.0246     72.0429   9.3244963895e+01   5.8990346874e+01    0.5939893    0.2467731  27.59  0.002366964    2.522    0.604
       191  -9.9433     62.9491     74.2757   8.2693985788e+01   5.5026685700e+01    0.5475093      0.29826  49.97  0.001427099    2.612    0.617
       192 -10.1720    153.7226     72.6322   5.5404843548e+01   3.6804357426e+01    0.3575627     0.220033  36.03  0.001226092    1.954    0.488
       193 -11.7630    122.9384     69.1495   6.1629972584e+01   4.4512586695e+01    0.5135719     0.454347  33.23  0.001522914    1.109    0.098
       194  -9.4093    162.1179     70.9078   5.3207524065e+01   3.5120723848e+01    0.2294344    0.1916039 -78.48 0.0007783928    1.306    0.234
       195  -8.9170     19.6358     71.7206   9.9675981134e+01   6.0410782905e+01    0.1380278   0.07897013 -29.83 0.0007012507    1.677    0.404
       196  -9.5908    172.1909     68.7958   5.0730137322e+01   3.3102364578e+01    0.2729369    0.2140215 -29.98 0.0007652784    1.378    0.274
       197 -10.3649    170.0444     63.6043   4.9721239604e+01   3.4428510375e+01    0.4838982    0.3177784 -86.01  0.001961795    2.053    0.513
       198 -11.3157    219.5283     66.7152   4.3021204690e+01   2.2834313226e+01    0.6020805     0.290309  63.75  0.002807292    2.204    0.546
       199 -10.6448     72.8849     47.5024   6.9697197951e+01   5.8348935776e+01      0.74366    0.4245228  40.80  0.002218604    1.692    0.409
       200 -10.6085     59.1127     63.0190   8.0534503280e+01   5.7846342318e+01    0.4959902    0.3235258 -46.82  0.002176536    1.559    0.358
       201  -9.6718    192.4151     65.7354   4.6570868246e+01   2.8917456206e+01    0.2571872    0.1937924 -75.67 0.0006813396    1.416    0.294
       202  -9.3620    163.7775    243.7889   9.0368742643e+01   4.9399643268e-01    0.1672714    0.1449337  46.30 0.0006820327    1.344    0.256
       203 -11.4317    127.8216    241.9400   9.7763521649e+01   6.1736612279e+00    0.4306652    0.3183203  31.42  0.002438562    1.183    0.155
       204 -11.3522     26.6545     47.4527   8.9337703516e+01   6.4797857094e+01    0.4768075    0.2474747 -17.05 0.0009945689    2.302    0.566
       205 -10.9215     20.8914     46.3433   9.1736050847e+01   6.5537900829e+01    0.5216495    0.2819452 -23.85  0.002314912    1.830    0.453
       206  -8.2583     23.8149     37.9063   8.7284654105e+01   6.6818151789e+01     1.239243    0.6073681  47.72  0.004791852    4.906    0.796
       207 -11.6610     24.8447     57.6965   9.3503680710e+01   6.2958529031e+01    0.8978575     0.586318  31.85   0.00512233    1.772    0.436
       208 -10.9692     33.5018     52.9924   8.8039536618e+01   6.3043981699e+01    0.6545793    0.2038833  27.38   0.00207212    3.275    0.695
       209 -11.5801     53.7193     50.3379   7.8254897037e+01   6.0979879185e+01    0.5837364    0.3693117  45.01 0.0009571786    1.945    0.486
       210  -9.8176     68.0068    240.5047   1.1047126074e+02   1.4894907995e+01    0.1898776    0.1097448  35.15 0.0008222738    1.579    0.367
       211 -11.1382     40.8390     57.0186   8.6123894206e+01   6.1439614275e+01    0.4821896    0.2609709  34.72  0.001538651    2.006    0.502
       212  -9.7915    167.7523    237.9866   8.8661442523e+01   8.8225689758e-01    0.1581222    0.1092542 -40.97 0.0008866594    1.591    0.371
       213 -11.6201     49.2431     30.6125   7.2339115972e+01   6.4827014934e+01    0.6561102    0.2420541  35.68  0.002833068    2.579    0.612
       214 -11.7306     52.2269     61.8977   8.2936353311e+01   5.9040869669e+01    0.3790648    0.3595283 -65.90 0.0009849961    1.382    0.276
       215 -11.5493     43.5215     61.9943   8.6609072223e+01   6.0139781654e+01    0.2813242    0.2245353 -36.32 0.0003431418    1.142    0.124
       216 -11.6518     46.6173     58.7781   8.4228923151e+01   6.0387388568e+01    0.4331853    0.3098542 -47.29 0.0006247138    1.421    0.296
       217  -8.7123    201.4801     64.5160   4.4934935865e+01   2.7069130024e+01    0.2840832    0.1687934  61.91 0.0006988016    1.708    0.414
       218  -9.4116    198.3183     62.6462   4.4935456570e+01   2.8057575924e+01    0.2398086    0.1857464 -86.32 0.0008108081    1.331    0.249
       219  -9.8912     84.4406     61.2926   7.0586495255e+01   5.3902569728e+01    0.2716018     0.250884  21.63 0.0006781602    1.082    0.076
       220 -11.3511     91.5313     62.8873   6.8773433880e+01   5.2258684609e+01    0.8656001    0.4048613  46.87  0.003538172    2.168    0.539
       221 -10.3687     91.8781     57.6820   6.6871914700e+01   5.3087870153e+01    0.3830939    0.2755973  50.57  0.001498751    1.471    0.320
       222 -10.6124     87.6473     56.6705   6.7898322221e+01   5.4089815472e+01    0.5348698    0.2211875 -34.36  0.001547136    2.590    0.614
       223  -8.9258     21.6782     64.6650   9.6943746870e+01   6.1778070025e+01    0.1407845   0.07749023 -30.92 0.0007050257    1.707    0.414
       224 -11.4369    234.5500     61.0680   4.0009031045e+01   2.0589168430e+01    0.3777963    0.3346674 -81.00  0.001400036    1.120    0.107
       225 -10.1581    158.9689     62.5888   5.1502662704e+01   3.7203489616e+01    0.5560578    0.1954905  47.64  0.001929111    2.946    0.661
       226 -11.1693    147.2942    237.2728   9.2909266747e+01   4.0898985347e+00    0.6314521    0.2452943  40.42  0.002654164    2.317    0.568
       227 -11.5508    113.7859     38.1972   5.3814595551e+01   5.1292446602e+01    0.4864193    0.3451591  48.89 0.0008879754    1.270    0.213
       228 -10.2446    247.2408    231.3577   7.2202789684e+01  -8.9167793527e+00    0.1972192    0.1435657 -21.58 0.0006428754    1.192    0.161
       229 -12.2544    117.9242     44.0477   5.4775350070e+01   4.9569543819e+01    0.8288911    0.4928739  64.20  0.002786512    1.848    0.459
       230  -9.6350     23.8046    231.8236   1.1891953107e+02   2.1845101223e+01    0.1728153     0.109276  62.59 0.0008561587    1.329    0.248
       231 -11.8794    106.5015     32.3184   5.3594267534e+01   5.3666242943e+01      0.58153    0.3196803  20.36  0.002381755    2.836    0.647
       232 -12.3945    113.7310     25.3040   4.9367706593e+01   5.2849051658e+01    0.8338867    0.3161994  52.38  0.002832729    2.196    0.545
       233  -9.7015     64.9986     61.3804   7.7675483018e+01   5.7258009638e+01    0.2867735    0.1603243 -42.66 0.0009872271    1.752    0.429
       234 -10.0004    150.9965     60.9641   5.2624838203e+01   3.9346511671e+01    0.2202047    0.1944662  37.35 0.0006531882    1.191    0.161
       235 -11.1021    106.2739     58.5698   6.2788280714e+01   4.9961157865e+01    0.4213349    0.3096255  75.38  0.001419219    1.942    0.485
       236 -11.0861    136.5246     56.7282   5.4462477586e+01   4.3416060360e+01    0.6585046    0.4177675   8.10  0.002640398    2.792    0.642
       237 -11.2188    145.8314     47.7415   4.9771353322e+01   4.2525973059e+01    0.9007522     0.409766 -22.71  0.002920503    3.115    0.679
       238 -10.4142    145.4862     39.9781   4.7514963202e+01   4.3649199369e+01     0.255202    0.1879827 -64.22  0.001337538    1.569    0.363
       239 -10.2993    242.5241    231.4992   7.3049876627e+01  -8.3713273916e+00    0.2360286    0.1043949  31.10  0.001224613    2.213    0.548
       240 -11.0124    156.7216     52.8119   4.9158843345e+01   3.9210173503e+01     1.127276    0.6104699 -45.18  0.005075152    1.927    0.481
       241 -10.7958    160.4426     43.4286   4.5836499114e+01   3.9624941177e+01    0.6489385    0.2556195  63.76  0.002178966    2.463    0.594
       242 -11.0544    155.6033     42.4631   4.6399721497e+01   4.0908374254e+01    0.3884085    0.3562659  88.30   0.00115172    1.052    0.050
       243 -12.9468    153.0243     35.7565   4.4914421839e+01   4.2380651189e+01    0.4138788     0.324526  75.81 0.0004789025    1.218    0.179
       244 -11.9803    159.2766     30.3692   4.2357194683e+01   4.1535089692e+01    0.5395512    0.4321819  80.12  0.003173775    1.166    0.142
       245 -11.2249    164.3202     27.6136   4.0835753899e+01   4.0653830455e+01    0.2668239    0.2230465  73.45 0.0005792599    1.071    0.066
       246 -10.0113    238.0897     55.9251   3.8549566428e+01   2.0617904558e+01    0.2111292    0.1579377 -42.87 0.0002858424    1.244    0.196
       247 -10.4731    240.2972     50.6445   3.7234889175e+01   2.0914168982e+01    0.2594946    0.2097937 -42.98 0.0009448134    1.236    0.191
       248 -10.0416     66.9126     54.6004   7.4548450351e+01   5.8180047902e+01    0.3452686    0.1874604 -46.13  0.001453642    2.003    0.501
       249 -10.6194    198.1303    233.1536   8.1664403606e+01  -2.7581053972e+00    0.3186415    0.2763034 -78.01  0.001927852    2.027    0.507
       250 -10.5096    139.6299     48.6697   5.1315953075e+01   4.3868678280e+01    0.4706872    0.2231305  32.74   0.00160105    3.612    0.723
       251  -9.4964    211.6720     52.6060   4.0792816148e+01   2.6570750370e+01    0.2670023    0.1788903 -58.42  0.001468958    1.403    0.287
       252 -10.2711    207.6512     45.6139   3.9666238724e+01   2.8412390355e+01    0.4573613    0.2309815 -83.40  0.001614286    2.970    0.663
       253  -9.8996    201.6463     53.0525   4.2166585398e+01   2.8715497901e+01     0.394169    0.2836059  49.92  0.001850764    1.573    0.364
       254  -9.7980    201.6925     48.6724   4.1117468753e+01   2.9317043216e+01    0.2213258    0.1878703 -30.62 0.0008107195    1.340    0.254
       255 -11.2918    201.3925     45.4107   4.0380688136e+01   2.9828338850e+01    0.5425289    0.2648157  81.41  0.002319837    2.571    0.611
       256 -10.9662    174.3289     48.2262   4.4877908488e+01   3.5678305094e+01    0.5402307    0.3308434  76.51  0.002601383    1.748    0.428
       257 -10.0228     91.6316     48.6095   6.3735765346e+01   5.4597502404e+01    0.2540196    0.2269444 -60.39   0.00094487    1.418    0.295
       258 -10.8322     12.7097     48.1516   9.6319644612e+01   6.5829895815e+01    0.3622266    0.1691045 -34.23  0.001663831    1.862    0.463
       259  -9.5025     17.4236     42.0379   9.1984089573e+01   6.6642948474e+01    0.3038721    0.1550636 -18.39   0.00131286    2.133    0.531
       260  -9.6766      2.0890     48.4063   1.0161338652e+02   6.6422248913e+01    0.2647591    0.1921895 -66.39  0.001694541    1.521    0.342
       261  -9.7226      5.8193     42.7588   9.8101391091e+01   6.7332190265e+01    0.4247681    0.1572542 -33.17  0.001960228    2.454    0.592
       262  -9.7524     10.9839     30.6943   9.1247454777e+01   6.9208364376e+01    0.2702968    0.1784756  -9.99  0.001427776    1.342    0.255
       263  -9.6677      5.9902     30.9856   9.4079046645e+01   6.9516701306e+01    0.4876856    0.1931448 -20.83  0.002128605    3.111    0.679
       264  -9.2919      3.6737     39.2974   9.8128874514e+01   6.8123720805e+01    0.1814231    0.1543758  46.39 0.0007431137    1.734    0.423
       265 -10.3243      5.7162     36.1467   9.6026018765e+01   6.8593382341e+01    0.3082233    0.2295786   7.90  0.001630184    1.382    0.276
       266 -10.4360    245.3684     51.2445   3.6866663007e+01   1.9845067446e+01    0.2139229    0.1588582  79.07  0.001148368    1.390    0.280
       267 -10.7440    134.9470     45.7426   5.1404379728e+01   4.5383347603e+01    0.4186895    0.1939507  58.09 0.0007071415    2.020    0.505
       268 -10.1596    139.0573     43.7966   4.9939053744e+01   4.4676138740e+01    0.3092896    0.2173341  39.94   0.00108083    1.480    0.324
       269  -9.5617    176.4658     43.3442   4.3261564440e+01   3.5836398328e+01    0.2549961    0.1618131  72.15 0.0008042855    1.539    0.350
       270 -10.1045    189.0897     39.7936   4.0589600380e+01   3.3363033107e+01    0.5219119    0.1792657 -25.47  0.001713604    4.601    0.783
       271 -10.6877     94.1113     41.2053   6.0274696089e+01   5.5175456959e+01     0.658157    0.2393089  48.43  0.002550866    2.501    0.600
       272  -9.4811     86.2704     30.9451   5.8793300670e+01   5.8154680321e+01    0.1888818     0.182164  19.65  0.001216945    1.173    0.148
       273 -10.1434    231.6534     39.2129   3.5702827502e+01   2.4166055841e+01    0.2464208    0.1489468 -54.32 0.0008609982    1.430    0.301
       274  -9.4606    217.4078     39.2574   3.7136355245e+01   2.7134904659e+01    0.1814123    0.1001661 -47.47 0.0009545289    1.617    0.382
       275 -10.8629    189.0788     27.5125   3.7564590455e+01   3.4876285620e+01    0.3227504    0.2961889  13.86  0.001589368    1.436    0.304
       276  -9.4733     15.3332    233.6431   1.2070669938e+02   2.2318973865e+01    0.2120635    0.1245231 -78.66  0.001003613    1.577    0.366
       277 -11.0497    176.7787     36.5429   4.1436097771e+01   3.6640107879e+01    0.4164299    0.3472716 -16.03  0.002448586    1.488    0.328
       278 -11.0860    174.3716     31.6732   4.0498376329e+01   3.7802546160e+01    0.5953523    0.2416573  48.90  0.001542396    2.724    0.633
       279  -9.4301    193.9508     38.4911   3.9647940438e+01   3.2417915046e+01    0.1868682    0.1180245  66.09 0.0004804491    1.503    0.335
       280  -9.2172    183.8466     38.1443   4.0873097590e+01   3.4786781986e+01    0.2000653    0.1560662 -75.82 0.0007179869    1.244    0.196
       281  -9.2960    206.6562     37.0715   3.7810374817e+01   2.9750460945e+01     0.174438    0.1490603 -56.75 0.0006356594    1.121    0.108
       282  -9.8288    132.8153     36.7581   4.9024737895e+01   4.7066953746e+01    0.3096065    0.2010636 -79.05   0.00140128    2.293    0.564
       283  -8.9873     47.9673     37.0746   7.5579904010e+01   6.4031883289e+01    0.1435989    0.1185798  -8.84            0    1.051    0.049
       284  -9.4797    233.8087    223.3970   7.3203957369e+01  -6.1146650893e+00    0.1696155    0.1003368  17.24 0.0009430616    1.655    0.396
       285 -10.2388    125.6316     21.1083   4.5426270187e+01   5.0542176499e+01    0.5100211    0.2375674  73.62  0.002083737    2.628    0.619
       286  -8.9509    153.3091    219.3336   8.8832227572e+01   6.4824629698e+00    0.1410688    0.1016057  -5.85 0.0004820553    1.673    0.402
       287 -10.1259    157.4117     20.2771   3.9807947970e+01   4.3098060814e+01    0.4103315    0.1804769  59.57  0.001881202    1.948    0.487
       288 -10.8196    138.8773     31.7100   4.6247952607e+01   4.6244052198e+01    0.5045576    0.3111268 -12.01   0.00236765    2.209    0.547
       289 -10.8885    144.0145     24.9933   4.3281336618e+01   4.5783533796e+01      0.70526     0.242523  49.99  0.002742883    2.703    0.630
       290 -10.3024    164.6701    212.2230   8.5126806962e+01   6.0060572914e+00    0.2603983    0.2065981  33.11 0.0006486457    1.195    0.163
       291  -8.6730      3.3260    213.2587   1.2196001752e+02   2.7756460191e+01    0.1019814   0.08461116 -51.42 0.0002514837    1.556    0.357
       292  -9.7943    153.0521    207.3262   8.6881762723e+01   8.8753630351e+00    0.2595885    0.2147301 -56.72 0.0007499235    1.398    0.285
       293 -10.7049    240.0775     32.5709   3.3590376556e+01   2.3316333121e+01    0.3908505    0.2661519 -54.88  0.001771268    1.215    0.177
       294 -10.1809    240.6673     26.1748   3.2271487831e+01   2.3980527902e+01    0.2702249    0.1893266 -61.76 0.0009869002    1.160    0.138
       295  -9.3930     61.1307    206.6513   1.0860185824e+02   2.3104404004e+01    0.1842147    0.1601708  47.82 0.0009137464    1.123    0.110
       296  -9.1535     35.8672     31.6355   7.8866982366e+01   6.6521963437e+01    0.1653156    0.1051707  36.62 0.0009343965    1.760    0.432
       297  -9.8369    123.9992    205.9722   9.3427161865e+01   1.3967540819e+01    0.2004023    0.1874646  20.10  0.001165405    1.054    0.051
       298  -9.0784    196.2600    204.9630   7.7104206188e+01   2.2703608983e+00    0.1694182    0.1111216 -38.59 0.0005973408    1.505    0.335
       299 -10.0106     16.7572    203.4874   1.1849036780e+02   2.8733380747e+01    0.3909075   0.09045566 -75.25   0.00139179    3.864    0.741
       300 -10.2756     31.0026     27.2118   7.9356683307e+01   6.7808467302e+01    0.2618082    0.2312211  -6.68  0.001166953    1.250    0.200
       301 -11.4882      5.7144    200.3970   1.2069600023e+02   3.0413644983e+01    0.8278113    0.1546286 -66.84  0.003062533    3.868    0.741
       302 -10.4995    245.6577    200.9994   6.7085812955e+01  -4.2721422028e+00    0.1809031    0.1368787 -22.12 0.0006613174    1.088    0.081
       303 -10.8711    234.3449    196.9639   6.8310253305e+01  -2.0830022941e+00    0.4060066    0.2953651 -13.93  0.001666284    1.222    0.182
       304 -10.2370    230.2111     27.4582   3.3395441162e+01   2.5926949156e+01    0.3480075    0.1601325 -40.39  0.001474283    1.929    0.482
       305  -8.6320    195.3099    199.6793   7.6314254056e+01   3.3707567810e+00    0.1248034    0.1129403  83.56 0.0005046917    1.645    0.392
       306 -10.0663    250.1520     27.3188   3.1761545462e+01   2.2005736962e+01    0.1878467     0.146782 -41.27 0.0008442588    1.353    0.261
       307  -9.6459     97.2481     26.5188   5.3914604363e+01   5.6380459208e+01    0.2319166    0.2049203 -67.89  0.001098067    1.457    0.314
       308 -10.0458    213.7936     24.2676   3.4200994675e+01   2.9753880934e+01    0.3072867     0.221287  74.48    0.0018941    1.313    0.239
       309  -9.2263    216.5208     20.5141   3.3136548686e+01   2.9601878178e+01     0.156782    0.1183817 -23.07 0.0008022307    1.715    0.417
       310  -9.3783    168.8481     23.8649   3.9189069816e+01   4.0003311460e+01    0.2011486    0.1608982  53.04 0.0006429011    1.288    0.224
       311  -9.5084     82.7723    196.2276   1.0205205206e+02   2.2588656083e+01    0.3317453    0.2086933  16.38  0.001503944    2.095    0.523
       312 -10.5039    246.5404    193.2944   6.5503026002e+01  -3.1886682228e+00    0.2421688    0.1059877 -40.77 0.0009674728    2.081    0.519
       313  -9.7888    169.8954    191.1790   8.0141953050e+01   9.2527488836e+00    0.3948674    0.1866357  24.61  0.001441713    2.794    0.642
       314  -8.9102     16.4715    191.5045   1.1766208731e+02   3.1531078311e+01    0.1249425    0.1044163  87.17  1.00677e-05    1.034    0.033
       315 -11.9643      4.2368    185.4677   1.2004011971e+02   3.3976347263e+01    0.5339662    0.4837798 -89.69  0.003368855    1.166    0.142
       316 -10.6259      2.5224    181.4833   1.2016014860e+02   3.5044320784e+01    0.2587804    0.1958228 -74.93  0.001182848    1.180    0.153
       317  -9.3244    223.8578     21.9663   3.2802523955e+01   2.7887953755e+01    0.1696074    0.1499092  78.44 0.0006016604    1.257    0.205
       318  -9.9613    239.8306    184.6624   6.5008148922e+01  -8.6014643877e-01    0.2193794    0.1654705 -11.12 0.0005625155    1.211    0.175
       319  -9.5346     74.5242     19.5378   5.7936393991e+01   6.1842217938e+01    0.2021063    0.1540443  31.98 0.0005921588    1.114    0.103
       320 -10.3012    250.4083    178.6613   6.2083787026e+01  -1.3908487395e+00    0.4456286    0.0993236 -35.54  0.001395203    4.435    0.774
       321 -10.4253     51.8833    173.4527   1.0697018575e+02   3.2250123959e+01    0.5115165    0.2464447 -85.37   0.00197605    2.722    0.633
       322 -10.0035     27.7599    175.9301   1.1354366942e+02   3.4226273306e+01    0.2476935    0.1785119  46.56  0.001429457    1.396    0.284
       323  -9.6211    230.6456    175.4548   6.4810779679e+01   2.0641754646e+00    0.2681535    0.1277526  36.20  0.001228878    2.311    0.567
       324 -10.0098    247.4736    173.9471   6.1651829174e+01  -2.0615945807e-01    0.4126989    0.1679623  27.28  0.001572982    3.945    0.746
       325 -10.8899     35.8256    170.5649   1.1088024105e+02   3.4752901107e+01    0.4265652    0.2707002  87.38  0.001842321    1.602    0.376
       326  -8.8791    170.7280    172.0034   7.6138209477e+01   1.3035110867e+01    0.1866197    0.1269908 -42.75 0.0005894582    1.445    0.308
       327  -8.6864      1.2726     20.6839   9.2853887130e+01   7.1614606119e+01   0.09105285     0.088989 -23.14 0.0004723301    1.561    0.359
       328 -10.1565      9.5304    155.5921   1.1630092526e+02   4.0786932084e+01    0.2566456     0.140162 -78.07   0.00113084    1.553    0.356
       329 -11.8596      9.5605    166.9973   1.1732659901e+02   3.7984278506e+01    0.5368176    0.3749004 -70.09  0.002578462    1.239    0.193
       330 -10.1292    186.4829     15.1609   3.4849905757e+01   3.6836594981e+01    0.2416364    0.1771924  84.03 0.0005758649    1.194    0.163
       331  -9.2604    205.6438     17.4256   3.3455562277e+01   3.2299793299e+01    0.2261011    0.1072961  78.12  0.001122341    2.005    0.501
       332 -11.0286     13.6947    158.0789   1.1542966244e+02   3.9858598714e+01    0.5398725    0.1912753 -66.43  0.002319009    2.235    0.553
       333  -9.2444    198.2700    167.9903   6.9412717838e+01   8.8281882644e+00     0.206689    0.1732645 -28.52 0.0006353926    1.095    0.087
       334  -8.9818    152.2492    166.5863   7.9313943860e+01   1.7662023173e+01    0.2008927    0.1441857  25.71 0.0004153743    1.487    0.327
       335 -10.5417     19.0773    164.9646   1.1468742436e+02   3.7715821579e+01    0.3265948    0.2712037 -21.94  0.001901098    1.538    0.350
       336 -10.2512     75.8607     13.8976   5.5127543406e+01   6.2173902939e+01      0.21789    0.1576769  47.77 0.0003579764    1.255    0.203
       337  -9.9107    204.9713    162.9428   6.7022379035e+01   8.6042598074e+00    0.2520613    0.2022666  21.53 0.0005576366    1.309    0.236
       338 -10.0247    208.4877    160.9561   6.5923328670e+01   8.3575396895e+00    0.5096412    0.1251921 -45.61  0.001476678    4.232    0.764
       339  -9.8125     40.1048    162.6106   1.0876919419e+02   3.6303462166e+01    0.3163464    0.1783282 -88.00  0.001080444    1.961    0.490
       340  -9.3247    156.4549    166.1453   7.8216032981e+01   1.6962441408e+01    0.2206259     0.146974 -45.60 0.0005736671    1.492    0.330
       341 -10.5557     28.1376    162.2145   1.1198609099e+02   3.7594208398e+01    0.3995011    0.2073326 -53.82  0.001915865    1.839    0.456
       342 -10.5744    246.6620    159.9971   5.9037947013e+01   2.2291277486e+00    0.4228711    0.1028913 -36.38  0.001364493    3.893    0.743
       343  -9.6138    224.0867    156.9825   6.2215764002e+01   6.3879250863e+00     0.264127    0.1790809 -48.35  0.001229599    1.514    0.339
       344  -9.4327    215.3809    157.7656   6.3953530584e+01   7.7424310537e+00    0.2088481    0.1186275 -31.04 0.0009496884    1.716    0.417
       345 -10.4830    104.7268    154.0075   8.9068882661e+01   2.9390436565e+01    0.4038296    0.3346627 -27.35  0.002004274    1.333    0.250
       346  -9.4312     33.2267    154.5926   1.0966880080e+02   3.9031365125e+01    0.2536299    0.1767456   6.00  0.001243069    1.875    0.467
       347 -10.5609     31.0233    151.7121   1.0992840105e+02   3.9972207112e+01    0.2967378    0.2779956 -52.67  0.001251111    1.152    0.132
       348 -10.3126     73.4923    152.9555   9.7798648438e+01   3.4621115035e+01    0.5286255    0.2633719  58.14  0.001882244    2.983    0.665
       349 -12.1564     22.7337    148.9831   1.1195368692e+02   4.1402093037e+01    0.6801739    0.3189857 -40.95  0.002938709    2.561    0.610
       350 -11.1672     16.0245    148.0241   1.1374267694e+02   4.2184155749e+01    0.3715473    0.2758342 -87.83  0.001075465    1.219    0.180
       351 -11.8652     12.8773    138.5586   1.1357656320e+02   4.4786377706e+01    0.7748198    0.4542043 -80.04  0.004046449    1.526    0.345
       352 -11.2987      3.3823    152.9755   1.1769861236e+02   4.1857656017e+01    0.5703483    0.3699733 -45.06  0.003274112    1.673    0.402
       353 -10.7029      3.3750    147.0265   1.1715540823e+02   4.3321234293e+01    0.2797776    0.2369764  73.60  0.001399838    1.179    0.152
       354 -11.6808      1.8174    142.0456   1.1711249073e+02   4.4645299488e+01    0.6317208    0.3821961  75.88 0.0007970941    1.699    0.411
       355 -10.6624      5.3395    141.7009   1.1608804054e+02   4.4511456746e+01    0.4828978    0.2357274  71.65  0.001963195    2.486    0.598
       356 -10.8870     62.8810    150.8462   1.0053803753e+02   3.6613204188e+01    0.4694609    0.3141417  -3.34  0.002094425    2.188    0.543
       357  -8.8553     87.2494    151.0168   9.3445171240e+01   3.3041150497e+01     0.195393    0.1250542 -57.26 0.0004530165    1.508    0.337
       358 -10.2363    234.4566    149.7944   5.8949006249e+01   5.9240307144e+00    0.3711753    0.1611091 -30.60   0.00149101    2.474    0.596
       359  -9.4513     41.7577    149.1734   1.0648233749e+02   3.9544897753e+01    0.2549007    0.2146064  26.16 0.0009234431    1.336    0.252
       360 -10.3163    239.6530    146.6269   5.7451475886e+01   5.6163584728e+00    0.2404312    0.1823454 -30.61 0.0006551869    1.135    0.119
       361 -11.1227    249.6245    143.0910   5.5187606046e+01   4.6078954836e+00    0.6303936    0.2132518 -38.85  0.002549965    2.461    0.594
       362 -11.0599     33.2501    144.4486   1.0831877272e+02   4.1607127980e+01    0.4636001     0.312852  40.00  0.001958178    1.597    0.374
