#   1 NUMBER                 Running object number                                     
#   2 MAG_AUTO               Kron-like elliptical aperture magnitude                    [mag]
#   3 X_IMAGE                Object position along x                                    [pixel]
#   4 Y_IMAGE                Object position along y                                    [pixel]
#   5 X_WORLD                Barycenter position along world x axis                     [deg]
#   6 Y_WORLD                Barycenter position along world y axis                     [deg]
#   7 A_WORLD                Profile RMS along major axis (world units)                 [deg]
#   8 B_WORLD                Profile RMS along minor axis (world units)                 [deg]
#   9 THETA_WORLD            Position angle (CCW/world-x)                               [deg]
#  10 FWHM_WORLD             FWHM assuming a gaussian core                              [deg]
#  11 ELONGATION             A_IMAGE/B_IMAGE                                           
#  12 ELLIPTICITY            1 - B_IMAGE/A_IMAGE                                       
         1 -13.1123    195.4857     31.1882   6.6550240827e+01   3.2419076674e+01     1.221145    0.9430894  75.26  0.006703727    1.137    0.121
         2 -13.6806    209.3162     13.8973   6.0805082106e+01   3.1110872973e+01     1.418667    0.9791095  41.17  0.007883353    1.937    0.484
         3 -11.5366      2.1019     13.2614   1.1595908957e+02   7.0721031270e+01    0.6119909    0.1195985 -47.88  0.002471254    4.554    0.780
         4 -10.8409      2.4913      3.3454   1.1165416610e+02   7.2048832757e+01    0.3406305    0.1939836 -11.08  0.002405552    1.457    0.314
         5  -9.9958     15.0279     12.9780   1.0963596338e+02   6.9768437668e+01    0.1339678   0.09673068 -11.94  0.000431767    1.014    0.014
         6 -11.4100    139.6203    249.8354   1.2624744443e+02   3.0737382378e+00    0.4927192     0.192471  45.35  0.002160002    2.104    0.525
         7 -11.4089     81.9590    249.0675   1.3726834491e+02   1.2589558688e+01    0.3794611    0.2063449  58.56  0.002090696    1.582    0.368
         8 -10.8538     65.4395    248.9871   1.4029298215e+02   1.5004455423e+01    0.2623059     0.178993  80.32  0.001686245    1.289    0.224
         9 -10.7688     46.1033    248.8119   1.4370709056e+02   1.7638884061e+01    0.3623677    0.1745764  74.08  0.001611115    2.063    0.515
        10 -13.0938     32.3026    246.8320   1.4593261464e+02   1.9729291475e+01     1.109553     0.666807  40.23  0.007159302    1.783    0.439
        11 -13.8561      6.2345    245.4313   1.5012495180e+02   2.2898871674e+01     2.016417     1.184061 -79.64   0.01426132    1.480    0.325
        12 -13.6740      9.1573    207.2655   1.4730374638e+02   3.0220978380e+01     1.232428    0.7762468 -88.78  0.003654948    1.225    0.184
        13 -15.5381     19.9624    169.3493   1.4189763168e+02   3.7542217851e+01     10.09218     4.467356  73.73   0.04348748    3.028    0.670
        14 -10.3630    237.3311    243.8041   1.0634318409e+02  -1.2258377200e+01    0.2266136    0.1052168 -43.17  0.001098944    2.730    0.634
        15 -13.6234     41.7363    220.4795   1.4221760427e+02   2.3863293785e+01    0.7696983    0.6054053  77.57  0.002531715    1.035    0.034
        16  -8.6271    152.6095    213.1819   1.1809102474e+02   7.4886753559e+00    0.1721452    0.1357069 -36.46 0.0003265621    1.483    0.326
        17 -10.4573    120.1527    239.1294   1.2873088444e+02   8.3327167752e+00    0.1918159    0.1743449  38.70 0.0007157836    1.234    0.190
        18 -11.7171     51.0757    235.4754   1.4175262560e+02   1.9597603677e+01    0.3566977    0.2442442  79.00  0.001406751    1.212    0.175
        19  -9.7468    192.5392    194.1703   1.0603161744e+02   3.4252661210e+00     0.579921    0.2635121 -60.91  0.001483058    6.667    0.850
        20 -11.4018     62.0031    195.6321   1.3552786177e+02   2.6663144894e+01    0.3700365    0.2557051 -45.97  0.001589372    1.863    0.463
        21 -11.6119     68.0367    187.8537   1.3320610551e+02   2.7604123087e+01     0.311041    0.2738115 -43.23 0.0005512243    1.443    0.307
        22  -9.0789    120.4001    188.0999   1.2107371913e+02   1.8892451336e+01    0.3011183    0.1876752  20.98  0.001215962    2.487    0.598
        23 -10.7406     77.7996    175.7901   1.2921350696e+02   2.9000781270e+01    0.2604616    0.2335243 -70.63 0.0004340553    1.125    0.111
        24 -12.9200     64.6455    173.5739   1.3204569146e+02   3.1425691995e+01    0.5107486    0.2837971 -44.83  0.001581301    2.224    0.550
        25 -11.6933     85.2200    166.6330   1.2592714449e+02   3.0034229244e+01    0.6446103    0.5764108  82.91   0.00370609    1.042    0.040
        26 -10.6403    140.3352    230.8990   1.2347231103e+02   6.3480221172e+00    0.2606211    0.1660093  50.43  0.001345361    1.398    0.285
        27 -12.2729     67.5923    143.9136   1.2655516408e+02   3.8138583814e+01    0.7729844    0.5441346  84.06  0.002343745    1.681    0.405
        28 -11.4870     58.0675    133.3214   1.2724807150e+02   4.1936844569e+01     1.303297    0.4665896 -73.45  0.003089724    7.383    0.865
        29 -11.8250     86.6268    150.1013   1.2261012910e+02   3.3791982975e+01    0.2990496    0.2546471 -45.31 0.0005947388    1.237    0.191
        30  -8.8911    134.3526    148.2289   1.0978745468e+02   2.5337512755e+01    0.2219514    0.1461044 -59.29 0.0009402385    1.635    0.388
        31  -8.9600    101.0017    147.0111   1.1818501616e+02   3.2100344695e+01    0.2279322    0.1808845 -20.92 0.0004504725    1.643    0.391
        32  -8.4888    192.0362    144.2612   9.5410112533e+01   1.3493507595e+01    0.1870879     0.133749  45.54 0.0003107215    1.408    0.290
        33  -9.5792    109.7734    136.5622   1.1358595176e+02   3.2981461011e+01    0.3321533    0.2476486 -18.15  0.001488005    1.849    0.459
        34 -10.3519     96.9154    133.6427   1.1644996484e+02   3.6016370000e+01    0.2797865    0.2397323 -27.30 0.0006187377    1.315    0.240
        35 -10.3730     50.1766    129.7976   1.2882310941e+02   4.3724925846e+01     0.259302    0.2084109  84.04 0.0006234977    1.349    0.258
        36 -10.5699     54.9161    230.0450   1.4055927079e+02   2.0187132106e+01     0.380056    0.1667587  62.32  0.001802794    2.296    0.564
        37 -11.6940    127.1371    245.3333   1.2813014120e+02   6.0013044435e+00    0.3952658    0.3110693 -22.67  0.002279611    1.954    0.488
        38  -9.7216     98.1170    151.0386   1.1975943676e+02   3.1640217289e+01    0.2749088    0.2329617 -63.36 0.0006710686    1.132    0.116
        39  -8.8763    106.9088    123.3473   1.1129417779e+02   3.6616740933e+01    0.2017693    0.1861769  39.02 0.0003568897    1.119    0.106
        40 -10.4361    167.9959    113.1040   9.3053962153e+01   2.5534520528e+01    0.3786351    0.3016786 -82.22 0.0008007017    1.531    0.347
        41  -8.7788    203.4946    111.5016   8.5265981652e+01   1.7419539699e+01    0.1502508    0.1480003 -40.52 -3.685339e-05    1.064    0.060
        42 -10.2612    156.5824    228.6099   1.1974724345e+02   3.8314416282e+00    0.2792286    0.1144532  30.80 0.0009616078    3.328    0.699
        43  -9.7743      2.0000     48.0056   1.2727872163e+02   6.5034978244e+01    0.1813828   0.04985114 -57.44 0.0007747364    2.932    0.659
        44 -10.6544    247.8461    249.5029   1.0540587613e+02  -1.4510328174e+01    0.5354239    0.1169413  35.68  0.001926739    4.199    0.762
        45 -12.4396     35.2143    228.9992   1.4413097141e+02   2.2895927043e+01    0.3031421     0.254274 -73.11 0.0007763681    1.415    0.293
        46 -11.2487    109.9953    247.9753   1.3181624662e+02   8.3869157007e+00    0.2930189    0.2132275  80.89  0.001087222    1.454    0.312
        47 -11.4743     97.4014    248.6314   1.3431255456e+02   1.0292232909e+01    0.5266448    0.1545807  48.49  0.002092246    2.822    0.646
