#   1 NUMBER                 Running object number                                     
#   2 MAG_AUTO               Kron-like elliptical aperture magnitude                    [mag]
#   3 X_IMAGE                Object position along x                                    [pixel]
#   4 Y_IMAGE                Object position along y                                    [pixel]
#   5 X_WORLD                Barycenter position along world x axis                     [deg]
#   6 Y_WORLD                Barycenter position along world y axis                     [deg]
#   7 A_WORLD                Profile RMS along major axis (world units)                 [deg]
#   8 B_WORLD                Profile RMS along minor axis (world units)                 [deg]
#   9 THETA_WORLD            Position angle (CCW/world-x)                               [deg]
#  10 FWHM_WORLD             FWHM assuming a gaussian core                              [deg]
#  11 ELONGATION             A_IMAGE/B_IMAGE                                           
#  12 ELLIPTICITY            1 - B_IMAGE/A_IMAGE                                       
         1 -15.1401      9.8642    152.5950   2.9266411160e+02   5.9533612884e+00    0.3362291    0.1461106 -77.84   0.02448936    3.444    0.710
         2 -13.4527    193.2148     28.9325   2.8970299650e+02   6.3440906039e+00   0.06676812   0.06260034  -4.55  0.006566166    1.078    0.072
         3 -13.7101    208.0791      9.2210   2.8940999683e+02   6.4873895676e+00    0.0786826   0.05480412 -14.37  0.007919163    1.724    0.420
         4 -12.4030      2.1759     14.1039   2.9201085985e+02   7.6070981179e+00   0.05453201   0.01856661 -69.76  0.003749753    3.686    0.729
         5 -12.5088      2.2533      4.7830   2.9195931872e+02   7.7148852985e+00   0.07112682   0.03460746  18.07   0.00605398    2.140    0.533
         6 -10.0791     29.4603    249.9844   2.9294446718e+02   4.7087330600e+00   0.01583385   0.01183844  41.96  0.001713212    1.302    0.232
         7 -11.6000    248.0686    249.1530   2.9021744544e+02   3.4711976998e+00   0.02675143   0.01785335  24.42  0.002746132    1.406    0.289
         8 -10.0952    121.6526    250.1683   2.9179651453e+02   4.1818642818e+00   0.01021614  0.008415483  37.85  0.001145707    1.159    0.137
         9 -10.2643    110.4255    250.5258   2.9193832500e+02   4.2417222389e+00   0.01563735  0.006365516  24.97   0.00124435    2.289    0.563
        10 -10.8837     98.7033    249.7054   2.9207995886e+02   4.3180746589e+00   0.01719013   0.01271231  28.13  0.001855061    1.256    0.204
        11 -11.0064     34.7302    245.3675   2.9285392653e+02   4.7325308589e+00   0.03402083   0.01769693 -52.03  0.003110004    1.966    0.491
        12 -10.2807      3.1266    249.4165   2.9326966187e+02   4.8647763227e+00   0.02183456   0.01410172  10.20  0.002141114    1.663    0.399
        13 -11.1411    197.7012    244.2942   2.9081769606e+02   3.8158462294e+00   0.02357086   0.01275176  81.58  0.001811982    3.218    0.689
        14 -10.9235    128.5651    245.4222   2.9168475188e+02   4.1976423111e+00   0.01152285   0.00928219 -49.86  0.001288387    1.298    0.230
        15  -9.2931     23.5450    245.8117   2.9299575098e+02   4.7908805496e+00   0.01407481  0.007377564  40.50  0.000938809    1.831    0.454
        16  -9.0913    156.3518    250.2990   2.9136500676e+02   3.9823161537e+00   0.00719844  0.005033076 -21.21 0.0007036604    1.693    0.409
        17 -10.2776      5.5967    241.0095   2.9319367463e+02   4.9486103363e+00   0.01634413   0.01046438   2.16 0.0003428172    1.837    0.456
        18  -9.0497     12.8692    240.3579   2.9309950271e+02   4.9149414681e+00  0.009929119  0.006241972  10.16 0.0006291413    1.728    0.421
        19  -9.5794    233.7719    237.0312   2.9032949980e+02   3.6938874471e+00  0.008737152  0.005761535 -66.03 0.0005448511    1.629    0.386
        20 -13.2552      9.7173    207.0134   2.9295934254e+02   5.3209008890e+00   0.08343516   0.05934381  85.34  0.003600932    1.753    0.429
        21 -14.4520    102.0761    228.5773   2.9192383692e+02   4.5446670340e+00    0.5482599          nan  32.65   0.01982157   11.159    0.910
        22 -10.4349    173.8873    222.6960   2.9099720277e+02   4.2031230897e+00   0.02163166   0.01337892  63.61  0.001996388    2.089    0.521
        23  -8.7946     94.6039    216.8188   2.9195346514e+02   4.7240647949e+00  0.009019574  0.006571725 -89.75 0.0003951897    1.664    0.399
        24  -8.9511    152.4905    212.9494   2.9121097698e+02   4.4387554847e+00  0.009295329  0.006857185 -66.13 0.0003573304    1.453    0.312
        25 -11.2501     20.5178    200.0547   2.9278709729e+02   5.3405941226e+00   0.01374008   0.01118824  32.02 0.0003265638    1.150    0.130
        26 -11.5234     16.7370    197.9504   2.9282293119e+02   5.3865458335e+00   0.01993274   0.01190823  40.59 0.0003762586    1.611    0.379
        27 -11.6348     63.3653    199.0283   2.9224697305e+02   5.1089848101e+00    0.0181144   0.01223927 -35.01 0.0006519111    1.663    0.399
        28  -9.6994    191.8376    192.9265   2.9061223462e+02   4.4465931650e+00   0.01891663  0.009600122  86.19  0.001336768    3.783    0.736
        29  -8.6482     51.5118    197.4585   2.9238638045e+02   5.1946896574e+00  0.006896439  0.006315462  36.51 0.0002078941    1.056    0.053
        30 -14.1492     43.1220    225.4928   2.9264223832e+02   4.9161413544e+00    0.0919225    0.0571538 -38.91  0.004159166    1.799    0.444
        31 -11.8878     69.2629    190.9378   2.9212969559e+02   5.1695602310e+00   0.01530216   0.01253857 -27.64 0.0004572588    1.314    0.239
        32  -8.4212     47.6613    192.7616   2.9240907192e+02   5.2712462501e+00  0.006808049  0.005035611 -13.42 0.0002303974    1.549    0.354
        33 -10.9529     79.0499    178.1227   2.9193831003e+02   5.2629368371e+00    0.0125761   0.01154399 -17.79 0.0003465968    1.126    0.112
        34 -13.2860     66.0082    176.0755   2.9208999142e+02   5.3610272147e+00   0.02733774   0.01390358 -40.08  0.001716641    2.305    0.566
        35  -8.5803    101.3280    177.7169   2.9165815121e+02   5.1406708063e+00   0.00715368   0.00483057  52.38 0.0004729471    1.605    0.377
        36  -8.7587    118.3245    175.3171   2.9143313454e+02   5.0716101676e+00  0.007169013  0.005025195 -24.10 0.0003909849    1.670    0.401
        37 -11.9035     86.7061    168.4239   2.9179030546e+02   5.3321534607e+00   0.03564557   0.02982271   3.75  0.004076046    1.219    0.179
        38 -10.0496     98.7345    152.5208   2.9155409066e+02   5.4485771169e+00     0.013404   0.01250452  -4.87 0.0008321179    1.083    0.077
        39  -9.3137    101.8494    148.1326   2.9149144035e+02   5.4818518171e+00   0.01257676   0.00766569 -36.39  0.000844709    1.892    0.471
        40 -12.1479     87.3589    151.8045   2.9169219839e+02   5.5217784796e+00    0.0148266   0.01216637 -23.65 0.0005572475    1.317    0.241
        41 -12.5908     67.1049    144.0013   2.9190282299e+02   5.7279582693e+00   0.03941417   0.02610097  56.64  0.003916556    1.727    0.421
        42  -9.0709    186.8047    150.0083   2.9044195301e+02   4.9743645981e+00   0.01149279  0.007241858  66.00 0.0008036301    2.073    0.518
        43 -12.7582     37.4845    233.5175   2.9275577426e+02   4.8547892592e+00   0.01965385   0.01484425 -43.02 0.0007690383    1.401    0.286
        44  -8.6786    191.9831    144.0090   2.9034481774e+02   5.0144397666e+00  0.007855601  0.007704366 -60.41  0.000409208    1.087    0.080
        45  -9.7660    109.9361    137.5989   2.9133341435e+02   5.5582221376e+00   0.01759116  0.009725608 -35.35  0.001315152    2.207    0.547
        46  -8.7584    182.1405    145.3846   2.9047497473e+02   5.0548253174e+00  0.009645081  0.005679582  36.37 0.0003820489    1.577    0.366
        47 -10.5935     97.3481    134.6765   2.9147471109e+02   5.6640471442e+00   0.01284449   0.01042121 -23.33 0.0003394884    1.339    0.253
        48 -11.2654     57.4958    132.4957   2.9196055514e+02   5.9165124540e+00   0.02274968   0.01258701  83.67  0.001819205    2.964    0.663
        49 -10.7956     35.0277    133.5971   2.9224716673e+02   6.0314961720e+00   0.01669329   0.01070198  44.94 0.0009410967    1.569    0.363
        50  -9.7003     92.8068    132.6608   2.9152048596e+02   5.7133958154e+00   0.01203238  0.009733019  56.39 0.0006554121    1.319    0.242
        51  -9.0741    106.9988    124.0209   2.9129645215e+02   5.7329000349e+00  0.009625349  0.008932717   4.12            0    1.067    0.063
        52 -10.4283     82.7226    133.9321   2.9165328686e+02   5.7561084036e+00   0.01445351    0.0095231  37.32 0.0006904065    1.428    0.300
        53 -10.3014    167.7984    112.9317   2.9047746563e+02   5.5141902494e+00   0.01431653   0.01130168  59.85 0.0007206227    1.390    0.281
        54  -9.5206    203.1857    111.7768   2.9002992616e+02   5.3248102721e+00  0.009605053  0.007730084 -23.67 0.0005149217    1.356    0.263
        55  -9.9988    162.0295    249.4776   2.9128986018e+02   3.9594430259e+00   0.01068648  0.006446005  23.23 0.0006214417    1.571    0.363
        56  -9.0192     71.6067     85.4030   2.9152908040e+02   6.3838109775e+00   0.01439507  0.003704765  38.15 0.0009380218    3.380    0.704
        57 -10.4127    240.9752     83.5865   2.8940553837e+02   5.4352851807e+00    0.0160843  0.007581858  62.70  0.001083505    3.916    0.745
        58  -8.7604    184.5201     77.4919   2.9007607444e+02   5.8301647747e+00  0.006842588  0.006394574   2.85 -4.085584e-05    1.064    0.060
        59  -9.2397    156.9978     75.9766   2.9041126271e+02   6.0054930569e+00  0.008233731  0.007947991  21.88 0.0005596891    1.030    0.029
        60 -11.1407      9.7510     63.7680   2.9218525496e+02   6.9871110193e+00    0.0217841  0.007929775  38.08   0.00161552    2.501    0.600
        61  -9.3131     33.0681     62.5406   2.9188693736e+02   6.8689372931e+00   0.01057922  0.006250327  27.78  0.001011565    1.558    0.358
        62 -11.3396     24.1303     58.9838   2.9197945458e+02   6.9610701947e+00    0.0445607  0.007921991  37.93   0.00257939    4.443    0.775
        63  -8.7738     69.5186    234.4228   2.9236125701e+02   4.6620910555e+00  0.006819152  0.006342765  16.03 4.246561e-05    1.029    0.028
        64 -11.0903      2.7641     38.5081   2.9213582258e+02   7.3202974369e+00   0.01511267   0.00962735 -57.87  0.001517447    1.623    0.384
        65  -9.4152     82.0014    249.0129   2.9228435899e+02   4.4212635563e+00   0.01172047    0.0076037  55.48  0.001137211    1.753    0.430
        66 -11.7510    139.4333    249.2634   2.9157012415e+02   4.0909461622e+00   0.02451181   0.01852863  18.99  0.002668262    1.273    0.214
        67  -9.7774    152.4793    248.4964   2.9140348520e+02   4.0253931212e+00  0.006829506  0.006411145  22.46 -9.288551e-05    1.002    0.002
