#   1 NUMBER                 Running object number                                     
#   2 MAG_AUTO               Kron-like elliptical aperture magnitude                    [mag]
#   3 X_IMAGE                Object position along x                                    [pixel]
#   4 Y_IMAGE                Object position along y                                    [pixel]
#   5 X_WORLD                Barycenter position along world x axis                     [deg]
#   6 Y_WORLD                Barycenter position along world y axis                     [deg]
#   7 A_WORLD                Profile RMS along major axis (world units)                 [deg]
#   8 B_WORLD                Profile RMS along minor axis (world units)                 [deg]
#   9 THETA_WORLD            Position angle (CCW/world-x)                               [deg]
#  10 FWHM_WORLD             FWHM assuming a gaussian core                              [deg]
#  11 ELONGATION             A_IMAGE/B_IMAGE                                           
#  12 ELLIPTICITY            1 - B_IMAGE/A_IMAGE                                       
         1 -14.2003    167.9933     42.9871   7.4025677992e+01   3.7415692667e+01     1.199847     1.050354   5.89  0.004111859    1.383    0.277
         2 -14.2622    186.5970      9.9647   6.2785691188e+01   3.6696830285e+01     2.077742    0.9529808  64.01  0.007856785    1.801    0.445
         3  -8.9014    143.2853    209.2900   1.1891768373e+02   1.0539234458e+01    0.1327726    0.1099164   3.70 0.0002684304    1.534    0.348
         4 -11.2682    193.1588    249.8446   1.1527112583e+02  -5.3279516788e+00    0.3504112    0.1350378  37.03  0.001541622    2.224    0.550
         5 -12.4343    189.6714    249.6848   1.1591773756e+02  -4.7300671138e+00    0.4844677    0.3210025  23.63  0.002760026    1.458    0.314
         6 -10.2451    175.8467    250.2069   1.1867623937e+02  -2.5040996641e+00    0.1735918    0.1373254  15.86  0.001065472    1.306    0.234
         7 -10.3192    138.9886    249.9893   1.2585189068e+02   3.7627247839e+00    0.2861393    0.2516838  12.16  0.001858894    1.375    0.273
         8 -10.4948    138.1598    245.2984   1.2538807704e+02   4.7096872684e+00    0.4948997    0.2709914 -54.92  0.002543104    2.173    0.540
         9 -19.9130     63.2260    168.4778   1.3088911473e+02   3.2906516501e+01     19.46343     4.408824 -63.46   0.05910629    4.347    0.770
        10 -11.5970     12.0413    205.9959   1.4597932238e+02   3.0372836298e+01    0.2736761    0.1969585  44.00  0.001174616    1.517    0.341
        11  -9.5227    168.6526    200.7493   1.1192607744e+02   7.4214026750e+00     0.193091    0.1357471 -56.01  0.000799818    1.653    0.395
        12 -11.6257    160.5468    198.3741   1.1324577190e+02   9.4491017492e+00    0.5086266    0.3319561 -72.15  0.001441932    2.359    0.576
        13 -10.8359    152.6255    198.1669   1.1494653631e+02   1.1015927064e+01    0.3999792     0.243598 -45.22  0.001854863    1.778    0.438
        14 -11.3177    152.1196    191.8730   1.1390788202e+02   1.2401361190e+01    0.3867405    0.2740369  60.81  0.001318575    1.588    0.370
        15 -10.1773    140.1777    200.0360   1.1803317017e+02   1.2998735191e+01    0.4856829     0.228338  28.00  0.001678209    3.243    0.692
        16  -9.7599    135.5022    198.9492   1.1888809080e+02   1.4099986985e+01    0.2975637    0.1832473 -56.31  0.001390777    1.765    0.433
        17  -9.4369    121.4975    198.0637   1.2188218080e+02   1.6857218556e+01    0.1999918    0.1397768 -56.76 0.0003983465    1.506    0.336
        18  -9.9920    180.2130    192.9967   1.0798504764e+02   6.6771398572e+00    0.2303246    0.1747268 -83.56  0.001081053    2.017    0.504
        19  -9.6023    205.6730    189.2723   1.0197674374e+02   2.4591845163e+00    0.1328227    0.1135922  76.55 0.0002258152    1.582    0.368
        20 -10.9756    172.3523    188.9804   1.0889444712e+02   9.0069045123e+00    0.3178197    0.1962561  50.07  0.001434888    1.647    0.393
        21 -10.4916    155.2052    187.4213   1.1237958474e+02   1.2717897229e+01    0.2501564    0.2124046 -64.54 0.0008158117    1.305    0.233
        22 -10.8588    151.9216    184.1296   1.1248889285e+02   1.4054811797e+01    0.3433678    0.2500492 -73.24 0.0006156861    1.777    0.437
        23 -10.8247    175.4756    185.9252   1.0761619690e+02   8.9924550431e+00    0.3603299    0.2548618 -77.40  0.001575535    2.248    0.555
        24  -9.4871     15.5814    247.0079   1.4811585835e+02   2.1886227156e+01    0.1257581   0.06038868  68.63 0.0007470712    1.754    0.430
        25  -9.9080    133.8426    245.8875   1.2632011040e+02   5.3373923867e+00    0.1764935    0.1653218 -36.81 0.0004105647    1.323    0.244
        26 -11.5864     28.7021    183.6622   1.4067116028e+02   3.3524801565e+01    0.2084047    0.1921788 -89.69 0.0007280236    1.212    0.175
        27 -13.1562    137.3506    171.3857   1.1337397313e+02   1.9697347850e+01    0.9509532    0.4579842  42.84  0.003460217    2.006    0.502
        28 -12.5110    144.1114    174.8084   1.1246373667e+02   1.7603596821e+01    0.5597596    0.4363305  26.40    0.0027563    1.422    0.297
        29 -11.5357    168.1287    176.5682   1.0734497032e+02   1.2367174319e+01    0.6095961    0.3680483 -72.37  0.001760201    3.178    0.685
        30 -10.1692    135.3146    179.8868   1.1550032419e+02   1.8223435485e+01    0.2661772    0.1924988  52.49 0.0006335364    1.366    0.268
        31  -9.6990      4.7548    180.0706   1.4534374621e+02   3.6553120176e+01    0.1343528     0.103369 -61.26 -0.000430966    1.373    0.272
        32 -11.6086    204.5804    176.1068   9.9508830232e+01   5.0937621017e+00      0.43391    0.4245267  -9.86  0.001108008    1.085    0.079
        33 -10.0344    197.4675    176.9153   1.0112696307e+02   6.3511814730e+00    0.2944789     0.233625  72.57  0.001152491    1.695    0.410
        34 -10.4840      9.4950    175.1110   1.4392604049e+02   3.7235170753e+01    0.1719799    0.1392162  62.15 0.0006697279    1.265    0.210
        35 -11.6600    193.5130    166.0059   9.9640805614e+01   9.2653989990e+00    0.4661607    0.3275851 -45.30  0.000698943    1.457    0.314
        36 -11.2726    190.1074    160.9429   9.9257383005e+01   1.0975774149e+01    0.4393685    0.3565434  61.49  0.000945985    1.390    0.281
        37 -11.2283    189.6440    155.6754   9.8194837461e+01   1.2125958457e+01    0.4774201    0.4591542  51.57    0.0016059    1.073    0.068
        38 -10.6083     34.7096    168.4373   1.3764198059e+02   3.6330969491e+01    0.2764218    0.1916968  66.30  0.001162647    1.462    0.316
        39 -10.6785    201.9900    167.5599   9.8229700705e+01   7.2297714094e+00    0.5767428    0.2999375  35.95  0.002086585    2.071    0.517
        40 -12.1615    125.0639    243.5319   1.2774718614e+02   7.2307862631e+00    0.4173376    0.1772099 -53.25 0.0008808668    2.723    0.633
        41  -9.6775    150.7916    243.6158   1.2264596448e+02   2.8393344462e+00     0.181796    0.1727796 -11.45 0.0005453317    1.241    0.194
        42  -9.5122      1.5803    165.4438   1.4473444227e+02   3.9995446171e+01    0.1151254   0.08797884 -77.02 0.0001292094    1.074    0.069
        43 -10.4416    141.2945    164.0400   1.1094440393e+02   2.0534905113e+01    0.2106186    0.1963493 -59.87 0.0003318462    1.096    0.088
        44  -9.3441    160.0000    246.3851   1.2121931752e+02   7.9508693036e-01    0.2490596   0.07540897 -48.46 0.0009358207    3.943    0.746
        45 -12.1276    146.1231    178.8739   1.1279633140e+02   1.6323625648e+01     0.578831    0.3840974  39.20  0.002686615    1.471    0.320
        46 -10.5224    236.8043    158.3838   8.9650844002e+01   2.0882822374e+00    0.1891086    0.1268842  32.19 0.0004490189    1.642    0.391
        47 -10.3132    167.0364    155.3047   1.0305825487e+02   1.7044743367e+01    0.4181796    0.2634581  72.11  0.001553824    2.657    0.624
        48 -13.0583    134.0123    145.9211   1.0881439127e+02   2.6069669046e+01     1.479402    0.3630849 -53.43  0.003459041    5.736    0.826
        49  -9.8065     16.7204    156.1369   1.4038929365e+02   4.0848040141e+01    0.1881651    0.1735246 -18.37 0.0007560992    1.434    0.303
        50 -10.5133    168.0576    242.3332   1.1902123602e+02   7.5302481311e-02    0.2202134    0.1902595 -55.32 0.0008070675    1.410    0.291
        51  -9.9078    174.6870    149.1864   9.9969017465e+01   1.6675013778e+01    0.2654161    0.2252657  41.62 0.0007423159    1.168    0.144
        52 -12.2708    143.9376    144.9228   1.0614645589e+02   2.4227016419e+01    0.8690004    0.4205726 -61.25  0.002845659    3.127    0.680
        53 -11.7100     13.4377    143.0571   1.3964402330e+02   4.4068824798e+01      0.25401    0.1667938 -31.54  0.000805802    1.989    0.497
        54 -12.3614      6.1816    138.3789   1.4087506365e+02   4.5657713505e+01     1.202785     0.390635 -60.84  0.005682753    2.239    0.553
        55 -12.3268      4.1912    112.3102   1.3799726369e+02   5.1546938733e+01    0.5320384    0.3663262 -50.90   0.00272939    1.244    0.196
        56 -12.7443      3.0612    127.8093   1.4038264245e+02   4.8214215227e+01    0.7417035    0.4094839 -65.32  0.004439677    1.385    0.278
        57 -12.6637      4.6258    120.4577   1.3901644955e+02   4.9735619500e+01    0.5819854     0.475204   1.44   0.00369763    1.579    0.367
        58  -9.0688    167.6636    134.2713   9.8066980175e+01   2.1342171714e+01    0.1555498    0.1236669  84.76  0.000374007    1.599    0.375
        59 -10.6767    160.4904    127.7645   9.8138057872e+01   2.4315710647e+01    0.3844399    0.2892367 -57.54  0.001615825    1.447    0.309
        60 -10.1610     12.2506    243.2083   1.4843122820e+02   2.2951780779e+01   0.08293235   0.07183453  86.60 0.0003534147    1.367    0.269
        61 -11.6070    114.0422    118.0735   1.0743133205e+02   3.6304178027e+01    0.4014387    0.2322772 -49.34  0.000674342    1.719    0.418
        62  -9.9376     28.3976    240.0925   1.4552431305e+02   2.1775710621e+01    0.0934943   0.05970713  37.09 0.0002617334    1.809    0.447
        63 -12.3550    135.5244    127.0699   1.0402337132e+02   2.9942088795e+01     1.537418    0.2602117 -49.35  0.003052086    7.686    0.870
        64 -10.8710    134.6657    109.1360   9.9696043173e+01   3.3955220069e+01     1.001261    0.1392208 -44.81   0.00204331    7.318    0.863
        65  -9.7729    168.1046    112.9008   9.2701345841e+01   2.5619419309e+01    0.3378918    0.2317107 -81.99  0.001337257    2.310    0.567
        66 -10.4955    131.0804    236.4423   1.2559791590e+02   7.5022651146e+00     0.249962    0.1837571 -64.92   0.00143662    1.578    0.366
        67 -10.1572    205.0885    110.5653   8.4624084830e+01   1.7493001618e+01    0.3536751    0.2474445  35.19  0.001315511    1.684    0.406
        68 -11.6456    175.7199    234.5412   1.1627300953e+02   2.9944973484e-02    0.2842372    0.1948162 -56.48  0.001530186    1.886    0.470
        69 -11.3174     13.6910    110.0902   1.3495141277e+02   5.1409162080e+01     0.257812    0.1721115  -3.31  0.000556197    1.965    0.491
        70 -11.3980     25.7139    109.0227   1.3123814655e+02   5.0719294443e+01    0.2085598    0.1775028 -16.15  0.000485964    1.330    0.248
        71 -11.0418     18.1679    108.8288   1.3343611092e+02   5.1360600203e+01    0.2114668      0.17228 -17.38 0.0008198178    1.414    0.293
        72 -11.5650    176.1144    229.5947   1.1538969263e+02   7.9201855337e-01     0.297416    0.2306421 -23.80 0.0007418487    1.501    0.334
        73 -10.1182     25.7406    230.0709   1.4526995270e+02   2.4035217163e+01    0.1172757   0.07789512  88.09 0.0002647474    1.225    0.183
        74 -13.5801    156.1320     57.6947   8.0362452403e+01   3.8235550271e+01     1.238025    0.9848633  55.44  0.002580922    1.164    0.141
        75 -12.0342    198.2193    246.4369   1.1375904275e+02  -5.6575686221e+00    0.5115643    0.3377759  71.17   0.00224199    3.630    0.724
        76 -12.1770    172.3399     35.1805   7.1194301986e+01   3.7347941379e+01     0.371697    0.3412165  56.44 0.0008482035    1.106    0.096
        77  -9.9055     13.4656     59.8137   1.2468645811e+02   6.1745666823e+01    0.1784141     0.146639  -8.03 0.0003819883    1.246    0.197
        78 -10.0379     25.1544    225.3988   1.4502903127e+02   2.5033553108e+01    0.1046815   0.06478167 -66.67 0.0006508059    1.612    0.380
