#   1 NUMBER                 Running object number                                     
#   2 MAG_AUTO               Kron-like elliptical aperture magnitude                    [mag]
#   3 X_IMAGE                Object position along x                                    [pixel]
#   4 Y_IMAGE                Object position along y                                    [pixel]
#   5 X_WORLD                Barycenter position along world x axis                     [deg]
#   6 Y_WORLD                Barycenter position along world y axis                     [deg]
#   7 A_WORLD                Profile RMS along major axis (world units)                 [deg]
#   8 B_WORLD                Profile RMS along minor axis (world units)                 [deg]
#   9 THETA_WORLD            Position angle (CCW/world-x)                               [deg]
#  10 FWHM_WORLD             FWHM assuming a gaussian core                              [deg]
#  11 ELONGATION             A_IMAGE/B_IMAGE                                           
#  12 ELLIPTICITY            1 - B_IMAGE/A_IMAGE                                       
         1 -14.7702    220.4568     40.9032   2.2138022314e+01   2.6190074809e+01     1.172807    0.5729916 -30.69   0.00332418    1.783    0.439
         2 -18.2560    244.0852     58.8269   2.4204068198e+01   1.9680114663e+01     8.103471     4.767951 -27.24   0.04834599    1.519    0.341
         3 -13.6799    121.6005    104.4053   5.5900827361e+01   3.7363610062e+01     1.640852     1.041856  49.49  0.007225928    1.592    0.372
         4 -12.6884    156.2955     11.9188   2.0074817763e+01   4.4066388028e+01     0.434914    0.3022603  -9.20  0.001591852    1.822    0.451
         5 -11.5131    219.6560     11.6270   1.5248393539e+01   2.9567098050e+01    0.2346466    0.1623328 -55.90 0.0002497636    1.165    0.142
         6 -10.6014    207.8954      8.5790   1.5167407432e+01   3.2315216751e+01    0.1886494    0.1539829 -19.89 0.0003937931    1.411    0.291
         7 -12.2639    205.2648    199.8656   5.7217793778e+01   6.3070387952e+00    0.3572696    0.1781296  11.43  0.001782876    2.547    0.607
         8 -12.5384    192.2722    194.1553   5.8594533473e+01   8.7316831885e+00     0.777703    0.4398105 -59.48  0.003060249    5.343    0.813
         9 -13.3745    210.1237    187.6671   5.4402706702e+01   7.3378173783e+00    0.6548784    0.4564944 -55.14  0.003797189    2.572    0.611
        10 -13.4509    218.3162    186.8884   5.2922895803e+01   6.4180438326e+00    0.4859203    0.3419712  27.98  0.003325808    1.440    0.306
        11 -15.1932    196.7928     88.3249   3.6315418568e+01   2.4442019032e+01     2.701802    0.7794044  44.58  0.008726506    4.748    0.789
        12 -15.0876    175.4896     83.9712   3.8591135078e+01   2.9526005191e+01     1.464952     1.058331  17.28  0.004170636    1.967    0.492
        13 -12.0944    237.0316    216.2175   5.4631477426e+01   7.8035481241e-01    0.2652681    0.1574085  -6.63 0.0009867235    1.420    0.296
        14 -15.9492    213.2149     81.1122   3.2380864003e+01   2.2334602392e+01     1.973922     1.328813  72.06   0.01006961    1.875    0.467
        15 -14.2808    228.7951     77.0348   2.9646376925e+01   2.0045530724e+01    0.5799621    0.3716215  51.50  0.002286383    1.879    0.468
        16 -12.1884    248.6378    211.4978   5.2220871819e+01   1.3691816520e-01    0.2416425    0.1858798  16.16  0.001995861    1.419    0.295
        17  -9.6775    176.6674    155.2932   5.4640605161e+01   1.7066488926e+01     0.120078    0.1071032  82.15  0.000559306    1.636    0.389
        18 -12.4748    172.0869    149.6793   5.4443785384e+01   1.8783720997e+01    0.3750532    0.2880265 -47.89  0.002118225    1.441    0.306
        19 -11.7289    133.7432    145.7247   6.2213543486e+01   2.6211440308e+01    0.9298227    0.2533888 -54.09  0.002468637    5.494    0.818
        20 -13.6572     50.3326    142.1714   8.6239657615e+01   4.0209453364e+01    0.8564193    0.6114725 -77.36  0.001969325    1.428    0.300
        21 -13.5605     35.4525    146.6692   9.1684987501e+01   4.0704276457e+01     0.556144    0.4316603  12.76  0.001223582    1.433    0.302
        22 -14.0061     43.2467    143.5276   8.8768136691e+01   4.0682455195e+01    0.8556349    0.7330257 -81.36  0.002596434    1.168    0.144
        23 -13.3439     65.6905    140.4310   8.0915484895e+01   3.8656345382e+01     1.445923    0.8613883  82.25   0.00598084    2.249    0.555
        24 -11.2742    212.1413    141.5984   4.5646902727e+01   1.3617851773e+01     0.247627    0.1857308 -55.14  0.001042169    1.795    0.443
        25 -12.0331    249.4666    170.3078   4.5466147329e+01   4.7729358075e+00    0.2979167    0.1785294 -41.06  0.001721595    1.885    0.469
        26 -11.4712    192.6989    141.9768   4.8983615009e+01   1.6644545843e+01    0.1888909    0.1521414 -28.73 0.0006411492    1.134    0.118
        27 -12.5420    207.1343    137.4222   4.5609693656e+01   1.5023391283e+01    0.3157085    0.2536508 -15.26  0.001052317    1.117    0.105
        28 -13.4419    203.0980    131.5978   4.5068359129e+01   1.6568965934e+01    0.4832084    0.3689289 -49.73  0.001332202    1.487    0.327
        29 -12.3144    135.4594    123.6504   5.7022957104e+01   3.0460047200e+01      1.83917    0.2565469 -48.80  0.003424483    9.789    0.898
        30 -13.6975    134.4539    104.1169   5.2475995899e+01   3.4702240527e+01     2.133152    0.5272898 -48.95   0.00550499    4.853    0.794
        31 -12.3409    176.6641    168.0856   5.7053796093e+01   1.4935698815e+01    0.5966674    0.2190471 -51.94  0.001972692    4.911    0.796
        32 -11.5786    142.9773    134.8785   5.7711907979e+01   2.6730121440e+01    0.3736749    0.1993779 -55.17  0.001534065    2.264    0.558
        33 -12.7380    243.6063    168.3690   4.5939573342e+01   5.7017517217e+00    0.4310207     0.368753 -85.19  0.002891528    2.662    0.624
        34 -12.0513    225.9794    130.4800   4.1354439937e+01   1.3115095969e+01    0.3108083    0.2262484  64.70  0.001196639    2.144    0.533
        35 -12.8882    161.1091    128.4032   5.2213814857e+01   2.4574260994e+01    0.4462447    0.4094914 -38.90  0.002014118    1.102    0.093
        36 -12.0083    213.7098    124.3286   4.1885321308e+01   1.5929072674e+01    0.2872215    0.2293681  61.54  0.001507759    1.676    0.403
        37 -12.5776    173.1583    124.4610   4.8876350260e+01   2.3027026287e+01    0.4322677    0.2975944 -61.21  0.002098324    1.955    0.489
        38 -10.8469    113.5934     95.3306   5.5701473196e+01   4.1037256290e+01    0.5114092    0.2928711  54.30  0.001463206    1.890    0.471
        39 -12.9139    166.9778    116.1984   4.8201521313e+01   2.5687012329e+01    0.5686409    0.3873374  20.42  0.002693232    1.913    0.477
        40 -11.6828    216.8942    117.8882   4.0062672949e+01   1.6356247389e+01    0.2552806    0.1983476  44.13 0.0007037973    1.487    0.328
        41 -14.7034    237.6914     44.9173   2.1683750338e+01   2.2456526409e+01    0.5041322    0.4050932 -21.81  0.001939668    1.326    0.246
        42 -11.6604    173.4465    114.4066   4.6512601218e+01   2.4743938533e+01    0.2980336    0.2341555  12.14  0.001022555    1.502    0.334
        43 -10.1347    159.9879    111.0107   4.8392146317e+01   2.8031271559e+01    0.1782642    0.1566256 -36.55 0.0003811692    1.096    0.087
        44 -12.3688    124.1719     97.2252   5.3285449691e+01   3.8344781953e+01    0.4761533    0.4070347 -83.20  0.002162372    1.335    0.251
        45 -11.7220    149.0630    105.3065   4.9334831585e+01   3.1369625757e+01    0.3269199    0.2882166  15.18 0.0007975856    1.252    0.201
        46 -12.0884    237.0521    172.2602   4.7549766020e+01   6.0061849500e+00    0.2195789    0.1404343 -33.39  0.001457373    1.441    0.306
        47 -11.9625    240.5420    207.0036   5.2713712706e+01   1.4513802679e+00    0.2133919    0.1391503  24.60    0.0009116    1.512    0.339
        48 -10.1907    143.4312     79.5053   4.3556008118e+01   3.7495014479e+01    0.1475511    0.1429976 -55.79 -0.0001977879    1.024    0.024
        49 -11.1271     24.0026    138.5052   9.4801085537e+01   4.3899197076e+01    0.2116888    0.1321878  23.93 0.0009071158    1.603    0.376
        50 -13.5255      2.9847    162.4934   1.0287094373e+02   3.9449342198e+01    0.5882294    0.5134899  16.83  0.003805182    1.289    0.224
        51 -13.7425      3.9949    154.9979   1.0229959065e+02   4.1214104485e+01    0.7408757    0.4230879  52.28  0.003892013    1.498    0.333
        52  -9.9507    212.2226    166.4347   5.0351858357e+01   1.0004352224e+01    0.1466711    0.1111539  43.15 0.0009343027    1.661    0.398
        53 -12.1288    192.5237     54.4315   2.8340286096e+01   3.0271270972e+01    0.3150114    0.2644761  82.01 0.0006281596    1.263    0.208
        54 -10.4129    187.8413     54.4036   2.8911461773e+01   3.1302624332e+01    0.2165538    0.1710269  -8.95 0.0003182792    1.560    0.359
        55 -12.1143    198.2180    161.7506   5.1867092614e+01   1.2691506759e+01    0.4959534    0.3433827 -75.27  0.002036804    4.628    0.784
        56 -14.2753    192.0015    153.2724   5.1357664970e+01   1.4953311291e+01     0.938686    0.6606613 -57.80   0.00505484    2.084    0.520
        57 -10.4935    192.8346     47.2885   2.6424034378e+01   3.1159709791e+01    0.2617638    0.2118688 -10.03   0.00113366    1.497    0.332
        58 -11.5718    195.4016     41.7905   2.4696913585e+01   3.1303626744e+01    0.4310395    0.1923978 -29.70 0.0009746894    2.101    0.524
        59 -12.7608    191.8438     38.5087   2.4197483840e+01   3.2502325421e+01    0.5257682    0.2378397 -41.85  0.002020114    1.860    0.462
        60 -12.6779    248.5226    176.3837   4.6629033799e+01   4.1510223832e+00    0.3862503    0.2219219  -6.96   0.00243664    1.751    0.429
        61 -13.2471     17.9170    153.0588   9.7862336672e+01   4.0675696922e+01     0.529217    0.2697033 -84.40  0.002475393    1.918    0.479
        62 -11.0795    166.1363     39.9533   2.7653394486e+01   3.8311892764e+01    0.2359495    0.1728903 -64.35  0.001239572    1.335    0.251
        63 -12.0712    122.6486     36.1777   3.3712014424e+01   4.9851959695e+01    0.4694249    0.2836692 -36.57  0.001347778    1.666    0.400
        64 -12.2237    159.7762     33.4651   2.6522465809e+01   4.0718219057e+01    0.6242179    0.3004059 -26.17  0.001392038    2.227    0.551
        65 -12.2320    149.3614     33.5452   2.8026776256e+01   4.3323908556e+01    0.5542345    0.2106415 -22.78  0.001878869    3.427    0.708
        66 -10.7070    167.1001     32.5318   2.5295057104e+01   3.9033860443e+01    0.3549852    0.1887406 -30.21   0.00162915    1.845    0.458
        67 -11.9054    133.5149     32.1610   3.0136662005e+01   4.7581818004e+01    0.2777177    0.2613917 -42.53 0.0004410975    1.129    0.114
        68 -11.8192    143.7834     29.3022   2.7447819334e+01   4.5294235704e+01    0.2474778    0.2151111 -39.11  0.001387444    1.179    0.152
        69  -9.4711     78.7496     20.3203   3.8324002336e+01   6.3314290215e+01    0.1400246    0.1082217 -65.78 0.0002516792    1.532    0.347
        70  -9.9957    208.0358    158.0197   4.9488442948e+01   1.1810174926e+01    0.1724356    0.1518546 -64.43   0.00098738    1.727    0.421
        71 -10.1365    126.7728     18.9744   2.6400765723e+01   5.0983539986e+01    0.1831042    0.1188104 -27.78 0.0007765558    1.640    0.390
        72 -10.5060    189.9354     15.1577   1.8067415291e+01   3.5613097185e+01    0.2162799    0.1670459 -42.37 0.0006838096    1.165    0.142
        73 -11.1132     11.4980    206.6734   1.0202635080e+02   2.8847825063e+01    0.2161184   0.09507262  24.16  0.001088465    2.000    0.500
        74 -10.2454    211.1044    155.8072   4.8566183035e+01   1.1688435866e+01    0.1692282    0.1525947 -21.83 0.0004793837    1.221    0.181
        75 -11.5673    250.0092    203.4720   5.0800035720e+01   8.7566942796e-01    0.2092173    0.1242777 -23.40  0.001345427    1.348    0.258
