#   1 NUMBER                 Running object number                                     
#   2 MAG_AUTO               Kron-like elliptical aperture magnitude                    [mag]
#   3 X_IMAGE                Object position along x                                    [pixel]
#   4 Y_IMAGE                Object position along y                                    [pixel]
#   5 X_WORLD                Barycenter position along world x axis                     [deg]
#   6 Y_WORLD                Barycenter position along world y axis                     [deg]
#   7 A_WORLD                Profile RMS along major axis (world units)                 [deg]
#   8 B_WORLD                Profile RMS along minor axis (world units)                 [deg]
#   9 THETA_WORLD            Position angle (CCW/world-x)                               [deg]
#  10 FWHM_WORLD             FWHM assuming a gaussian core                              [deg]
#  11 ELONGATION             A_IMAGE/B_IMAGE                                           
#  12 ELLIPTICITY            1 - B_IMAGE/A_IMAGE                                       
         1 -13.7923    211.7545     26.4979   1.5752113443e+01   2.8540610699e+01     2.434408     1.325292 -64.25  0.007942409    2.084    0.520
         2 -15.5094    178.7969     81.6000   3.5952184862e+01   2.8581520927e+01     2.308588     1.731441  12.24   0.00666162    1.814    0.449
         3 -14.7157    248.9007     34.1679   1.3654598532e+01   1.8859976610e+01     1.266828    0.7886432 -32.26  0.003692275    1.630    0.387
         4 -17.6701    239.8322     62.9912   2.1286729896e+01   1.6862895631e+01     8.816406     6.397407 -28.68   0.04705289    1.439    0.305
         5 -15.4024    232.5046     36.4913   1.5864862557e+01   2.2282725756e+01        3.128     1.779816  -5.36   0.01182436    3.884    0.743
         6 -11.9777    135.1192     15.5213   2.4046039336e+01   4.9144361429e+01     0.493117    0.1905249 -11.24  0.001583545    4.545    0.780
         7 -10.6250    155.5033     13.5057   1.9760036162e+01   4.4254424546e+01    0.4801226    0.2033082 -12.68  0.001752973    3.569    0.720
         8 -12.1147    157.7722      6.0607   1.7084396622e+01   4.4393824404e+01    0.3762915    0.2905924  -2.16 0.0007578621    1.574    0.365
         9 -10.4236    118.5258      7.5035   2.4549737931e+01   5.3895335552e+01    0.1354866    0.1160058  42.61 7.752783e-05    1.015    0.015
        10 -11.9227    228.0939      2.1708   8.3197237281e+00   2.7365324609e+01    0.3920459    0.1964598 -87.98   0.00189034    2.012    0.503
        11 -10.9878    221.1283      2.6803   9.0189302313e+00   2.8949248279e+01    0.3242296    0.2295494  20.08  0.001740932    2.264    0.558
        12 -10.7779    106.7004      3.9699   2.5822171159e+01   5.6918975676e+01    0.2945703    0.1428431 -28.00  0.001118179    2.218    0.549
        13 -11.0229    183.6721      3.5385   1.2970172382e+01   3.8069215957e+01    0.3961151    0.2041531 -88.50  0.001738872    2.193    0.544
        14 -10.3634    238.3658      2.2074   7.5216999821e+00   2.5004006259e+01    0.3465105    0.1429275  67.99  0.001031228    2.219    0.549
        15 -15.3311    217.0974     79.4480   2.8540499411e+01   1.9552637882e+01     1.595288     1.330058 -73.73  0.005092341    1.272    0.214
        16 -12.8445    247.5040    248.0588   5.8737043241e+01  -1.2089681688e+01    0.5587717    0.3267921  24.20  0.003563724    1.369    0.270
        17  -9.5265    136.4481    221.4143   7.5523427490e+01   9.6953263142e+00    0.1314576    0.1096092  48.82 0.0001006275    1.010    0.010
        18 -14.2077    232.5600     74.2300   2.4945686482e+01   1.6790053371e+01     0.693173    0.4554859  48.70  0.001913294    1.688    0.407
        19 -12.2743    248.1631    210.3512   5.2149019763e+01  -7.6855709275e+00    0.3805295    0.2712215  47.83  0.001461389    1.827    0.453
        20 -13.3953    191.8588    154.5484   5.1616091867e+01   1.1567348820e+01    0.8464178    0.5865935 -61.03  0.003805673    1.926    0.481
        21 -10.8300    240.7706    157.5591   4.2941760067e+01   1.2882931035e+00    0.1725061    0.1334093  53.23 0.0003697752    1.564    0.361
        22 -10.7490    213.0146    155.4437   4.7570193277e+01   7.0226100802e+00    0.4182512    0.2307541  49.02  0.001398119    1.912    0.477
        23 -13.6109     40.3578    145.9142   8.6961181587e+01   4.0383134682e+01    0.6409794    0.4267386 -75.79  0.002459253    1.293    0.227
        24 -13.9284     47.0177    144.1951   8.5033325618e+01   4.0054068307e+01    0.8955966    0.5789362 -73.14  0.002203631    1.358    0.264
        25 -12.5438    171.7004    150.3442   5.5018797018e+01   1.6698612644e+01    0.4271837    0.3748479  30.45  0.002223226    1.135    0.119
        26 -14.0306     32.8770    148.8128   8.9183305560e+01   4.0478007751e+01     0.716116    0.6139216 -65.66  0.002002454    1.198    0.165
        27  -9.8891    132.3035    138.6368   6.1715367206e+01   2.7585052565e+01    0.2748927    0.1574073 -59.99  0.001085154    2.036    0.509
        28 -10.8358    134.0000    148.0497   6.3356660638e+01   2.5130593880e+01    0.4572125    0.2164362 -56.80  0.001593191    2.427    0.588
        29 -10.5274    133.3916    143.5955   6.2543844105e+01   2.6249649796e+01    0.4846598    0.2242449 -60.14  0.001643229    2.892    0.654
        30 -10.0568    144.3274    147.6481   6.0759842675e+01   2.3096467447e+01    0.1605857    0.1214247  85.36 0.0007047727    1.766    0.434
        31 -13.2411     64.4291    141.9370   8.0151797081e+01   3.8442994296e+01     1.293814    0.8057298  69.44  0.006210539    1.946    0.486
        32 -12.0584    177.0793    170.8138   5.8218635924e+01   1.1519772541e+01    0.3520513    0.2240233 -47.07  0.001298515    1.696    0.410
        33 -10.6090    236.5127    171.5073   4.6632182557e+01  -1.5481703921e-01    0.1363077    0.1193002  -1.77 0.0002112036    1.008    0.008
        34 -11.8752    207.9695    139.0314   4.4838587523e+01   1.1039195567e+01    0.4340575    0.2091621 -41.19  0.001344157    2.041    0.510
        35 -12.8186    202.5722    131.3911   4.4098256631e+01   1.3633563046e+01    0.5423577    0.3449172  64.98  0.002273966    2.097    0.523
        36 -13.5465    134.5638    102.8235   5.2198700680e+01   3.5012984419e+01     1.758552    0.5317924 -46.56  0.004214662    3.402    0.706
        37 -11.3791    136.0026    129.4377   5.8650974836e+01   2.8874170364e+01    0.6010507    0.1980301 -46.17  0.001872309    3.046    0.672
        38 -11.2550    135.0679    120.8690   5.6796558439e+01   3.0977231819e+01    0.6658017    0.2104107 -48.25   0.00174755    3.244    0.692
        39 -13.3876    122.0267    104.0577   5.5878112534e+01   3.7455470440e+01     1.665733    0.8565364  50.00  0.006457963    2.074    0.518
        40 -11.7443    206.8362    179.1826   5.3794313735e+01   4.1082744572e+00    0.4685808    0.3420833 -89.08  0.002048953    2.829    0.647
        41 -12.2312    160.7900    128.6434   5.2427635582e+01   2.3607951613e+01    0.4742295    0.3841534 -54.18  0.001582542    1.296    0.228
        42 -12.2627    173.1017    124.4129   4.8574547501e+01   2.1679331083e+01    0.5159444    0.3173023 -65.85  0.001908375    2.532    0.605
        43 -11.8246    214.0848    124.5654   4.0262194789e+01   1.2353722795e+01    0.3464872    0.2589183  72.15  0.001313069    1.738    0.425
        44 -13.5325      2.7625    161.3428   9.7324970226e+01   4.0274550055e+01    0.7574964    0.2800011 -75.71  0.003573422    2.096    0.523
        45 -11.8543    163.2290    118.8695   4.9415185939e+01   2.5094893746e+01    0.4055033    0.2547233 -26.52  0.001359221    1.972    0.493
        46 -12.0924    167.3339    116.3944   4.7839700392e+01   2.4651369034e+01    0.3832949    0.3283537   8.61  0.001506761    1.349    0.258
        47 -11.2238    216.6702    117.9792   3.8204510802e+01   1.2969927688e+01    0.3019792    0.2167683  50.21 0.0006101434    1.458    0.314
        48 -14.0026    204.0908    111.4244   3.8916905012e+01   1.7009882533e+01     1.243366    0.7039737  31.48  0.004770564    2.421    0.587
        49 -11.4300    226.4974    114.2775   3.5591983942e+01   1.1467345710e+01    0.3541138    0.1995895 -27.20  0.001157332    1.908    0.476
        50 -11.5676    176.5882    113.3817   4.5005621883e+01   2.3086495591e+01    0.4915333    0.2812261  28.05  0.001756966    2.595    0.615
        51 -12.5555    123.9106     97.5838   5.3581958324e+01   3.8453888170e+01    0.6969053    0.5270635 -62.91  0.003237085    1.527    0.345
        52 -11.6103    149.8865    104.8807   4.8899166822e+01   3.1095531666e+01    0.3550408    0.3272831  26.86  0.000618897    1.127    0.113
        53 -10.5164    207.1689    103.7482   3.6411603888e+01   1.7694156288e+01     0.275623    0.1957026 -48.60  0.001286794    1.422    0.297
        54 -11.7243    200.7339    105.9380   3.8167583654e+01   1.8803148485e+01    0.2880664    0.2606724  87.71 0.0006591383    1.216    0.178
        55 -10.0939    210.9996    165.3612   5.0108256606e+01   5.6822576996e+00    0.2030982    0.1913024  66.17 0.0005644872    1.288    0.223
        56 -11.2115    113.4328     95.0685   5.5790781459e+01   4.1179814716e+01    0.4108205    0.3121607  55.52  0.001968775    1.447    0.309
        57  -9.4557    208.2501    162.6683   5.0070844182e+01   6.7025023335e+00    0.1344138    0.1143681 -68.34 0.0002823901    1.553    0.356
        58 -11.0799    143.1440     79.8692   4.3393283761e+01   3.7665616617e+01    0.2375285    0.2155057 -75.76 0.0004950707    1.224    0.183
        59 -12.2913    247.3844    203.0194   5.0925320947e+01  -6.5918984007e+00    0.3613417    0.3058394  48.08  0.001631219    1.611    0.379
        60 -11.0190    199.1157    162.7242   5.1908318625e+01   8.5389731470e+00    0.3750885    0.2576082 -77.34  0.001496892    2.910    0.656
        61 -11.7838    191.5163     49.5831   2.4664577556e+01   3.0547232779e+01    0.5419136    0.4205922  45.97  0.002649772    1.367    0.268
        62 -12.9402     19.8269    159.2142   9.3369883574e+01   3.9330594128e+01    0.7552611    0.4457441  73.32  0.004383636    1.621    0.383
        63 -13.3737     14.5683    147.4907   9.3463170340e+01   4.2439579550e+01    0.6003473    0.3873981 -78.35  0.003753043    1.231    0.188
        64 -11.5055    204.8954     38.2830   1.9649688089e+01   2.8737406290e+01    0.5128319    0.2447971 -25.18  0.002080788    2.483    0.597
        65 -10.8969    191.9712     41.4597   2.2341110569e+01   3.1574739774e+01    0.2505684    0.2051118 -37.75  0.001343442    1.262    0.208
        66 -11.8945    123.4984     37.4956   3.4372027606e+01   4.9314113324e+01      0.31646    0.1341896  54.71  0.001229062    2.228    0.551
        67 -10.7442    190.0559     35.7036   2.1028485529e+01   3.2831383629e+01     0.237767    0.2054856 -29.28 0.0008129135    1.266    0.210
        68 -10.2860    166.4936     34.9726   2.4576215986e+01   3.8977928560e+01    0.2108803    0.1431202 -32.54 0.0005172711    1.559    0.359
        69 -11.5956    159.5320     29.5740   2.4131202547e+01   4.1439929770e+01    0.3248346    0.2672795 -23.73 0.0007009543    1.339    0.253
        70 -12.9352    134.2132     29.5472   2.9093844655e+01   4.7787156772e+01    0.4633818     0.316531  26.39 0.0006722234    1.658    0.397
        71 -11.4827    143.3635     22.1844   2.4717695493e+01   4.6392227374e+01     0.208435    0.1698257  47.02  0.001150482    1.134    0.118
        72 -10.2157    231.4951     19.3806   1.1959260965e+01   2.4659175285e+01    0.2510192    0.1197142 -33.52  0.001178657    2.060    0.515
        73  -9.8749    218.0287     20.0052   1.3447472839e+01   2.7787217988e+01    0.1523572    0.1329826 -65.06 0.0009247264    1.075    0.069
        74  -9.8322    150.3079     20.3268   2.2823090163e+01   4.4853917026e+01    0.1475399    0.0980225  34.27 0.0003781506    1.655    0.396
        75 -12.2552    192.1353    194.1944   5.9656812051e+01   4.3392024637e+00     1.008985    0.5260092 -63.00  0.003080839    5.721    0.825
        76 -11.5273    205.2616    199.5142   5.8047214420e+01   1.0515253144e+00    0.2787069    0.1596003 -23.42  0.001299035    2.128    0.530
        77 -13.2401    229.1060    194.9970   5.2673203334e+01  -2.4544354750e+00    0.6547186       0.4534  53.68  0.002460718    1.903    0.475
        78  -9.9409    189.9124     15.2763   1.5424771634e+01   3.5303522758e+01    0.1967411    0.1624088  74.83  0.001134479    1.088    0.081
        79  -9.7724     79.1628     14.8131   3.7979316868e+01   6.1579488127e+01    0.1767968    0.1290776   9.61 0.0004521708    1.303    0.233
        80 -10.5551    206.3599     13.0778   1.2959767054e+01   3.1425354577e+01    0.1951206    0.1662319  72.07 0.0003300506    1.136    0.120
        81 -11.4134    144.6692     13.0727   2.1443868076e+01   4.7025414497e+01    0.2463275     0.181698  75.75  0.001137908    1.349    0.259
        82 -11.2543    127.7817     12.8689   2.4578978032e+01   5.1192230172e+01    0.2119036    0.1683687  35.60 0.0005263954    1.194    0.162
        83 -12.6792    248.4446    155.6964   4.1232824749e+01   1.8781243094e-01    0.5223166    0.4139974 -65.10  0.001710452    1.879    0.468
        84 -13.2345    215.8522    185.8964   5.3385459113e+01   1.3073547534e+00    0.6890253    0.5577886 -17.74   0.00398754    1.213    0.176
        85  -9.8297    207.8091    157.8316   4.9109100692e+01   7.6535151139e+00      0.18794    0.1752923 -86.41 0.0004786598    1.334    0.250
        86 -14.5674    159.4838     92.0199   4.3053043796e+01   3.1402757436e+01     1.549722     1.059264 -49.58 0.0008317599    1.536    0.349
        87 -14.7449    198.7662     86.6067   3.3505089914e+01   2.2756231138e+01     2.584308    0.8190539  43.06  0.007133448    4.377    0.772
        88 -12.2448    245.8307    235.6251   5.6986144212e+01  -1.0458821969e+01    0.2510152    0.1644211  29.10  0.001617937    1.282    0.220
        89 -12.0066    247.4098    221.4637   5.4277740777e+01  -8.9866438816e+00    0.3273011    0.1979906  50.44  0.001448914    2.409    0.585
