#   1 NUMBER                 Running object number                                     
#   2 MAG_AUTO               Kron-like elliptical aperture magnitude                    [mag]
#   3 X_IMAGE                Object position along x                                    [pixel]
#   4 Y_IMAGE                Object position along y                                    [pixel]
#   5 X_WORLD                Barycenter position along world x axis                     [deg]
#   6 Y_WORLD                Barycenter position along world y axis                     [deg]
#   7 A_WORLD                Profile RMS along major axis (world units)                 [deg]
#   8 B_WORLD                Profile RMS along minor axis (world units)                 [deg]
#   9 THETA_WORLD            Position angle (CCW/world-x)                               [deg]
#  10 FWHM_WORLD             FWHM assuming a gaussian core                              [deg]
#  11 ELONGATION             A_IMAGE/B_IMAGE                                           
#  12 ELLIPTICITY            1 - B_IMAGE/A_IMAGE                                       
         1 -13.3995    178.8415     55.9795   5.9545229081e+01   3.2694361824e+01      2.71373      1.72994  42.38   0.01202719    1.656    0.396
         2 -11.2067    177.9532     28.4933   5.0696318424e+01   3.6558697300e+01    0.5213296    0.3973315 -13.28 0.0005307443    1.378    0.274
         3 -11.0778    186.3792     47.9061   5.5786901971e+01   3.1846939478e+01     1.533967    0.7035568 -64.66   0.00397811    5.566    0.820
         4 -11.4446    195.8431     31.2275   4.9170515782e+01   3.1419024401e+01    0.8251456    0.4235008 -38.17  0.001630963    1.840    0.457
         5 -10.4974    248.2540     15.4082   3.9457003160e+01   1.9941749730e+01    0.7232121    0.5112362   9.96  0.003875419    1.645    0.392
         6 -10.9972    210.8157     28.7128   4.6611003217e+01   2.7780686800e+01    0.6492948     0.410688  24.75 0.0005786361    1.978    0.494
         7 -10.8721    202.5600     21.4524   4.5287188618e+01   3.0711603740e+01    0.4195713    0.3067291 -21.52   0.00061772    1.337    0.252
         8 -12.4591    219.5799     10.9482   4.0441536726e+01   2.7315740998e+01     1.802541    0.7564773 -57.92  0.006595789    2.897    0.655
         9 -13.0385    233.8927      4.0223   3.7364010876e+01   2.4362420149e+01     1.887497      1.03143  74.12   0.00848888    1.924    0.480
        10 -12.0470    184.1179     36.1137   5.2346315222e+01   3.3963682676e+01    0.8661736    0.6594154 -27.14  0.002380205    1.285    0.222
        11 -11.4765     99.6814     12.9348   5.9779695586e+01   5.9260949308e+01      0.82064    0.4187218  66.77  0.002939984    2.305    0.566
        12  -8.6738    190.1839     14.7780   4.4508291320e+01   3.4727497490e+01     0.308938    0.2060087  -4.75  0.001281431    1.683    0.406
        13  -9.5049    125.4611     14.5140   5.4362367426e+01   5.2544038503e+01    0.3587388    0.3048871  84.83   0.00127557    1.272    0.214
        14 -11.3461    119.3894      9.2248   5.3256707937e+01   5.4762899966e+01    0.7204425    0.6437793   8.91  0.002571965    1.139    0.122
        15  -9.3738    114.5157      2.8069   5.1249765297e+01   5.6733959471e+01    0.4106379     0.261947  76.04   0.00187075    1.734    0.423
        16  -8.9919    177.8369     12.1818   4.5065970440e+01   3.8387439051e+01    0.5164477    0.2106096  55.06   0.00190592    2.334    0.572
        17  -9.1489    135.1252     10.8615   5.0901330879e+01   5.0374762476e+01    0.2908968    0.2311259  -1.35 0.0003801823    1.351    0.260
        18  -8.1645    204.3226     10.0093   4.1512063985e+01   3.1381217376e+01    0.2096336    0.1796524 -33.75 0.0008276354    1.111    0.100
        19  -9.9034     89.9739      2.8614   5.7240568816e+01   6.2822761968e+01     0.376691    0.2413153 -41.38  0.001823481    1.632    0.387
        20 -10.7545     92.1279      6.8841   5.8795441131e+01   6.1831004803e+01    0.6163387    0.2700127  37.39  0.002265857    2.852    0.649
        21 -11.3209    101.4861      2.4501   5.4002669735e+01   6.0089465399e+01    0.9029886    0.7002542 -89.32  0.004638721    1.558    0.358
        22  -9.8961    173.0347      3.3978   4.2503386023e+01   4.0565237167e+01      0.68472    0.4281932 -56.60  0.002686514    1.704    0.413
        23  -9.6183    179.0617      5.6980   4.2650104365e+01   3.8673519320e+01    0.3536356    0.2841699 -65.14  0.001326559    1.269    0.212
        24  -8.4840     56.4917      5.4927   7.0752981869e+01   6.9455202385e+01    0.1321504    0.1171513 -20.19 6.946935e-05    1.009    0.009
        25  -8.5231    192.7675      4.4642   4.0822056632e+01   3.5006561350e+01    0.2755258    0.1438595  84.32  0.001122889    2.070    0.517
        26  -8.4645    200.9465      1.6764   3.9176904539e+01   3.3036354497e+01    0.2032627    0.1805006 -78.57 0.0005882629    1.110    0.099
        27  -9.2060    147.0394      1.9746   4.5255816195e+01   4.7984300179e+01      0.51643    0.1798853  65.27  0.001790961    2.571    0.611
        28 -12.6765     34.2281    246.6122   1.1942663055e+02   2.5129130195e+01     1.318068    0.5766281  34.59  0.008981043    2.194    0.544
        29 -11.2517    246.1046    239.5965   8.6010735127e+01  -1.4973775972e+00    0.6198993    0.2908408  -5.15  0.003929225    2.864    0.651
        30 -11.4820    239.6011    245.2449   8.7614608956e+01  -1.0556251746e+00    0.5011734    0.2958502  27.02  0.004035372    1.160    0.138
        31 -13.1400     22.9865    233.3062   1.2076510573e+02   2.8127396597e+01     1.588833    0.6035856  46.90    0.0111469    1.642    0.391
        32 -11.9871     42.6685    220.9754   1.1700000771e+02   2.7933302668e+01    0.4310611    0.3675666 -58.27  0.001936116    1.881    0.468
        33 -12.4292     34.5783    213.8097   1.1807792340e+02   2.9902021815e+01     0.795592    0.3656868  55.45  0.004167356    1.503    0.335
        34  -7.7142    242.9646    185.7558   7.8637064272e+01   3.2015012480e+00    0.1447637   0.07561175  39.56 0.0008762617    1.572    0.364
        35 -10.0788    186.8008    182.5459   8.7044857800e+01   1.2648326481e+01    0.2075849    0.1822766  37.17 0.0003882567    1.144    0.126
        36  -8.2391    139.1203    183.1397   9.5775371644e+01   2.0587941656e+01    0.1659901    0.1355029  38.34            0    1.144    0.126
        37  -9.1333    245.1786    181.7980   7.7659272199e+01   3.2188501092e+00     0.156095    0.1300103  22.20 0.0004458375    1.206    0.171
        38  -9.8036     72.0064    178.8039   1.0863453482e+02   3.1384201457e+01     0.302775     0.184256 -75.96  0.001926447    1.746    0.427
        39 -12.6245     11.4535    248.8071   1.2298253925e+02   2.7041241866e+01     0.632484    0.4706838  50.25  0.006177769    1.353    0.261
        40  -9.0953     19.0148    177.9937   1.1939070293e+02   3.7523422579e+01     0.181165   0.07989474  59.02   0.00111199    1.689    0.408
        41  -8.6669     44.9835    175.6579   1.1395935905e+02   3.5259808373e+01    0.2197897     0.115222  67.80  0.001340114    1.661    0.398
        42  -9.0487     76.6684    171.7049   1.0698198682e+02   3.2034837658e+01    0.1815205     0.129461 -62.96 0.0005101126    1.627    0.386
        43  -8.8470    207.1876    166.2781   8.0889279531e+01   1.1079393616e+01    0.1837749    0.1625798  -6.89 0.0003588087    1.222    0.181
        44 -11.3271     82.3318    161.9598   1.0471325166e+02   3.3042126998e+01    0.6213519     0.357031  54.41  0.003572851    1.484    0.326
        45  -9.5340     72.3455    164.0838   1.0712984227e+02   3.4030239129e+01    0.2273194    0.2113528 -25.41  0.000649729    1.626    0.385
        46 -10.6057     73.3434    158.0839   1.0626725420e+02   3.5035390177e+01    0.4156915    0.3534358  -4.53  0.001405116    1.942    0.485
        47  -7.7824    193.4501    164.4558   8.2899566286e+01   1.3741307731e+01    0.1228703    0.1044265  35.62 0.0001317335    1.072    0.067
        48 -10.6987     90.1093    157.5570   1.0246821811e+02   3.2729289821e+01    0.3690749    0.2128052 -75.63  0.002001413    1.986    0.497
        49 -10.7201    248.5521    155.4481   7.2496030417e+01   5.1565196333e+00     0.706918    0.2890607 -12.06  0.003020894    3.430    0.708
        50  -8.4322     23.3089    157.2975   1.1741630186e+02   4.1008022426e+01   0.09351903   0.08065426 -59.89 0.0002872604    1.594    0.373
        51 -10.6607    239.2436    152.5746   7.3313706962e+01   7.0120587602e+00    0.4748142     0.291732  24.26  0.002478871    1.505    0.336
        52  -9.1515     96.6716    146.3339   9.9463799399e+01   3.3855173998e+01    0.2230757    0.1469982 -89.48   0.00101203    1.788    0.441
        53  -8.4149     22.4080    152.6967   1.1734320853e+02   4.1998049200e+01    0.2768983   0.05441924  37.30   0.00121651    3.412    0.707
        54  -9.4985    133.5606    144.5780   9.0964348718e+01   2.7824057465e+01    0.8326723    0.2128986 -55.10  0.002293748    6.784    0.853
        55 -10.9791     98.9219    150.4884   9.9549262884e+01   3.2702279500e+01    0.5059673     0.335814 -34.49  0.002621333    2.476    0.596
        56 -11.3907     68.0048    144.1799   1.0590551902e+02   3.8506755884e+01    0.6451746    0.3808455  76.76  0.003512279    1.797    0.444
        57  -9.7110     92.1226    140.8451   9.9717614648e+01   3.5648957572e+01    0.2993993    0.1987159 -79.70  0.001086719    1.651    0.394
        58  -9.5625    242.7500    136.3352   6.9595130463e+01   8.1057979610e+00    0.2566874    0.1540108 -19.23  0.001056582    1.611    0.379
        59  -9.4888    239.1388    131.5887   6.9144349887e+01   9.2738896124e+00    0.2998309    0.1794883 -23.53  0.001118548    1.621    0.383
        60 -11.0475    245.5907    127.2374   6.7300809538e+01   8.5660887042e+00    0.7065497    0.4068722 -40.16  0.003725707    2.098    0.523
        61  -9.5788    135.7992    127.5152   8.7270592309e+01   3.0459849000e+01    0.5062867    0.1067816 -49.96  0.001376878    5.868    0.830
        62  -8.2883    223.8237    128.8765   7.0896399892e+01   1.2471888846e+01     0.200259    0.1549594  16.54 0.0005027848    1.205    0.170
        63  -8.5850    160.5634    127.7747   8.2040767748e+01   2.5442226767e+01    0.1826548    0.1318404 -53.91 0.0006088145    1.621    0.383
        64  -8.4960      1.8309    131.1454   1.2103648948e+02   4.8097299457e+01    0.1386524    0.1096949 -79.53 0.0003846254    1.308    0.235
        65  -8.2351    201.5661    124.6838   7.3651396289e+01   1.7444278913e+01    0.2449849    0.1534355  51.19 0.0005299404    1.563    0.360
        66  -8.4369    181.8084    122.8400   7.6806246276e+01   2.1811170481e+01    0.1808654    0.1652281  81.82 0.0007831259    1.299    0.230
        67  -8.2942    206.0188    122.2953   7.2364558992e+01   1.6854385071e+01    0.1917434     0.162982  38.60 0.0007771718    1.112    0.101
        68  -8.6169    250.4975    118.0257   6.4647449541e+01   8.6513785191e+00    0.1917304    0.1113461 -21.99  0.001033931    1.594    0.373
        69  -8.5340    214.9814    116.0943   6.9492665532e+01   1.5827091940e+01    0.2607658    0.1839931  89.29  0.001203777    2.657    0.624
        70  -8.3307    152.9189    115.3451   8.0919855519e+01   2.9147167543e+01    0.1966402    0.1654174  45.54 0.0004026629    1.115    0.103
        71  -9.3021    135.0000    113.4211   8.4462971083e+01   3.3231865585e+01    0.4505345   0.08104126 -45.27  0.001153133    5.903    0.831
        72  -9.2787    134.8646    105.8001   8.2739541354e+01   3.4697122714e+01    0.4940429    0.1960198 -44.72  0.001859365    2.641    0.621
        73 -10.2241    208.6887    111.8766   6.9552057547e+01   1.7693385868e+01    0.3040346    0.2946729 -10.49 0.0003987678    1.139    0.122
        74  -9.1991    190.8211    109.1218   7.1990021007e+01   2.1927545878e+01    0.4659544    0.2743407  70.70  0.001914713    2.634    0.620
        75 -11.0275    189.0108    100.8708   7.0305793218e+01   2.3552268812e+01    0.7290868    0.4012524 -28.55  0.003236794    1.914    0.477
        76 -10.7181    186.4888     91.8764   6.8466898122e+01   2.5478848696e+01    0.5750442    0.3529327 -12.89  0.002477151    2.101    0.524
        77  -9.6333    236.0822    107.8424   6.4392461580e+01   1.2554423878e+01    0.3589312    0.2389152 -40.82   0.00192907    1.696    0.410
        78  -9.7260    204.6491    101.6270   6.7778196221e+01   1.9957647097e+01    0.4289328    0.2981482 -89.33  0.001848848    2.471    0.595
        79  -9.9836    141.9545     98.7231   7.9366770964e+01   3.4501128460e+01    0.6759145    0.4305482  16.86  0.002616635    2.900    0.655
        80  -8.8055    227.4420     96.9954   6.3089035833e+01   1.5629272686e+01    0.2310203    0.1702002  30.46 0.0003354687    1.344    0.256
        81  -9.9967    150.7526     88.0304   7.4579298436e+01   3.4456962584e+01    0.5929291    0.4619286 -88.05  0.002876389    1.629    0.386
        82 -10.0186    152.8447     84.7338   7.3212307806e+01   3.4550187053e+01    0.5657094    0.4153937 -55.70  0.002720145    1.518    0.341
        83  -8.0031     97.8542     92.1058   8.8925346707e+01   4.4824434058e+01    0.1683932    0.1618118 -28.02            0    1.222    0.182
        84  -9.9764    244.6328     88.6183   5.8699683298e+01   1.3031701095e+01    0.5402289    0.2438544 -34.48   0.00243551    2.082    0.520
        85  -8.1419    136.3096     87.5659   7.7755233700e+01   3.7831817809e+01    0.3965383    0.2435431  79.28 0.0009463353    2.802    0.643
        86  -7.4848    210.6756     87.6763   6.3298422289e+01   2.0502632466e+01    0.1500104    0.1026193  20.44 0.0007047903    1.686    0.407
        87  -8.6576    236.2144     83.4098   5.8529094578e+01   1.5393319371e+01    0.2527024     0.176459  57.90 0.0009991345    1.564    0.361
        88 -10.4884    234.2219     79.4581   5.7802825922e+01   1.6288328711e+01    0.5333783    0.3288735  54.61  0.002689389    1.691    0.409
        89  -8.3860      6.1964     82.8486   1.1651092513e+02   5.8342484457e+01    0.1531263    0.1198447 -61.33 0.0008999324    1.329    0.248
        90  -9.4582    247.2387     77.0604   5.5554243200e+01   1.3786857564e+01    0.7371162    0.1826693 -34.16  0.002562018    3.348    0.701
        91 -11.7128    208.4800     63.5030   5.7110164795e+01   2.4205939914e+01     1.499794    0.8327589 -62.27  0.005702255    2.857    0.650
        92 -12.4961    166.0311     71.1210   6.6538102881e+01   3.3647463903e+01     1.505014     1.331389  15.55   0.00758016    1.222    0.181
        93  -8.2727     82.5150    249.4606   1.1195359113e+02   1.9361472940e+01    0.1978574    0.1345797 -28.75  0.001225543    4.381    0.772
        94  -8.4754     65.4933    248.4526   1.1459336102e+02   2.1492570847e+01    0.1847486   0.08657004  40.66 0.0008659249    1.588    0.370
        95 -10.3088    183.7325     78.3537   6.5304095516e+01   2.8172081573e+01      0.58635    0.2189862  51.08  0.002095014    2.540    0.606
        96  -8.0998    192.5945     74.2360   6.2612789992e+01   2.6620350509e+01    0.2027029    0.1406616 -15.01 0.0007101606    1.568    0.362
        97  -8.2242    206.3918     82.2822   6.2563071808e+01   2.2212663148e+01    0.2426613    0.1766245 -37.73 0.0007216844    1.385    0.278
        98 -10.4220    145.4046     74.6741   7.1956667135e+01   3.8084029671e+01    0.5453986    0.3714808 -68.42  0.002348125    1.988    0.497
        99 -10.1684    113.0008     71.1506   7.8960969705e+01   4.6142897148e+01    0.2338795    0.2048198 -49.66 0.0002626997    1.125    0.111
       100  -8.9020    238.3397     68.8201   5.4563388654e+01   1.6624554657e+01    0.2872128   0.09546687 -32.57  0.001082622    2.573    0.611
       101  -8.4474     69.0030    246.9769   1.1395919653e+02   2.1281090823e+01    0.1758086   0.09495647  46.68 0.0005338092    1.239    0.193
       102 -10.7557    202.5057     36.9613   5.0110060776e+01   2.9002450089e+01    0.4700631    0.3450411  40.78 0.0005106949    1.457    0.313
       103 -10.7252    144.2727     59.5419   6.7462204541e+01   4.0981572437e+01    0.4504147    0.3228584 -61.07 0.0006652914    1.639    0.390
       104  -8.7953    235.6712     59.6830   5.2501473881e+01   1.8263147056e+01    0.2173756    0.1283922  55.69  0.001046688    1.766    0.434
       105  -9.8064    228.3551     60.4181   5.3587330870e+01   1.9855887377e+01    0.3089654    0.2392794 -67.36  0.001253072    1.574    0.365
       106  -7.9311    207.5267     54.5171   5.4678209082e+01   2.5585910008e+01    0.1459061    0.1375604 -36.72 6.137216e-05    1.055    0.052
       107  -8.6968     89.7713    246.2247   1.1059481348e+02   1.8885374067e+01    0.2046427     0.109746  79.67  0.001390546    2.464    0.594
       108  -8.5608    236.5842     50.6916   5.0000856985e+01   1.9062497826e+01    0.3479836   0.09789688  58.15  0.001224398    3.332    0.700
       109  -8.0625    227.4279     47.5334   5.0174737078e+01   2.1560295931e+01     0.286423    0.2077838 -87.65  0.001444122    1.698    0.411
       110 -10.5892    162.5955     62.2277   6.4491889442e+01   3.5924924436e+01    0.4199867    0.4140615  58.09  0.001015333    1.013    0.013
       111  -7.8961    241.3401     45.3251   4.8056351822e+01   1.8556067998e+01    0.1441872   0.09744412  24.48 0.0007051253    1.728    0.421
       112  -7.7944    131.1565     45.1419   6.5461117874e+01   4.6660798262e+01    0.2156328    0.1741022 -59.64 0.0005877204    1.344    0.256
       113 -10.4513    158.7549     58.5977   6.4098713109e+01   3.7476039056e+01    0.4441238    0.3571221 -24.89 0.0009123489    1.281    0.220
       114 -10.5333    221.7942     39.6909   4.8608256814e+01   2.3806440991e+01    0.5334663    0.3273326 -70.69 0.0008224617    2.146    0.534
       115  -9.7509    219.6983     33.4609   4.7043359096e+01   2.5011679097e+01     0.559962    0.2077781 -44.86   0.00199495    2.792    0.642
       116 -10.5660    176.4626     32.9143   5.2418631841e+01   3.6425017910e+01    0.3917603    0.3146298 -45.63 0.0005080543    1.246    0.198
       117  -9.5473    245.5045     35.9017   4.5139051890e+01   1.8588809824e+01    0.6118392    0.2234629 -46.04  0.002293162    2.907    0.656
       118  -8.0111    228.0772     36.3231   4.6969101847e+01   2.2640568931e+01    0.1881592    0.1832637 -69.10 0.0009432728    1.088    0.081
       119 -10.2413    119.4394    243.5680   1.0562899290e+02   1.5398245664e+01    0.1881441    0.1388935  46.32  0.001572175    1.096    0.087
       120 -13.5988     54.7896    197.7033   1.1350796993e+02   3.0270811478e+01      2.22118     1.551906 -51.96   0.01568709    2.195    0.544
       121 -10.6172    205.4756     26.7753   4.6618302631e+01   2.9376908512e+01    0.5759926    0.3719087  22.17  0.001241718    1.935    0.483
       122 -10.4914    125.9619    235.1932   1.0385377059e+02   1.5524567482e+01    0.2570132    0.1858525 -80.17  0.002012781    1.936    0.483
       123 -10.5577    122.7087    229.6114   1.0389186771e+02   1.6666199904e+01    0.3346096    0.1369116  46.07  0.001204609    1.735    0.424
       124  -8.1244    150.3438     32.6789   5.6755038209e+01   4.3534219959e+01    0.2693811    0.1365944  77.35  0.000944074    2.617    0.618
       125 -12.9456      2.5541    238.9300   1.2413367615e+02   2.9219729916e+01     1.250581    0.2476329 -76.75  0.006702824    5.020    0.801
       126  -8.6194    223.9160     27.6691   4.4928242895e+01   2.4575733503e+01    0.2225391     0.164707  45.09 0.0006134734    1.460    0.315
       127  -9.2057    113.3928     27.7256   6.2937394725e+01   5.3826626100e+01    0.2728349    0.1922161 -18.88  0.001138099    1.527    0.345
       128  -8.9535    168.1510     23.2342   5.0298135701e+01   3.9868381906e+01    0.5444939    0.3615562 -83.42  0.002365972    1.807    0.447
       129  -8.7785    218.6633    191.0600   8.3159304591e+01   6.4768266919e+00    0.1888644    0.1267226  34.95  0.000492309    1.168    0.144
       130  -8.7951    123.8203     22.5987   5.8220344479e+01   5.1932709131e+01    0.2121264    0.1467929  77.74 0.0009501121    1.677    0.404
       131  -8.8243    108.9398     21.9602   6.1560292100e+01   5.5768809679e+01    0.2395851    0.1743909 -63.93  0.001118919    1.696    0.410
       132  -9.2049    180.0647     16.3895   4.6255480321e+01   3.7338114936e+01    0.3456595    0.1659952 -40.76  0.001355189    2.018    0.505
       133  -9.4678     85.0444    231.3376   1.1037514245e+02   2.1441055252e+01    0.2782882    0.1603611  81.92  0.001349883    2.070    0.517
       134 -11.4030    229.8375    248.1083   8.9317750183e+01  -2.5723728420e-03    0.6215296    0.2505246  39.42  0.004120843    1.714    0.416
       135  -9.1457    103.1860    230.5952   1.0726043590e+02   1.9192796528e+01    0.1459076   0.07724074  36.41 0.0003856207    1.677    0.404
       136 -10.0227    114.4382    236.1431   1.0583439639e+02   1.6973822324e+01    0.2275325    0.1340535  24.56  0.001405613    2.487    0.598
       137 -11.3911     54.9191    247.9184   1.1623665296e+02   2.2753060884e+01    0.8387412    0.3879566  33.77  0.002542305    2.212    0.548
       138  -8.4606    231.0342    218.7675   8.5370706445e+01   2.1047801278e+00    0.1466172    0.1066224  34.39 0.0002889496    1.205    0.170
       139  -7.7496    167.9933     13.0499   4.6634261140e+01   4.1037292685e+01    0.1701545    0.1639397 -33.57            0    1.040    0.038
       140  -8.7056    155.2206    217.9085   9.7217929682e+01   1.3404787649e+01    0.5538388    0.1639511  51.12   0.00219528    4.006    0.750
       141  -9.3985      2.3240    212.9135   1.2362368652e+02   3.3132430871e+01    0.1552705    0.1161359  71.06 0.0005687777    1.227    0.185
       142 -10.6782     10.7040    207.0851   1.2202361318e+02   3.3314735320e+01    0.6009839    0.3078642 -76.45  0.004400063    2.074    0.518
       143  -8.2345    219.0156    186.2547   8.2342361324e+01   6.9055969431e+00    0.1581089    0.1180357  30.13 0.0002692631    1.050    0.048
       144  -8.9670    229.6632    201.4713   8.3077203978e+01   3.7967640275e+00    0.1821938    0.1690297  36.84 0.0007716243    1.522    0.343
       145  -8.7813     74.0602     10.4742   6.6576513372e+01   6.5323186890e+01    0.2047321    0.1358041  51.46  0.001036673    1.605    0.377
       146  -7.9381    242.4705    199.5100   8.0893916799e+01   2.0752267245e+00    0.1091543   0.07903921  22.58 0.0003413255    1.002    0.002
       147  -9.5407    192.4706    193.9477   8.7818498977e+01   1.0370648394e+01    0.5656918    0.3272949 -62.42  0.002406559    5.408    0.815
       148  -8.8550      3.1948    196.5892   1.2306595325e+02   3.5708916835e+01    0.1480922   0.09799132  37.86 0.0006844761    1.553    0.356
       149  -8.8730    217.4976    195.9637   8.4098310706e+01   6.1731986901e+00    0.2259649    0.1267461  40.21 0.0009159701    1.416    0.294
       150 -10.3766    248.8688    193.6862   7.9064252832e+01   1.6317651249e+00    0.2088416    0.1570421  25.86 0.0004199134    1.119    0.106
