#   1 NUMBER                 Running object number                                     
#   2 MAG_AUTO               Kron-like elliptical aperture magnitude                    [mag]
#   3 X_IMAGE                Object position along x                                    [pixel]
#   4 Y_IMAGE                Object position along y                                    [pixel]
#   5 X_WORLD                Barycenter position along world x axis                     [deg]
#   6 Y_WORLD                Barycenter position along world y axis                     [deg]
#   7 A_WORLD                Profile RMS along major axis (world units)                 [deg]
#   8 B_WORLD                Profile RMS along minor axis (world units)                 [deg]
#   9 THETA_WORLD            Position angle (CCW/world-x)                               [deg]
#  10 FWHM_WORLD             FWHM assuming a gaussian core                              [deg]
#  11 ELONGATION             A_IMAGE/B_IMAGE                                           
#  12 ELLIPTICITY            1 - B_IMAGE/A_IMAGE                                       
         1 -12.4454      2.4876     20.4729   8.1017854886e+01   7.3370690828e+01     0.364741     0.245611 -46.17  0.001115425    1.563    0.360
         2 -10.9343     14.2357     15.9900   7.0856884712e+01   7.2832357547e+01    0.2209259     0.187287   7.92 0.0004435455    1.176    0.149
         3 -10.6176     13.4241     11.3321   6.8872472550e+01   7.3590425615e+01     0.298795    0.2606938  55.61  0.002016412    1.943    0.485
         4 -10.7575     16.2586      7.9950   6.5172150052e+01   7.3656079352e+01    0.2245462    0.1672606  11.28 0.0003733556    1.077    0.072
         5 -12.3980     19.7718      2.3930   5.9726501544e+01   7.3811540768e+01    0.2938895    0.1981926   6.53 0.0009485873    1.395    0.283
         6 -12.4149    125.2302     16.9528   3.3342582475e+01   5.0374199841e+01    0.3136548     0.263376 -55.30 0.0004142573    1.268    0.211
         7 -12.2021    125.9737     10.8166   3.1340492803e+01   5.0777405663e+01    0.2745132    0.2304558 -74.63 0.0003041548    1.181    0.154
         8 -11.3530     77.5360     19.3222   4.4397157177e+01   6.1112423031e+01       0.3606    0.2525343  52.21  0.001306201    1.217    0.179
         9 -10.7883     14.0450      3.1933   6.3746275580e+01   7.4549477248e+01    0.2706864    0.1669483  42.15  0.001639868    1.795    0.443
        10 -10.4776     60.9266     16.3370   4.8359564470e+01   6.4935816602e+01    0.3916039    0.2268673 -49.26  0.001941539    2.554    0.609
        11 -11.2082      5.5643      7.5733   7.2138512377e+01   7.5045639391e+01    0.4778945    0.2718659  35.02  0.002844293    1.866    0.464
        12 -11.4334     34.7745     12.3294   5.7251248645e+01   7.0283781701e+01    0.3334524    0.2214431  41.25  0.001339134    1.364    0.267
        13 -11.7960     30.1825      7.7446   5.7081576946e+01   7.1571212203e+01    0.3668953    0.2451331  33.56   0.00121828    1.241    0.194
        14  -9.5420    109.4231     12.2763   3.4485193826e+01   5.4523747752e+01     0.148369    0.1159102 -49.28 0.0005126027    1.431    0.301
        15 -10.0576    148.7959     10.5677   2.8326658821e+01   4.5495796512e+01    0.1880338    0.1372554 -47.90  0.001175068    1.401    0.286
        16 -11.3992     55.5485      9.5533   4.7095055026e+01   6.6705173334e+01    0.2601759    0.2002033  35.24 0.0005636658    1.096    0.088
        17 -10.6765     45.7681      9.6063   5.0876822021e+01   6.8607138116e+01    0.2200399     0.173559  31.75 0.0007962724    1.033    0.032
        18 -10.0255     42.4898      9.4364   5.2174691130e+01   6.9235537633e+01    0.2205776    0.1865993 -38.56 -3.091422e-05    1.535    0.349
        19 -11.3571    190.9660      8.9438   2.4009075478e+01   3.6363933875e+01    0.2977245    0.1514937 -45.32  0.001386392    1.737    0.424
        20 -12.0994    196.2887      5.2325   2.2826674690e+01   3.5630941411e+01    0.5361701    0.2475172  88.96  0.002847032    2.009    0.502
        21  -9.5107     86.5797     10.3284   3.8447072388e+01   5.9961849867e+01    0.1756623    0.1346138 -82.34 0.0005386737    1.567    0.362
        22  -9.5283     97.9235      7.0918   3.4812017735e+01   5.7643236247e+01    0.1689734    0.1230771  47.86 0.0003491653    1.272    0.214
        23 -10.3500     88.8653      6.3232   3.6379845178e+01   5.9781775189e+01    0.1923579    0.1719552  14.41 0.0004739273    1.279    0.218
        24 -10.4613    247.0949      5.9669   2.0068246916e+01   2.5972959454e+01    0.1555625    0.1053803 -64.86 0.0003739447    1.037    0.036
        25 -11.0505    151.3796      6.0424   2.6836490774e+01   4.5321036470e+01    0.2523296    0.1681945 -89.30  0.000409539    1.308    0.236
        26  -9.9697    111.3718      5.9621   3.2033409075e+01   5.4612295517e+01     0.156698    0.1518035  80.30 0.0005425319    1.170    0.145
        27 -10.1223    104.7206      4.3770   3.2606397041e+01   5.6288263784e+01    0.1904326    0.1523284  82.06 0.0003769772    1.157    0.136
        28 -10.7685    148.5289      2.2538   2.6127136580e+01   4.6302236256e+01    0.2124752    0.1580874  76.64 0.0004886441    1.141    0.124
        29 -10.3792    138.2781      2.2509   2.7232891861e+01   4.8653498214e+01    0.2216446    0.1638453  84.81 0.0005708942    1.129    0.114
        30 -10.3681    123.8144      2.6316   2.9132483439e+01   5.1978094690e+01    0.2528931    0.1594818 -75.00  0.001422208    1.680    0.405
        31 -10.7706     50.9660     10.5331   4.9268440493e+01   6.7516876524e+01    0.2834358    0.1880856  50.42 0.0008691048    1.347    0.258
        32 -10.6335     48.4649      2.3919   4.6136669690e+01   6.8760373553e+01    0.2397245    0.2002418  78.47  0.001579936    1.589    0.371
        33  -9.9468     67.1223      1.7771   3.9820145684e+01   6.4958734220e+01    0.1687222    0.1454129  65.27 0.0003777123    1.179    0.152
        34 -10.3389     29.7797      1.3349   5.3651647873e+01   7.2304672208e+01     0.243293   0.09709067  49.52 0.0006420985    2.359    0.576
        35  -9.6351     20.2456    209.2542   1.0849569667e+02   2.6176997421e+01    0.1893724    0.1283229  59.90 0.0009579619    1.351    0.260
        36 -10.3220    110.0340    250.5680   9.0874603231e+01   6.3534308520e+00    0.1967397    0.1100372  28.54 0.0004537767    1.530    0.347
        37 -10.7810     29.8498    249.5534   1.0895582680e+02   1.6152956183e+01    0.3760045      0.26543  -6.40    0.0021428    2.105    0.525
        38 -11.9176      3.5366    232.8632   1.1383642927e+02   2.2258681569e+01    0.3635263    0.2895118  18.95  0.001332138    1.465    0.318
        39 -12.9449     10.7266    244.5779   1.1283583285e+02   1.9083763658e+01    0.7425438    0.3865305 -71.37  0.004125017    1.979    0.495
        40 -12.4169      4.7752    241.1336   1.1395212268e+02   2.0359027952e+01    0.5329762    0.4356858  -8.10  0.003535974    1.710    0.415
        41  -9.2711    193.5280    201.4737   6.5101604010e+01   4.1680252350e+00    0.1337435    0.1102404 -14.73  0.000340561    1.028    0.027
        42  -9.1848    123.9964    205.9641   8.1325514445e+01   1.3522944212e+01    0.1646813    0.1485559  16.53   0.00092639    1.034    0.033
        43  -9.2668     18.7560    195.2425   1.0781446727e+02   2.9766698729e+01    0.2220394   0.08316059 -62.56 0.0008977526    2.456    0.593
        44  -9.1137    208.5464    191.4947   6.0469632840e+01   3.8940767352e+00    0.1308282    0.1066852 -21.02 0.0002590808    1.008    0.008
        45  -9.6206     13.5821    180.7661   1.0804792927e+02   3.3914941794e+01    0.2067597    0.1145586  84.57 0.0009519778    1.825    0.452
        46  -9.0697     69.7285    177.6434   9.1437785509e+01   2.8443041029e+01    0.1546687    0.1099715 -33.68   0.00069989    1.643    0.391
        47 -10.8548      6.4674    154.1774   1.0780884723e+02   4.1461117465e+01    0.4775936    0.2255684  30.92    0.0021526    2.151    0.535
        48 -10.1615     13.0652    151.5049   1.0545992559e+02   4.1689809555e+01    0.1994498    0.1388178  21.32  0.001030165    1.583    0.368
        49 -10.4094      6.4818    144.9118   1.0690050500e+02   4.3932371470e+01    0.1928314    0.1793497 -77.47  0.000550652    1.055    0.052
        50  -9.6185     57.9600    143.4677   8.9442631260e+01   3.9128233678e+01    0.2137931    0.1508817  28.04 0.0004166892    1.467    0.318
        51  -9.2823    235.6823    138.3396   4.6033032036e+01   9.2379947058e+00    0.1239323   0.08694932 -61.90 0.0001269996    1.708    0.415
        52  -9.7517     95.8701    133.8639   7.5188774269e+01   3.5615957764e+01    0.2144988    0.1893869  84.26 0.0006112388    1.291    0.226
        53  -9.0139    212.9947    134.0000   4.8535227398e+01   1.3542802137e+01    0.1853634   0.07704054  47.17 0.0005894295    2.853    0.650
        54  -9.6939     22.2886    131.3173   9.9815732678e+01   4.6378720382e+01    0.1509688     0.096168 -41.15 0.0002281985    1.594    0.372
        55 -10.1521     11.3831    128.8265   1.0337781646e+02   4.7901738094e+01    0.1935365    0.1764434  72.97   0.00072459    1.150    0.130
        56  -9.2975      4.4734    129.4799   1.0591290314e+02   4.8181455279e+01    0.1397824    0.1198293 -62.58 0.0001536822    1.048    0.046
        57 -10.3261     28.0751    127.9383   9.7208094406e+01   4.6763568892e+01    0.2173614    0.2007158 -59.78 0.0004430815    1.006    0.006
        58 -11.6273     24.9364    122.9134   9.7550769826e+01   4.8398533833e+01    0.3998029    0.2802138  76.58  0.001088606    1.692    0.409
        59  -9.0627    208.6673    123.2930   4.6999080602e+01   1.6190197407e+01    0.1313181   0.09743199 -70.13 0.0005445477    1.635    0.388
        60 -11.6632      9.2409    120.5545   1.0306630990e+02   5.0250176313e+01    0.3922143    0.2787796  56.69 0.0009247387    1.593    0.372
        61 -11.8201     14.9703    118.8386   1.0066401261e+02   5.0302364613e+01    0.5781755    0.2511645  -5.89  0.002046594    3.572    0.720
        62  -9.9390     86.3472    118.8098   7.4618404942e+01   4.1062997570e+01    0.2303254    0.1365618 -43.14 0.0005040134    1.708    0.415
        63 -10.1610     69.1613    116.8782   7.9998552684e+01   4.4454656863e+01    0.2239832    0.2081177  78.24 0.0002703939    1.189    0.159
        64 -11.1516     15.6562    113.0933   9.9505261074e+01   5.1766681220e+01    0.3204042    0.1691153 -84.67  0.001338509    2.222    0.550
        65 -11.5942      2.6479    111.9693   1.0441493061e+02   5.2906977766e+01    0.3070692    0.2028459 -60.39 0.0003557608    1.285    0.222
        66  -9.4952     40.4939    112.4503   8.9655627298e+01   4.9557652992e+01    0.1476271    0.1368691 -41.08 3.277196e-05    1.013    0.013
        67 -10.3265     20.3021    112.5720   9.7594084495e+01   5.1536224069e+01    0.1836002    0.1336302  -8.16 0.0006339289    1.538    0.350
        68  -9.9526     65.4167    110.1634   7.9707316191e+01   4.6730050523e+01    0.2098853    0.1474127 -69.80  0.000382087    1.656    0.396
        69  -9.0881     35.6899    109.6808   9.0958650880e+01   5.0816538947e+01    0.1563166    0.1009734 -32.67 0.0005666553    1.642    0.391
        70 -10.8065     27.3756    107.7539   9.3890228078e+01   5.2163707406e+01    0.2978591    0.2165302  67.76  0.000682079    1.727    0.421
        71  -9.6539     57.3075    106.3461   8.1779394027e+01   4.8907609616e+01    0.1614781    0.1102157 -25.76 0.0003117775    1.699    0.412
        72  -9.9559     66.4641    104.5191   7.7888639301e+01   4.7953480436e+01    0.1529889    0.1432533 -22.09 -4.468577e-06    1.040    0.038
        73  -9.5627     16.6913    104.7234   9.7668599551e+01   5.3867299529e+01    0.1457503   0.09246173 -35.97 0.0002035095    1.554    0.356
        74 -10.6749     13.0730    103.9268   9.9015874769e+01   5.4340649209e+01    0.2084446    0.1824731 -56.18 0.0003372614    1.026    0.025
        75 -11.2710      5.7298    102.1940   1.0175855838e+02   5.5262470281e+01    0.3775035     0.177062 -77.86  0.001597871    2.197    0.545
        76 -10.7489    247.4895    101.9074   3.7608200109e+01   1.3316768335e+01     0.188607   0.09347049 -41.77  0.001026728    1.572    0.364
        77 -11.0400     19.8293     99.5938   9.5399898680e+01   5.4930367650e+01    0.2619594     0.174921 -82.01  0.001251355    1.708    0.414
        78 -11.8536     20.0255     93.1355   9.3997523947e+01   5.6539999899e+01    0.5481998    0.3345076 -22.75  0.002609925    1.797    0.444
        79 -10.0234     61.3134     99.6690   7.8541595051e+01   4.9941032369e+01    0.1510351    0.1191686  72.46 0.0004076542    1.677    0.404
        80  -9.6179    217.9743     98.5335   4.0485074347e+01   1.8786731925e+01     0.164027    0.1265598  62.73 0.0004027661    1.504    0.335
        81 -11.5985     10.5323     93.7083   9.8260861580e+01   5.7115559656e+01    0.4131786    0.2461191 -64.52  0.001775862    1.506    0.336
        82 -11.6401      7.4044     90.7295   9.9082989890e+01   5.8061685923e+01    0.5634735    0.1863167 -64.64  0.002179881    2.511    0.602
        83 -10.4830     29.2499     94.0640   9.0200795924e+01   5.5452235520e+01    0.3838847    0.1617011 -55.64 0.0009310626    2.064    0.516
        84 -11.9886    125.2745     93.0046   5.6243982641e+01   3.8965965415e+01    0.2622252    0.2498613  42.86 0.0002830148    1.070    0.065
        85  -9.9584     80.3419     93.9875   7.0004205480e+01   4.8016616442e+01    0.2055113    0.1958444 -30.94 0.0002663885    1.043    0.041
        86 -10.7842    106.0715     91.7347   6.1115334784e+01   4.3371908116e+01    0.3694243    0.2451404 -58.09 0.0007888598    1.734    0.423
        87  -9.2434    142.4128     91.8289   5.1854028222e+01   3.5410779574e+01    0.1887134     0.140535 -30.89 0.0003030271    1.484    0.326
        88 -11.7338     56.9452     91.0872   7.7896158627e+01   5.2647302774e+01    0.5410799    0.3141635  37.80  0.001499726    1.756    0.431
        89  -9.6776     43.1891     92.1826   8.3811875781e+01   5.4315476407e+01    0.1953488    0.1748127  69.25 0.0005157941    1.348    0.258
        90  -9.3888     66.5469     91.5403   7.4303035851e+01   5.1006907530e+01    0.1472361    0.1427424  -8.73 4.272487e-05    1.035    0.034
        91 -11.6333    159.8637     89.1601   4.7555369114e+01   3.2061761672e+01     0.244626    0.2272175 -86.89 0.0002503009    1.054    0.051
        92  -9.9871    147.9250     96.3719   5.1844590504e+01   3.3328864516e+01    0.2002022    0.1882869  59.16 0.0005237578    1.092    0.084
        93 -10.3126     92.0136     87.0676   6.4046797100e+01   4.7254497274e+01    0.2145323    0.2097831  23.26  0.000284798    1.013    0.013
        94 -13.4952     65.6338     81.8003   7.1746479779e+01   5.3331465935e+01    0.4741278    0.3931206  47.30 0.0007206781    1.306    0.235
        95  -9.9741     17.3366     84.9539   9.3412514801e+01   5.8774618567e+01    0.1972381    0.1541432 -48.60 0.0003843278    1.130    0.115
        96 -11.1192      8.4099     83.3546   9.7188625386e+01   5.9813010046e+01     0.553222    0.2077982 -30.61  0.002037797    3.157    0.683
        97 -11.8934     12.0644     76.8131   9.4022476990e+01   6.1129665231e+01    0.3517548    0.2166561 -22.19 0.0007629722    1.656    0.396
        98  -9.4942    187.4951     82.5902   4.1254893155e+01   2.7305794661e+01    0.1331683    0.1192335 -65.05  7.46877e-05    1.023    0.023
        99  -9.2240     27.7129     82.2616   8.8005627154e+01   5.8467880535e+01    0.1271532     0.106918  58.47 0.0006885988    1.490    0.329
       100  -9.6597    125.0248     81.0062   5.2905066292e+01   4.1332875364e+01    0.1817755    0.1567463 -44.89  0.000398397    1.177    0.150
       101  -9.6972    250.4559     80.5268   3.3296414270e+01   1.6044906854e+01     0.117318   0.08841695 -52.70 0.0001488354    1.003    0.003
       102  -9.2753    159.3007     80.2998   4.5390636051e+01   3.3747998008e+01    0.1337233    0.1131133  14.97 0.0002498454    1.582    0.368
       103  -9.9183     86.3978     78.8678   6.3357710120e+01   5.0066087724e+01    0.3846487    0.1998201  49.27  0.001557608    2.013    0.503
       104 -10.1459     47.9249     78.8853   7.8063817608e+01   5.6761290937e+01    0.2201346    0.1766786 -19.89 0.0003702993    1.245    0.197
       105  -9.9572     41.2548     76.9922   8.0409674308e+01   5.8098662416e+01     0.259083    0.1685235  38.76  0.001260507    1.655    0.396
       106  -9.6830     22.5152     76.9836   8.9055214453e+01   6.0216442037e+01    0.2033663    0.1267304 -58.03 0.0005110217    1.530    0.347
       107  -9.7906    176.9958     76.5122   4.1422709732e+01   3.0515038582e+01    0.1991724    0.1313593  62.10  0.000884879    1.567    0.362
       108 -10.2531     52.4599     75.4859   7.5083657506e+01   5.6834214425e+01    0.2541592    0.2435997  42.94 0.0007429693    1.189    0.159
       109 -12.4400      5.1244     69.1071   9.5653681051e+01   6.3393155808e+01    0.7860682    0.2631305 -57.47   0.00327709    2.346    0.574
       110 -11.3624      9.3455     70.2231   9.3784470410e+01   6.2859963472e+01    0.2364417    0.2031994 -32.93 0.0007494548    1.016    0.016
       111 -10.0360     35.1828     73.4612   8.2111158423e+01   5.9653611391e+01    0.2312243    0.1743481 -26.50 0.0008777187    1.275    0.216
       112 -10.0091    142.5198     72.9947   4.6701105030e+01   3.8779049401e+01    0.2746336    0.1889351 -75.26  0.000818306    1.846    0.458
       113 -10.2146    118.1430     71.1281   5.1690978979e+01   4.4668378739e+01    0.2111753    0.1836845  30.79  0.000344965    1.247    0.198
       114  -9.4548    105.7490     71.6809   5.5148897900e+01   4.7344966502e+01    0.2049891    0.1301456  58.39 0.0005910092    1.666    0.400
       115 -13.0870     81.2416     66.8632   6.1170616227e+01   5.3419074415e+01    0.4374304    0.3565178  23.32 0.0007982198    1.256    0.204
       116  -9.5228     91.8231     70.5791   5.8933704302e+01   5.0551927283e+01    0.1930679    0.1362032  57.27 0.0004568646    1.528    0.346
       117  -9.3316     70.2413     70.0125   6.6183530425e+01   5.4945457190e+01    0.1729752    0.1209482 -41.86 0.0002414818    1.464    0.317
       118  -9.9004     45.2953     69.5568   7.6286458542e+01   5.9159887290e+01    0.2463152    0.1220393 -49.81  0.001058485    2.002    0.500
       119  -9.5858     39.0429     70.4884   7.9416491808e+01   5.9818485898e+01    0.2035285    0.1322601  26.18  0.000600414    1.528    0.346
       120 -11.9866    211.8542     67.4616   3.4693223877e+01   2.4786287634e+01    0.2258485    0.1888342 -64.02 0.0003183145    1.025    0.025
       121  -9.0135    102.2470     68.2683   5.5055884580e+01   4.8726913282e+01    0.1348883    0.1112956  11.83 0.0006786741    1.437    0.304
       122 -10.3202     58.7896     66.1128   6.9347060086e+01   5.7745957829e+01    0.2695512    0.1831656 -34.82 0.0007816275    1.499    0.333
       123 -10.8994     16.9463     50.3526   8.3927054291e+01   6.6538168716e+01    0.3932832    0.1904455 -59.69 0.0007024611    2.382    0.580
       124 -13.8103     20.7727     58.2827   8.4500920765e+01   6.4531051917e+01    0.5043442    0.3370502 -29.43 0.0008601999    1.388    0.279
       125 -10.0023    128.5785     63.1225   4.6828624274e+01   4.3618871990e+01    0.1903827    0.1739928 -43.71 0.0003884495    1.149    0.130
       126  -9.2880    119.6526     62.4864   4.8680772371e+01   4.5781929920e+01    0.1362627    0.1333073 -85.76 4.302014e-05    1.051    0.048
       127 -11.7580     57.5589     59.4647   6.7505781627e+01   5.9232917735e+01    0.5196327    0.2873531  19.73  0.001513782    2.390    0.582
       128 -10.0168    145.4434     58.9652   4.2228191788e+01   4.0358636391e+01    0.2049623    0.1753261  71.13 0.0003284218    1.108    0.097
       129  -9.8090     90.7811     59.2091   5.5449791852e+01   5.2783962084e+01    0.1985215    0.1845151  63.35 0.0003517199    1.127    0.113
       130  -9.6469     38.1163     59.5327   7.6214600776e+01   6.2224089136e+01    0.2506721    0.1241204  33.39 0.0008597368    1.981    0.495
       131 -10.8772      3.8383     57.6045   9.3430670999e+01   6.6054975311e+01    0.2242802    0.1428296 -42.82 0.0005458762    1.312    0.238
       132  -9.6847    229.4051     56.6919   3.0690823923e+01   2.3021026817e+01    0.1529554    0.1003435 -36.62 0.0008250848    1.525    0.344
       133  -9.3611    130.6885     57.2865   4.4641305501e+01   4.4042641505e+01    0.1410915    0.1047024 -79.46 0.0002805565    1.578    0.366
       134 -10.2011     72.0395     57.1092   6.1001817120e+01   5.6994367484e+01     0.235132    0.1869557  62.71  0.000956104    1.526    0.345
       135 -12.3452     11.9331     59.9051   8.9684308506e+01   6.4977561532e+01    0.5564544    0.3875915 -86.11  0.002169521    2.164    0.538
       136 -12.9577    114.6192     53.3477   4.7011476995e+01   4.8372836974e+01    0.4872932    0.3404643  30.25  0.000480676    1.761    0.432
       137 -12.8317    106.1869     50.1081   4.8028414861e+01   5.0794319359e+01    0.5272691    0.3253174 -54.02 0.0006413789    1.968    0.492
       138 -11.2533     86.7793     54.0606   5.4899021478e+01   5.4488070124e+01    0.5187968    0.2405542  41.14  0.001359267    2.132    0.531
       139  -9.9496    225.2599     52.9821   3.0332994662e+01   2.4287209795e+01     0.152616   0.08556281 -43.00 0.0004212591    1.510    0.338
       140 -10.5981     97.9974     51.9086   5.0820820492e+01   5.2374428277e+01    0.3099818    0.2555212 -55.15 0.0008255781    1.370    0.270
       141 -11.8153     66.7846     52.6083   6.1297643176e+01   5.8780080042e+01    0.5101283    0.2254657  44.81  0.001448831    2.155    0.536
       142  -9.8858     44.9736     52.6282   7.0473964834e+01   6.2556347021e+01    0.1845963    0.1549297  13.73  0.000420202    1.088    0.081
       143  -9.6190    148.9665     52.2435   3.9739289860e+01   4.0533272132e+01    0.1888223    0.1609122  76.89 0.0004322986    1.091    0.083
       144 -10.2346    135.4767     51.5729   4.1993915791e+01   4.3770883333e+01    0.2694581    0.1977082  52.18 0.0007723147    1.343    0.255
       145 -10.6087    138.4633     50.0414   4.0984116058e+01   4.3291010495e+01    0.2275343    0.2047396  37.62 0.0005302628    1.274    0.215
       146  -9.8978     79.7126     51.9897   5.6447528767e+01   5.6307744371e+01    0.1954348    0.1838482  30.39 0.0008420417    1.035    0.034
       147  -9.0467      4.0000     51.9223   9.1736827646e+01   6.7266281438e+01    0.1968205   0.06516707 -60.61 0.0004568149    2.831    0.647
       148  -9.7580    232.7999     50.3034   2.9140071514e+01   2.3265598835e+01    0.2246332   0.07077109 -40.23  0.001026651    2.523    0.604
       149  -9.5439     38.5178     51.5006   7.3098742138e+01   6.3724241986e+01    0.1364895    0.1173041  -3.25 -1.337649e-05    1.028    0.028
       150 -10.4517     54.1746     48.0302   6.4611207913e+01   6.1856489679e+01    0.3427644    0.2857364 -45.59  0.001835173    1.386    0.279
       151 -11.4826      4.8471     40.4786   8.7554287516e+01   6.9540255354e+01    0.3108414    0.2030227 -68.83  0.001711048    2.052    0.513
       152 -11.2661      1.4721     37.9267   8.8762900968e+01   7.0282403167e+01    0.3774334   0.08035414 -53.76  0.001133996    3.490    0.713
       153 -10.7043    155.1534     46.7469   3.7238597116e+01   3.9871394490e+01    0.2249786     0.213266  62.19 0.0004301202    1.190    0.160
       154 -10.4778     79.3358     45.5470   5.4182906025e+01   5.7388688867e+01    0.2330614    0.2107891  35.15 0.0001820619    1.003    0.003
       155 -10.6500     26.1289     44.4193   7.6709085619e+01   6.6681241912e+01     0.339122    0.2868939 -26.00  0.001639905    1.132    0.116
       156 -10.5615     16.9227     43.8058   8.1592115693e+01   6.7826503128e+01    0.3393612    0.2409944  55.01  0.001422084    2.291    0.563
       157  -9.3940    220.5976     43.4769   2.8838429782e+01   2.6419112232e+01    0.1169464   0.09325466 -62.31 -9.513078e-05    1.045    0.043
       158 -11.1644     91.9751     39.8887   4.8251745989e+01   5.5454182128e+01    0.2478427    0.1960844  37.47 0.0005800151    1.225    0.184
       159 -11.7642      3.2334     46.1192   9.0412675491e+01   6.8525278683e+01    0.8287455    0.2948886  30.03   0.00217752    2.965    0.663
       160 -10.5952     73.8945     47.5919   5.6802463712e+01   5.8197936037e+01    0.2621276    0.2179291  40.93 0.0009503413    1.111    0.100
       161 -11.5274     38.0230     40.9652   6.9153370348e+01   6.5672541409e+01    0.3678492    0.2502688  -8.17  0.001853316    1.626    0.385
       162 -12.2703    141.7759     41.0163   3.7803679049e+01   4.3738913792e+01    0.2585464    0.2211758  80.72 0.0004334987    1.055    0.052
       163 -10.7164    184.3470     40.2271   3.1731158932e+01   3.4207208587e+01    0.3391641    0.2193564 -87.38  0.001497965    1.530    0.346
       164 -10.4093    170.3645     40.2758   3.3422459571e+01   3.7272347177e+01    0.2507877    0.1841136  85.87 0.0003975025    1.266    0.210
       165 -10.1971    116.6810     41.1443   4.2616837387e+01   4.9616061609e+01    0.2685111    0.1718966  53.70 0.0007465821    1.425    0.298
       166 -11.7547    121.5121     36.9527   4.0276733688e+01   4.9021362128e+01    0.3323084    0.3102264  51.06 0.0009760146    1.125    0.111
       167 -10.1340    110.7856     41.2074   4.3949273639e+01   5.0982815462e+01    0.2297822    0.1753979  85.36 0.0008089223    1.467    0.318
       168  -9.9054     43.9471     39.7602   6.5801324684e+01   6.4946614199e+01    0.1833064    0.1517617  21.90 0.0003928088    1.084    0.077
       169 -10.5944     81.3857     37.6452   5.0524180965e+01   5.8080296419e+01    0.3547716    0.2215483 -22.45   0.00176775    1.906    0.475
       170  -9.9925     18.0000     38.9627   7.9097588980e+01   6.8620094527e+01    0.2010321   0.06716812 -50.32 0.0008063727    2.970    0.663
       171  -9.4747     77.4603     37.4253   5.1680845178e+01   5.8947954178e+01    0.1362834    0.1181869  35.27  0.000119116    1.041    0.040
       172  -9.2620    132.7733     35.3658   3.7691067352e+01   4.6565804572e+01    0.1956522     0.155691  16.91 0.0006880172    1.703    0.413
       173 -11.0013     90.0911     32.5387   4.6061900615e+01   5.6827199139e+01     0.438985    0.1820637 -39.64  0.001555512    2.679    0.627
       174 -11.9698     91.1452     26.6764   4.3590351406e+01   5.7285156964e+01    0.2719381    0.2614751  14.22 0.0002349451    1.143    0.125
       175 -11.9534     45.6125     32.7447   6.1994651476e+01   6.5754080391e+01    0.3256677    0.2351582  35.97 0.0005970487    1.264    0.209
       176  -9.9432     15.7972     33.8287   7.8290068426e+01   6.9779317074e+01    0.2021173    0.1420258 -11.88  0.000867254    1.300    0.231
       177  -9.9148      6.4954     34.0295   8.4128568535e+01   7.0637689744e+01    0.1835136    0.1107348 -49.28  0.001039898    1.616    0.381
       178  -9.3795     55.3594     32.8850   5.7849280996e+01   6.3990744835e+01    0.1679768    0.1177065 -16.39  0.000446738    1.580    0.367
       179 -10.0278    206.0087     32.1222   2.7765345335e+01   3.0697828102e+01     0.177785    0.1410236 -68.00 0.0004804932    1.015    0.014
       180  -8.8449    145.2623     32.6474   3.4879200082e+01   4.3965150028e+01    0.1345165   0.08847854 -65.88 0.0001727326    1.616    0.381
       181 -12.2315     11.1794     29.8857   7.9451308325e+01   7.0949431873e+01    0.2642948    0.2026747  23.10  0.001703041    1.347    0.258
       182  -9.4703    188.2128     30.0114   2.8957642975e+01   3.4638453347e+01    0.1694779    0.1240652  55.44  0.001044019    1.609    0.378
       183 -11.3164    135.7081     29.1113   3.5345129755e+01   4.6616556545e+01    0.2235903    0.1789676  74.82 0.0002890517    1.104    0.094
       184  -9.3648     59.2828     30.6898   5.5339973603e+01   6.3546018917e+01    0.1175644    0.1046499 -89.36 0.0002187149    1.568    0.362
       185 -10.8018     28.1619     33.0144   7.0841411971e+01   6.8405144027e+01    0.2445637    0.2315968   3.81 0.0007768637    1.291    0.225
       186  -9.1549    152.6965     29.6907   3.3002273290e+01   4.2587340479e+01    0.1230858   0.09420683  41.51 0.0003352233    1.607    0.378
       187 -10.3538    144.9633     28.3574   3.3720171246e+01   4.4535298076e+01    0.2174013    0.1874353 -87.06 0.0006510583    1.037    0.035
       188 -10.2600    140.3078     26.9003   3.3991422671e+01   4.5787720958e+01    0.2091087    0.1549389  84.88 0.0004125671    1.246    0.198
       189 -10.4135    209.1024     27.9868   2.6636090130e+01   3.0572502932e+01    0.1740867    0.1353378 -69.81 0.0003565265    1.009    0.009
       190 -10.0647     68.4192     27.2155   5.0537017017e+01   6.2159937708e+01    0.2729925    0.2102686 -74.34  0.001487599    1.998    0.499
       191 -10.9799    189.9410    248.9475   7.3613105302e+01  -3.3327912068e+00     0.325868    0.1581578  40.84  0.001592139    2.721    0.633
       192  -9.4095      7.5207     20.5475   7.7585742051e+01   7.2883921090e+01    0.1715328   0.09911997  32.78 0.0006554899    1.849    0.459
       193  -9.7665     80.9031     26.7107   4.6402274346e+01   5.9560746765e+01    0.1838595    0.1533549  52.66 0.0004632197    1.079    0.073
       194 -10.0703     45.3784     26.4675   5.9252244369e+01   6.6681801802e+01    0.2289528    0.1507701 -34.91  0.001099478    1.665    0.399
       195  -8.9165     33.3426     27.2874   6.5459311330e+01   6.8544523050e+01    0.1316756   0.08626192   6.77 0.0003641584    1.645    0.392
       196 -10.0390    220.7356     25.3634   2.5208055625e+01   2.8612731163e+01    0.2948641   0.08142036 -46.49  0.001077918    2.666    0.625
       197  -9.9310    103.0216     26.3375   4.0626866036e+01   5.4602184345e+01    0.2003044    0.1818336  63.98 0.0005583728    1.037    0.036
       198 -10.1156    102.7289     22.3975   3.9304679794e+01   5.5096290550e+01    0.2606654    0.1992663  46.63 0.0006652685    1.236    0.191
       199  -9.5868     18.5841     26.2992   7.3259869444e+01   7.0727084773e+01    0.1672135    0.1016508 -28.50 0.0009372695    1.579    0.367
       200 -10.4898    132.3933     24.9456   3.4638613943e+01   4.7861567801e+01    0.2295779    0.1651052  59.90 0.0006023599    1.272    0.214
       201  -9.7079     51.4168     24.2476   5.5616523148e+01   6.5878832077e+01    0.1589967    0.1198552 -39.99   0.00090431    1.596    0.373
       202  -9.6118     34.4255     24.4456   6.3548235336e+01   6.8785850185e+01    0.2682866      0.10954  39.14  0.001219678    2.223    0.550
       203 -10.2622    127.9519     23.0681   3.4786803124e+01   4.9109052005e+01     0.224142    0.1641674  57.81 0.0004486812    1.261    0.207
       204 -10.5415     39.3858     22.3965   6.0103957392e+01   6.8256652783e+01    0.2622644    0.1719374   9.00 0.0006394309    1.686    0.407
       205 -10.4895     38.1474     18.3745   5.8717493058e+01   6.8983645876e+01    0.3277304    0.1718973  41.17  0.001722693    1.682    0.406
       206  -9.8086     39.6833     15.3380   5.6461156132e+01   6.9087510890e+01     0.180602    0.1225518 -30.11 0.0008022949    1.626    0.385
       207  -9.5562    226.6483     22.7380   2.4283125522e+01   2.7800449988e+01   0.09529736     0.081902  59.49 0.0004349653    1.614    0.380
       208 -12.0195     17.7169     20.6424   7.1051143855e+01   7.1712468408e+01    0.5428063    0.2320942  34.42 0.0007497398    2.204    0.546
       209 -11.5759     18.6227    248.0432   1.1131249383e+02   1.7600921265e+01    0.3474614    0.2463519  -2.67  0.001623957    2.059    0.514
       210  -9.4670    230.2174    247.3923   6.6008109464e+01  -7.3671711746e+00    0.1343034   0.09264031  22.03  0.000418846    1.515    0.340
       211  -9.3480    224.3335    247.3174   6.7012559916e+01  -6.7769646584e+00    0.1215738   0.06823399 -10.00 0.0007047971    1.693    0.409
       212  -9.8361    116.1046    246.8186   8.9037930410e+01   6.2713836260e+00    0.1886313    0.1647902  42.36  0.001190724    1.204    0.169
       213 -10.2266    132.3003     20.0268   3.3184751297e+01   4.8404010696e+01    0.2641879    0.1935328  11.82   0.00117751    1.998    0.500
       214  -9.6237    170.7758    246.4421   7.7075782436e+01  -6.7060805625e-01    0.1763858    0.1028808  13.78 0.0008753683    1.642    0.391
       215 -10.1444     52.3930    244.2193   1.0349783965e+02   1.4797030472e+01    0.1825004    0.1574804 -52.05 0.0008540976    1.371    0.270
       216 -10.4001    112.1101     20.8080   3.6858239042e+01   5.3071888018e+01    0.2190946     0.169753  48.45  0.000375079    1.253    0.202
       217  -9.7109     39.6195    243.2912   1.0635032071e+02   1.6427519329e+01    0.1407133   0.07376742  53.34 0.0007018157    1.745    0.427
       218  -9.0627    194.3262    242.6897   7.1809142728e+01  -2.8671835999e+00    0.1050118    0.0951715  39.95 0.0007039775    1.659    0.397
       219 -10.1207    238.0438     19.4941   2.2951769557e+01   2.6090650272e+01    0.1508452   0.09191527  83.57  0.001028213    1.579    0.367
       220  -9.2465    202.4691    241.4661   7.0067699287e+01  -3.6035989740e+00    0.1213581   0.09427103  -6.26 7.017998e-05    1.013    0.013
       221  -9.9359    140.0391     18.0127   3.1486297861e+01   4.6797381995e+01    0.1839703    0.1312109  48.04   0.00107016    1.533    0.348
       222  -9.7346     70.7973     18.4287   4.6032378870e+01   6.2659142322e+01    0.1842015    0.0993807  45.29 0.0006580522    1.583    0.368
       223  -9.8925     50.2317     18.0317   5.3190617610e+01   6.6852216068e+01    0.1643263    0.1473916   6.08 0.0004038732    1.146    0.127
       224  -9.3430    229.3121     16.6632   2.2957029461e+01   2.7989032066e+01    0.1205471   0.05887432 -62.32 0.0007045539    1.688    0.408
       225  -9.8542    170.6125     16.0072   2.7402648326e+01   4.0028180666e+01    0.2450129     0.114253 -84.79   0.00112827    2.427    0.588
       226 -10.6523    159.8371     15.9684   2.8513903979e+01   4.2446832380e+01    0.1986782     0.152381  82.59 0.0003503753    1.118    0.105
       227  -9.8605    152.3792     16.8237   2.9587722932e+01   4.4060651608e+01    0.2526493   0.08533064  73.31  0.001019849    2.762    0.638
       228 -12.0263      2.4672    247.8995   1.1473822783e+02   1.9144167538e+01    0.4939214    0.4418896  38.42  0.002820289    1.251    0.201
       229 -10.4343    235.4744     14.8364   2.2251081018e+01   2.7067348530e+01    0.1574491     0.133328 -87.48  0.000913703    1.314    0.239
       230  -9.7441      5.8616     14.4796   7.5695529364e+01   7.4006107033e+01    0.1530931    0.0984106  16.28 0.0003656403    1.359    0.264
       231 -10.5444    207.8928     13.1292   2.3665555498e+01   3.2477312846e+01    0.1787134    0.1184433 -65.96 0.0004308161    1.204    0.169
       232 -10.0396     39.3292    207.0323   1.0343013854e+02   2.4755832974e+01    0.1931767    0.1632873  87.34 0.0005848316    1.141    0.124
       233  -9.5670     59.1411    236.1153   1.0120955353e+02   1.5737457727e+01    0.1777764    0.1329811  56.94 0.0003653676    1.269    0.212
       234  -9.7303     54.5988    235.7970   1.0226041340e+02   1.6345427754e+01    0.1708686    0.1168837  83.30 0.0002651077    1.624    0.384
       235  -9.5752    204.4096    235.4999   6.8762880475e+01  -2.9037517952e+00    0.1224501   0.09442279 -10.13 8.821949e-05    1.020    0.019
       236  -9.3752    238.9771    234.0671   6.2453696253e+01  -6.3667927975e+00    0.1375969   0.09835865 -17.69 0.0004733685    1.040    0.038
       237 -10.2638     32.3004    233.2728   1.0731404898e+02   1.9390427112e+01    0.1892919    0.1867294  58.55 0.0005804402    1.199    0.166
       238 -10.3523    244.9112    230.2348   6.0878604641e+01  -6.4078640742e+00    0.3264689    0.1315499  23.89  0.001717943    2.700    0.630
       239  -9.8655    174.2232    235.0049   7.4626957156e+01   8.1560723431e-01    0.1582844   0.09754719 -40.41 0.0005048451    1.627    0.385
       240 -10.6002    140.3960    227.9400   8.0880452207e+01   6.6099076484e+00    0.2806732    0.2336591  77.73   0.00116758    1.787    0.440
       241  -8.8523    152.4586    227.4807   7.8103560613e+01   5.0333769216e+00     0.133135    0.1164536   5.94 0.0005189896    1.037    0.036
       242  -9.4110     97.5026     10.4933   3.6132143467e+01   5.7451667618e+01    0.1271981    0.1078047  65.28 0.0008105318    1.024    0.024
       243  -9.7124    203.4939     12.4548   2.3836402416e+01   3.3429375605e+01    0.1175504   0.08697745 -71.07 2.639401e-06    1.052    0.049
       244  -9.4329    223.2946    226.6553   6.3916017594e+01  -3.6553611235e+00      0.10062   0.09265247 -43.52 0.0004072562    1.666    0.400
       245 -11.2086      2.7777    205.7017   1.1260013863e+02   2.8578858068e+01    0.3311809    0.1406031 -82.66  0.001500245    2.202    0.546
       246 -10.9947      1.5855    224.4666   1.1386992172e+02   2.4298901750e+01    0.3445659    0.1322476  80.86   0.00102759    2.788    0.641
       247 -11.0725      2.4961    219.8216   1.1342951431e+02   2.5280829218e+01    0.3755195    0.1343402  67.28  0.001503786    3.034    0.670
       248  -8.9945     61.2981    224.6657   9.9574204277e+01   1.8019874980e+01    0.1432716   0.09105664  59.56 0.0004100156    1.650    0.394
       249 -11.3972      8.4708    219.3173   1.1200743957e+02   2.4880314405e+01    0.5019975    0.1432603 -65.61  0.001431094    3.196    0.687
       250  -9.7998    130.9721    221.4323   8.2073648599e+01   9.2302214539e+00    0.2201988     0.124096  29.97   0.00103604    1.630    0.386
       251  -9.7815     28.1983    219.6317   1.0729459950e+02   2.2924724482e+01    0.1726203    0.1214221  15.17 0.0007668679    1.642    0.391
       252  -9.3877     85.6467    215.1628   9.2339528164e+01   1.7025050987e+01    0.1789873    0.1260107 -49.48 0.0001190228    1.524    0.344
       253  -9.3785    205.5245    211.4738   6.4569746422e+01   8.5422089513e-01    0.1294257    0.1015493 -13.97 2.047991e-05    1.050    0.048
       254 -10.4212      4.1787    210.9323   1.1255576339e+02   2.7214616394e+01    0.2056165    0.1408816  61.04 0.0005931082    1.275    0.216
       255  -9.6185    230.2749    209.6433   5.9880537375e+01  -1.8125268512e+00    0.1063701   0.08935986 -49.24 0.0005538323    1.650    0.394
