#   1 NUMBER                 Running object number                                     
#   2 MAG_AUTO               Kron-like elliptical aperture magnitude                    [mag]
#   3 X_IMAGE                Object position along x                                    [pixel]
#   4 Y_IMAGE                Object position along y                                    [pixel]
#   5 X_WORLD                Barycenter position along world x axis                     [deg]
#   6 Y_WORLD                Barycenter position along world y axis                     [deg]
#   7 A_WORLD                Profile RMS along major axis (world units)                 [deg]
#   8 B_WORLD                Profile RMS along minor axis (world units)                 [deg]
#   9 THETA_WORLD            Position angle (CCW/world-x)                               [deg]
#  10 FWHM_WORLD             FWHM assuming a gaussian core                              [deg]
#  11 ELONGATION             A_IMAGE/B_IMAGE                                           
#  12 ELLIPTICITY            1 - B_IMAGE/A_IMAGE                                       
         1 -13.7400    220.3103     25.2441   2.5215414195e+01   2.8707738013e+01     0.687982    0.3314013 -60.58  0.003908176    1.794    0.443
         2 -13.7202    225.0136     20.9649   2.4051980089e+01   2.8307744470e+01    0.7235767    0.3199403 -67.55  0.003888856    2.181    0.541
         3 -12.8371     60.3474     21.0912   5.0711575467e+01   6.4529048142e+01    0.2293328    0.1518897  39.41 0.0005142592    1.303    0.233
         4 -17.1264    116.3656    235.3009   8.7486650604e+01   8.4741127440e+00     4.643513     3.724107 -44.81   0.01287055    1.363    0.266
         5 -12.2117     60.8326    225.9637   9.9820564320e+01   1.7782722943e+01    0.3106394    0.1769178 -63.32  0.001058467    1.854    0.461
         6 -10.8813     55.1903    232.2380   1.0179759961e+02   1.7057572895e+01    0.3601479    0.2341795  73.02  0.001892767    1.714    0.417
         7 -11.1531     59.3679    230.7084   1.0064512343e+02   1.6897433169e+01     0.215427     0.178081 -64.56 0.0009600839    1.321    0.243
         8 -16.7372     61.1235    208.5114   9.7881516941e+01   2.1825473977e+01     3.910471     2.270729   5.82   0.01622403    2.502    0.600
         9 -11.5131     80.9443    220.0915   9.4148754134e+01   1.6538682837e+01    0.2025559    0.1878405  35.08 0.0003730226    1.021    0.021
        10 -19.2501     10.6835     88.6414   9.7217686079e+01   5.8367164572e+01     15.82994      2.55569 -67.60   0.04024807    6.001    0.833
        11 -11.7782    165.4830    248.3265   7.8446497485e+01  -3.3264193783e-01    0.2606442    0.1360128  29.15  0.001366391    1.704    0.413
        12 -11.2753     40.2050    200.6737   1.0258804200e+02   2.6227235300e+01    0.2081483    0.1661523  76.38 0.0007502531    1.216    0.178
        13 -11.1818     33.9660    199.4784   1.0413708169e+02   2.7200227366e+01    0.1990041    0.1671937 -89.50 0.0003383745    1.133    0.118
        14 -10.3513     79.1959    239.2711   9.6755588693e+01   1.2583292559e+01    0.1122765   0.09478077 -27.95 0.0002032394    1.393    0.282
        15 -11.4319     43.1129    193.8819   1.0110053978e+02   2.7609077524e+01    0.2117279    0.2005292  74.28 0.0007759895    1.036    0.034
        16 -11.0914     75.0667    193.2615   9.2197516756e+01   2.3729666737e+01    0.2286908    0.1754506  55.22 0.0006473794    1.341    0.254
        17 -13.9722     72.4153    184.9332   9.1747999111e+01   2.6195908623e+01    0.9097508    0.4949345 -51.01   0.00306513    1.868    0.465
        18 -16.7117     43.9624    164.5868   9.7304768929e+01   3.5185390041e+01     2.944756     1.322624 -69.98   0.01147205    2.192    0.544
        19 -12.2806     69.9842    231.8084   9.8179774949e+01   1.5347169202e+01    0.5357139    0.2698168  37.42  0.002077201    1.706    0.414
        20 -13.4214     99.0037    180.9649   8.3658483192e+01   2.3236922274e+01    0.3633611    0.3459115 -42.39 0.0008589414    1.064    0.060
        21 -12.6562     97.7221    177.3351   8.3383607072e+01   2.4338142714e+01     0.243678     0.234566   0.23 0.0004355756    1.044    0.042
        22 -15.5495     68.2411    170.3432   9.0749021508e+01   3.0554926691e+01     2.338668     1.134956 -55.29  0.009342191    1.978    0.494
        23 -13.9047     70.3541    153.0499   8.7162815559e+01   3.4823919297e+01     0.606091    0.4250751  32.50   0.00193776    1.439    0.305
        24 -14.5814     75.0497    136.5718   8.2412935471e+01   3.8451963655e+01     1.057475    0.6136484  57.52  0.004032372    2.330    0.571
        25 -13.8477     86.4527    173.1590   8.5855870041e+01   2.7151835113e+01    0.5028111    0.3652901 -17.43  0.002272421    1.756    0.430
        26 -14.1362    103.0521    171.3230   8.0814291842e+01   2.4970046339e+01    0.5841723    0.3908006  62.05  0.002478587    1.966    0.491
        27 -12.9402    101.5277    164.2329   7.9903888293e+01   2.6990692121e+01    0.5632675    0.2200289 -60.21  0.001828426    2.934    0.659
        28 -14.8513     78.6832    159.9579   8.5833475449e+01   3.1757206835e+01    0.9828935    0.6232553 -38.08  0.004199906    1.773    0.436
        29 -12.2732    110.6995    167.3585   7.7946096487e+01   2.4666662544e+01    0.2767568    0.1937959 -67.73 0.0009164492    1.664    0.399
        30 -13.0849     94.1780    165.1408   8.2184924690e+01   2.7974664578e+01    0.2788087    0.2290953 -55.83 0.0005007799    1.217    0.178
        31 -12.2342     97.0564    162.0319   8.0762077514e+01   2.8290485227e+01    0.2311872    0.2283991  63.57 0.0003621845    1.036    0.035
        32 -12.2213     87.9828    151.5551   8.1399692280e+01   3.2470060795e+01    0.2928396    0.2281819 -55.38 0.0003814985    1.266    0.210
        33 -11.8975    134.3992    148.1331   6.7645359201e+01   2.4987640774e+01    0.3680719    0.1469289 -56.95  0.001142847    3.229    0.690
        34 -11.6757    179.4898    175.5008   6.3054059813e+01   1.1165280680e+01    0.1405391    0.1251862 -22.63 -0.0001283531    1.015    0.015
        35 -13.0414     93.3453    146.5768   7.8751267413e+01   3.2847833446e+01     0.549037    0.3476317 -24.28  0.001491986    2.215    0.549
        36 -13.0553    106.1409    132.6333   7.1821457309e+01   3.4027329057e+01    0.6618182     0.361422 -55.93  0.002586726    1.912    0.477
        37 -12.4247     94.2788    132.7500   7.5422867565e+01   3.6180075229e+01    0.2907253     0.266269 -45.02 0.0003825964    1.074    0.069
        38 -10.5735    151.3799    133.1749   6.0138789289e+01   2.5044169525e+01    0.2138335    0.1364388 -55.78 0.0005195408    1.672    0.402
        39 -11.6715    114.7601    131.9880   6.9193448360e+01   3.2537489198e+01    0.2581976    0.1864724 -84.22  0.001070662    2.014    0.504
        40 -13.7874     76.9360    145.3286   8.3598363901e+01   3.5864138567e+01    0.5127842    0.4103137 -41.71 0.0008768925    1.266    0.210
        41 -13.2143     62.3603    129.0989   8.5128938027e+01   4.2332958108e+01     0.331711    0.2102141  29.42 0.0007073128    1.626    0.385
        42 -12.3859     57.3259    128.8964   8.6849027321e+01   4.3097913383e+01    0.2741963    0.2062429  41.60  0.001164028    1.390    0.281
        43 -11.1364    113.6641    126.6846   6.8227444862e+01   3.4006859335e+01    0.1620726    0.1242674  -9.05 0.0007047397    1.694    0.410
        44 -11.3359    101.3207    121.9187   7.0671511551e+01   3.7532414327e+01    0.2653077     0.214857  -0.62 0.0005424767    1.492    0.330
        45 -10.6759    109.4883    116.4761   6.6872277505e+01   3.7217924230e+01    0.1542488    0.1523314 -29.65 8.440118e-05    1.002    0.002
        46 -14.9623     68.8914    143.9597   8.5925480157e+01   3.7450127159e+01    0.9308396     0.654889  67.29  0.003680313    1.791    0.442
        47 -10.6751    205.4932    110.4484   4.4763890155e+01   1.9028354280e+01    0.1338389    0.1151265 -49.98 0.0002264248    1.008    0.008
        48 -10.6730     61.6694    110.3193   8.1121248794e+01   4.7267197119e+01     0.155385    0.1187358  68.74 0.0007048151    1.690    0.408
        49 -10.9422     60.5088     93.7012   7.7227969953e+01   5.1485106025e+01    0.2765144    0.1332406  32.24  0.001087855    2.097    0.523
        50 -11.6180    111.9695     81.6743   5.6485714204e+01   4.4111647952e+01    0.2094583    0.1872425  53.63 0.0004098691    1.098    0.090
        51 -11.3997     54.9546     76.5204   7.4367031463e+01   5.6225068353e+01    0.3776107     0.194274  44.81 0.0009063517    2.198    0.545
        52 -12.5773    178.0316     62.3398   3.7824286471e+01   3.2508093549e+01    0.2786999    0.2423433 -77.58 0.0007566191    1.034    0.033
        53 -14.1504    194.6795     49.5126   3.2701802058e+01   3.0789403188e+01    0.8001018    0.6222124  47.77  0.003596004    1.656    0.396
        54 -13.0664    200.1615     44.0296   3.0890401328e+01   3.0387256876e+01    0.4101611    0.3480742  34.83  0.001457361    1.730    0.422
        55 -11.3082     42.9906     45.3417   6.8551221063e+01   6.4164589950e+01    0.2681538    0.1427868  40.68    0.0010179    1.886    0.470
        56 -11.2159     33.6865     42.7107   7.2053194495e+01   6.5999903684e+01    0.2838336    0.1452462  36.10   0.00136817    1.913    0.477
        57 -10.9945     75.9877    244.4008   9.8039986830e+01   1.1922185760e+01    0.1661246    0.1598997 -76.23 0.0002708164    1.180    0.152
        58 -10.9917     65.1553    233.2430   9.9493474064e+01   1.5633468687e+01       0.1989    0.1777145  58.52 0.0006777961    1.075    0.070
        59 -11.4685    241.6654    248.3012   6.4230492180e+01  -8.5712493926e+00   0.09045179   0.08227177  -5.78 0.0004148858    1.657    0.397
