#   1 NUMBER                 Running object number                                     
#   2 MAG_AUTO               Kron-like elliptical aperture magnitude                    [mag]
#   3 X_IMAGE                Object position along x                                    [pixel]
#   4 Y_IMAGE                Object position along y                                    [pixel]
#   5 X_WORLD                Barycenter position along world x axis                     [deg]
#   6 Y_WORLD                Barycenter position along world y axis                     [deg]
#   7 A_WORLD                Profile RMS along major axis (world units)                 [deg]
#   8 B_WORLD                Profile RMS along minor axis (world units)                 [deg]
#   9 THETA_WORLD            Position angle (CCW/world-x)                               [deg]
#  10 FWHM_WORLD             FWHM assuming a gaussian core                              [deg]
#  11 ELONGATION             A_IMAGE/B_IMAGE                                           
#  12 ELLIPTICITY            1 - B_IMAGE/A_IMAGE                                       
         1 -12.6045     60.5423     44.1767   1.1275671002e+02   6.0374601030e+01     1.493356    0.4436708 -44.97  0.005650972    2.915    0.657
         2 -12.5469    105.0598     12.9590   8.5638736214e+01   5.7016347168e+01    0.8107082    0.4757837 -27.81  0.004039456    1.685    0.407
         3 -12.3324    130.9683     13.8098   8.0022837282e+01   5.0952525009e+01     1.941393    0.7553689  64.64  0.007226021    2.731    0.634
         4 -12.6123    124.2507     27.1480   8.6683788840e+01   5.1002236527e+01      1.03397    0.8110703 -12.18  0.002769861    1.281    0.219
         5 -11.9495    112.8176     51.3448   9.8719362135e+01   4.9933996054e+01     1.685952     0.530279 -39.32  0.005654171    3.020    0.669
         6 -12.8464    112.9488     24.6624   8.8482010784e+01   5.3892557196e+01     1.425017    0.5526627  48.69  0.005609998    2.406    0.584
         7 -10.8042    189.2131     39.9470   7.8547532858e+01   3.2907679009e+01    0.9191586    0.3885991 -14.44  0.002841957    3.805    0.737
         8 -10.6759    137.0157     35.0271   8.6708999813e+01   4.6922246864e+01     1.854383    0.8200138  32.02  0.005982453    3.547    0.718
         9 -11.4266    141.5952     21.5713   8.0801601651e+01   4.7489142711e+01    0.8797742    0.6313432 -75.85  0.004179665    1.899    0.473
        10 -11.6464    163.2060     29.2111   7.9437483946e+01   4.1077051183e+01    0.7021267      0.51719   7.56   0.00123736    1.598    0.374
        11 -10.0961    148.0304     16.9183   7.7877879529e+01   4.6388202473e+01     1.338036    0.9473165 -83.44  0.006409332    1.825    0.452
        12 -11.8542     26.3646     27.8119   1.2022926580e+02   6.7241606593e+01    0.5983908    0.4815401 -54.87  0.003512017    1.383    0.277
        13 -11.3544     14.5534      9.2305   1.1803075246e+02   7.1440392618e+01    0.3129844    0.1958556  13.38  0.001544542    1.780    0.438
        14 -11.2193     19.6713     22.0918   1.2101063656e+02   6.8839416992e+01     0.457316    0.2324225 -31.79  0.002346709    1.755    0.430
        15 -11.0815     15.0281     22.7255   1.2338274083e+02   6.9090942982e+01     0.466074     0.419716 -40.94  0.002386744    1.283    0.221
        16 -12.1584     17.1842     13.6200   1.1868768039e+02   7.0500504208e+01    0.7392194    0.3854332  -2.59   0.00188129    2.642    0.621
        17 -11.5896     23.0042     11.0037   1.1471217012e+02   7.0407534662e+01    0.4450783     0.273827 -11.05  0.002594498    1.689    0.408
        18 -10.8265    187.3175     14.4641   7.0977540931e+01   3.6430044669e+01    0.6115378    0.2999423  40.35  0.001899048    2.398    0.583
        19 -11.7639    192.4541      6.6325   6.7970863738e+01   3.5869833065e+01    0.9377326     0.563691  56.81  0.004536116    1.569    0.363
        20 -11.8612    178.2969     21.0759   7.4308826215e+01   3.8086034559e+01    0.6488751      0.37898  35.10  0.002640105    2.013    0.503
        21 -10.4675     88.1473      7.2458   8.7700823400e+01   6.1156998775e+01    0.4565624    0.2592825  34.09  0.001484337    1.698    0.411
        22  -9.5565     82.9985      5.9910   8.8633099634e+01   6.2300221668e+01    0.2537229    0.1714442  38.17 0.0006558223    1.379    0.275
        23 -11.4134     90.5882     20.7452   9.3045938287e+01   5.9074131182e+01    0.5942941    0.4057338 -19.88  0.002429393    1.385    0.278
        24 -11.3508     85.9886     14.4562   9.1649169446e+01   6.0758845844e+01    0.5971169    0.3111492 -14.59  0.001898742    2.101    0.524
        25 -10.7431     42.2228      4.1533   1.0252095707e+02   6.9209971260e+01    0.5725909    0.2834738 -11.63  0.002682906    2.687    0.628
        26 -10.8293     47.6530     18.7941   1.0738222215e+02   6.6403426518e+01    0.3907805    0.3295179 -21.45  0.002076029    1.127    0.113
        27 -12.9521     38.0798     18.7488   1.1138805620e+02   6.7588268924e+01    0.4221728     0.331309 -18.79  0.002900124    1.045    0.043
        28 -12.1158     49.5619     12.9009   1.0384129093e+02   6.7018425942e+01      0.63081    0.3033244  41.84  0.003259992    2.400    0.583
        29 -10.2687     71.5552      3.1789   9.0880374317e+01   6.4730417439e+01    0.4077057    0.3370028  33.12  0.002335513    1.228    0.186
        30 -10.6319     66.6289     10.2268   9.6040671403e+01   6.4764287946e+01    0.6833529    0.2900458  36.65  0.003145218    2.433    0.589
        31  -9.7028     63.1948      6.1488   9.5260097454e+01   6.5831671785e+01    0.2654596    0.1799439 -17.07 0.0008402906    1.297    0.229
        32 -11.8683     69.1632     17.8127   9.8724799967e+01   6.3346754196e+01    0.7543816    0.4302512  53.06  0.003787633    2.330    0.571
        33 -12.3527    239.1194     15.8072   6.5692631200e+01   2.3140555063e+01     1.173768    0.6015949  68.78  0.005537387    1.925    0.481
        34 -11.6020    239.4115      7.5220   6.3588918933e+01   2.3955192814e+01    0.4999259    0.3208427 -88.05  0.001906479    1.577    0.366
        35 -11.5808    245.5655      8.3976   6.3298972993e+01   2.2405013346e+01    0.4360277    0.3913589 -37.27  0.001553114    1.151    0.132
        36 -11.2061    242.1092      4.1314   6.2532776826e+01   2.3660832929e+01    0.4449597    0.2467403  82.14  0.002104013    1.809    0.447
        37 -10.9493    165.1403     17.3839   7.5120761378e+01   4.1934278116e+01    0.5051007    0.2697294  39.11  0.001652925    2.050    0.512
        38 -10.0438    225.6229     16.3423   6.7124118494e+01   2.6382659126e+01    0.2849474    0.2488347 -35.13  0.001113508    1.154    0.134
        39 -10.6406     77.0114      6.3124   9.0643897443e+01   6.3396376785e+01    0.2809394     0.250531 -12.75  0.001129146    1.198    0.165
        40  -9.9219    218.8737     12.8059   6.6857545700e+01   2.8453682686e+01    0.3801717    0.2101575  55.09  0.001776487    1.825    0.452
        41  -9.8796     95.2317     12.1005   8.7892824456e+01   5.9191617169e+01     0.326708    0.1913436  11.37  0.001522514    2.061    0.515
        42 -11.7055    211.4819      9.8366   6.6803133731e+01   3.0637653433e+01    0.5595146    0.3801937  11.53  0.002725787    1.992    0.498
        43 -10.5782     77.5274      2.5165   8.8635398864e+01   6.3705130082e+01    0.2447352    0.1853585  14.93 0.0007852794    1.164    0.141
        44  -9.6425     31.6354     11.9823   1.1113841339e+02   6.9373435481e+01    0.1741801    0.1545002  34.64 0.0005718385    1.597    0.374
        45  -9.4716      4.0860     10.6320   1.2393671494e+02   7.1966858296e+01    0.3321824    0.1394394 -25.20  0.001713091    2.710    0.631
        46  -9.1638    157.5533     10.9175   7.4123559245e+01   4.4565103663e+01     0.212065    0.1400935 -20.31  0.001030857    1.602    0.376
        47 -10.4888    169.7181      9.4958   7.1800953895e+01   4.1542150971e+01     0.485631    0.1789608  55.38  0.001849677    2.346    0.574
        48 -11.1408    162.8882      5.0997   7.1317509446e+01   4.3731553975e+01    0.6710917    0.2810813 -20.85  0.002292488    2.535    0.605
        49 -10.0222    157.4928      2.4963   7.1216947901e+01   4.5356470750e+01    0.3466661    0.2514343  55.53  0.001595279    1.251    0.201
        50 -10.3798    150.9860      7.1705   7.3868922502e+01   4.6608483019e+01    0.4546459    0.2816935  62.46  0.001579877    1.488    0.328
        51  -9.7080      1.2394      7.3299   1.2403528153e+02   7.2704900969e+01    0.1676427   0.06999227 -51.26 0.0002317145    1.868    0.465
        52 -11.3605     40.3988     14.2795   1.0833783750e+02   6.8009846689e+01    0.4965762    0.1741225  38.51  0.002262258    3.294    0.696
        53 -11.4708    225.3744      2.5495   6.3519932784e+01   2.7871694677e+01    0.6827634    0.3398086 -83.95  0.002944068    2.330    0.571
        54 -10.4865    218.7909      2.9650   6.4216910747e+01   2.9470597704e+01    0.3067238    0.2757362 -54.09  0.001097331    1.083    0.076
        55  -9.1343      5.3520      4.8732   1.2078213589e+02   7.2844808529e+01    0.1613811   0.06918423 -40.79 0.0007804958    1.681    0.405
        56  -9.2017    170.6870      4.0575   6.9883766344e+01   4.1795996318e+01    0.2372885    0.1824147  86.94  0.001002097    1.333    0.250
        57 -10.4824    141.7816      3.5137   7.4078785744e+01   4.9266638117e+01    0.3825368    0.2775733  70.31  0.001724286    1.375    0.273
        58 -12.4138    133.7354      2.6757   7.5183833571e+01   5.1336700501e+01    0.3924187    0.2662247  56.29  0.000539638    1.336    0.251
        59 -10.9741    108.4066      2.1358   8.0160575934e+01   5.7353734779e+01     1.356411    0.2809003  61.78  0.003929418    5.065    0.803
        60  -8.9900     55.7728      4.2488   9.7059182070e+01   6.7245653844e+01    0.1899672    0.1357431  37.04  0.001191642    1.480    0.324
        61 -10.1669     22.8862      2.6668   1.1068258841e+02   7.1687293113e+01    0.2812034    0.1655548 -25.93  0.001795573    1.364    0.267
        62 -10.2486    206.1777      2.4454   6.5280855302e+01   3.2718514840e+01    0.4196815    0.2310855 -89.29  0.001891271    1.973    0.493
        63 -10.8280      2.8037      1.8051   1.2073171661e+02   7.3514465543e+01    0.3308773    0.1683105   4.49  0.002025409    2.375    0.579
        64  -9.2139     16.4464      1.2617   1.1320755658e+02   7.2515350762e+01    0.1675737   0.08955677  24.65 0.0009617365    2.087    0.521
        65  -9.2463    122.8197      1.3483   7.6741831416e+01   5.4089477482e+01    0.3801224    0.1156936  62.86  0.001351356    3.054    0.673
        66  -9.6238     43.9669    148.0000   1.4025882329e+02   3.9812529173e+01    0.2092576    0.1659702  53.71  0.001412619    1.317    0.241
        67 -10.4749     48.4409    148.0689   1.3925527378e+02   3.9300507688e+01    0.3030176    0.2130467  61.48 0.0003728325    1.375    0.273
        68  -9.8720     46.4766    144.5339   1.3926818348e+02   4.0293774628e+01    0.2223955    0.1743372 -41.37 0.0007781399    1.681    0.405
        69 -10.0667     71.0376    151.2228   1.3452540335e+02   3.5806106600e+01    0.2864833    0.1552728  47.44  0.001482215    1.827    0.453
        70  -9.8106     56.4077    149.5694   1.3763515144e+02   3.8040352258e+01    0.2834922    0.1359367 -73.08 0.0007750752    1.946    0.486
        71 -10.7240    249.4481    142.7121   9.5759339423e+01   3.2714406658e+00    0.5280263    0.2284672 -34.18  0.002274301    2.177    0.541
        72  -9.2440    239.5199    146.5313   9.8241583151e+01   4.6513122064e+00    0.1373737    0.1221662   2.23 0.0001767359    1.017    0.017
        73 -10.3714    133.4507    140.0090   1.1805042886e+02   2.7862931204e+01    0.3612389    0.3482023 -54.10  0.001801456    1.086    0.079
        74  -9.5703     69.2774    140.5917   1.3336635801e+02   3.8381935670e+01    0.1550993    0.1267956  26.24 0.0004832831    1.576    0.366
        75  -8.3771    186.6772    139.3282   1.0637471565e+02   1.6860663900e+01    0.1467451    0.1184579 -83.61 0.0007049008    1.693    0.409
        76 -11.0312     81.5312    134.7027   1.2943038149e+02   3.7975974247e+01    0.4954753    0.3799858 -16.74  0.001941885    2.065    0.516
        77 -10.8816     47.8461    134.7884   1.3767420531e+02   4.2296010209e+01    0.3989627    0.1939612 -55.61  0.001592035    1.916    0.478
        78 -11.7587     92.3539    128.7535   1.2564858881e+02   3.7645424542e+01     1.059694    0.5562558 -53.14  0.004893669    1.794    0.443
        79 -10.8994     93.5850    123.9970   1.2439331873e+02   3.8508467570e+01     0.245191    0.2214166 -85.52 0.0002621951    1.051    0.048
        80 -10.6149     78.4222    128.7245   1.2914390623e+02   3.9766981791e+01    0.5704499    0.2009104 -52.79  0.002249837    2.607    0.616
        81 -11.0185     71.9114    133.8399   1.3165049279e+02   3.9532226350e+01    0.4925251    0.3580102 -15.39  0.002519213    2.403    0.584
        82  -8.7572    216.6624    134.7112   9.9556493058e+01   1.1160914333e+01    0.1500171    0.1069003  15.57  0.000581602    1.637    0.389
        83  -9.8640     62.3182    132.5204   1.3380461782e+02   4.1087930055e+01     0.418257    0.1522798 -59.23   0.00179022    2.349    0.574
        84  -8.7241    106.9563    131.0356   1.2248485133e+02   3.4699260372e+01    0.1661195     0.152111 -76.19 0.0004037562    1.026    0.025
        85 -11.0406     54.9581    123.1410   1.3416599556e+02   4.4097400764e+01    0.5149679    0.3713566  23.02  0.002434473    1.845    0.458
        86 -10.5659     45.7313    120.4248   1.3611709911e+02   4.5747501459e+01     0.335665    0.2327066  81.50  0.001152425    1.500    0.333
        87 -10.7325      3.1488    123.6605   1.4710134936e+02   4.8692545096e+01    0.4074716    0.2690145 -51.56  0.002790309    1.655    0.396
        88  -8.9282      7.4423    119.4781   1.4565880726e+02   4.9305879470e+01    0.1144954   0.08508145 -80.04 0.0006790972    1.014    0.013
        89  -9.1403     66.0972    125.4127   1.3168902439e+02   4.2203744862e+01    0.1770621    0.1102432  54.72 0.0009238419    1.745    0.427
        90 -10.0534     18.7833    123.9538   1.4337720179e+02   4.7478960284e+01    0.2555111    0.1290167 -73.28 0.0008519215    1.547    0.354
        91 -11.9579    105.0426    120.6345   1.2076772968e+02   3.7322553893e+01    0.5842771    0.5290318 -82.52  0.003375121    1.077    0.072
        92 -11.4961    105.1911    110.7598   1.1848426698e+02   3.9471768258e+01    0.8726093    0.5889053  66.84  0.004063719    1.900    0.474
        93 -12.7649     34.3027     88.4977   1.3382484398e+02   5.4057412940e+01     1.727889     1.051249 -75.01  0.007399118    1.570    0.363
        94 -12.1686      9.9790     97.4490   1.4239202550e+02   5.3958899937e+01    0.5913895    0.4533796  85.71  0.001959089    1.253    0.202
        95 -12.3124      7.4685     88.5005   1.4186004884e+02   5.6077707948e+01    0.5910048    0.3510511 -59.78  0.001076309    1.313    0.238
        96 -11.6590     23.7429     99.0798   1.3876186726e+02   5.2599486041e+01    0.5018494    0.2193318 -67.02  0.001831694    1.780    0.438
        97 -12.4599     19.1242     93.4574   1.3920795572e+02   5.4203314024e+01     1.257261    0.3404655 -68.62  0.004567546    2.972    0.664
        98 -12.7108     23.9173    109.6149   1.4026171757e+02   5.0237529557e+01     1.227064    0.5580746 -41.73  0.005875257    2.874    0.652
        99  -9.2818    221.0702    120.5120   9.5384076938e+01   1.2503629697e+01    0.2115712    0.1436303  50.25 0.0004216444    1.521    0.342
       100  -9.5859    148.8194    119.4623   1.0983162663e+02   2.8938096795e+01    0.2792197    0.2175171 -42.57  0.001172875    1.289    0.224
       101  -8.7627     71.5310    120.4857   1.2940483901e+02   4.2592495977e+01    0.1330347    0.1165039 -70.59 0.0008095201    1.029    0.029
       102 -11.4696     28.9128    113.0284   1.3941687848e+02   4.9050400019e+01    0.3990004    0.3202428   3.82  0.001983423    1.784    0.440
       103  -9.4135     81.8438    117.7792   1.2617437581e+02   4.1730333183e+01    0.1944649    0.1760306 -46.44 0.0003109536    1.185    0.156
       104 -10.8374     88.5858    114.7140   1.2375610677e+02   4.1385061752e+01    0.2732675    0.2219916  58.09 0.0002446574    1.307    0.235
       105 -10.8704     34.8776    120.1148   1.3886504229e+02   4.6916852744e+01    0.4650065    0.2608944  65.78  0.002479058    2.101    0.524
       106 -10.5624     67.0298    112.3493   1.2905732685e+02   4.5038941352e+01    0.4682927     0.314735 -75.56   0.00250802    1.499    0.333
       107  -9.4013    126.8293    113.9214   1.1372992360e+02   3.4679220525e+01    0.2222532    0.2029074 -20.30 0.0006179816    1.213    0.175
       108 -11.7818      2.9693    111.6070   1.4594522333e+02   5.1311680849e+01    0.4528764    0.3384836 -72.63  0.001750413    1.094    0.086
       109 -11.7271      3.3820    104.8808   1.4510029561e+02   5.2749262977e+01    0.3455891    0.3005183 -48.77  0.001084728    1.369    0.270
       110 -10.1690     49.3528    111.9927   1.3378644488e+02   4.7258770398e+01    0.3143775    0.2299662 -32.76  0.001834671    1.749    0.428
       111 -11.1688    170.9975    110.1080   1.0250616618e+02   2.5806114966e+01    0.5704662    0.4098001  42.15  0.002001731    1.408    0.290
       112 -10.9837     86.0936    105.3785   1.2236090647e+02   4.3866813729e+01    0.4873365    0.3518674   9.35   0.00239538    2.093    0.522
       113  -9.9387     83.0132    111.0099   1.2445180453e+02   4.3078697241e+01    0.4238236       0.2326  55.11  0.001900206    2.227    0.551
       114 -10.1958     78.8407    107.9661   1.2493152111e+02   4.4385812337e+01    0.3681192    0.2532117 -32.89   0.00131297    1.805    0.446
       115 -10.1522     14.8474    109.1500   1.4260072704e+02   5.1044172800e+01    0.2833669    0.1418195  55.02  0.001554431    2.339    0.572
       116  -9.8427    119.9095    108.8773   1.1422095854e+02   3.7126529506e+01    0.2228823    0.2033722 -17.90  0.000613794    1.222    0.181
       117 -10.6873    158.0863    105.0636   1.0401855683e+02   2.9751520207e+01    0.5042018    0.3440373 -13.86  0.001491245    2.050    0.512
       118 -11.6235    143.9578    104.7750   1.0722139448e+02   3.2978823228e+01    0.7090012    0.4988691 -16.25  0.003080114    1.934    0.483
       119 -11.1489    147.1640     98.1019   1.0465148107e+02   3.3604023061e+01    0.4480867    0.3454848 -38.69  0.001819333    1.284    0.221
       120  -9.9838    247.5200    104.0325   8.7040651045e+01   9.3025849217e+00    0.2133922    0.1016131 -48.88 0.0008102015    2.641    0.621
       121 -10.0075    120.1529    102.4762   1.1252467776e+02   3.8444280772e+01    0.5882927    0.3432109 -15.94  0.001820519    4.375    0.771
       122 -11.3453     66.9759     97.6315   1.2600790574e+02   4.8367495680e+01    0.6947418    0.4562874 -36.06  0.002034469    1.743    0.426
       123 -10.3728     57.7969     97.3688   1.2861901204e+02   4.9588955703e+01      0.57682    0.2686995 -60.83  0.002675347    1.874    0.466
       124 -10.4702     52.4835     96.0143   1.2989091845e+02   5.0516459167e+01    0.9409952    0.1949924 -55.06  0.003208974    3.516    0.716
       125 -11.2316     45.5049     85.8501   1.2984134167e+02   5.3549534196e+01    0.7934975    0.4648417  89.02  0.003522416    2.738    0.635
       126  -9.4217    136.6221    100.4083   1.0782383528e+02   3.5463810641e+01     0.341462    0.2355237   7.28  0.001376103    2.392    0.582
       127 -10.1504    211.2711     97.1655   9.1193876788e+01   1.8575368028e+01    0.4731184    0.3211501  24.29  0.002084932    1.840    0.457
       128 -12.2764     89.9134     59.3439   1.0825721718e+02   5.2929700240e+01    0.9689208    0.7746986 -45.86  0.005378696    1.219    0.180
       129  -9.9250     77.9486     96.9641   1.2268721376e+02   4.6980680311e+01    0.2235876     0.175357 -54.27 0.0003290662    1.137    0.120
       130 -12.3297     75.2632     50.2308   1.0980983059e+02   5.7084492994e+01    0.9777418    0.8033294 -48.62  0.005767363    1.262    0.207
       131 -11.2613     82.0513     92.9607   1.2052583762e+02   4.7249356493e+01    0.5450301    0.4122517  75.07  0.001881117    1.706    0.414
       132 -10.0238     76.7164     92.9684   1.2208048732e+02   4.8048020529e+01    0.2244043    0.1944399  54.49 0.0004485767    1.289    0.225
       133 -10.7077     93.3487     76.3758   1.1264430535e+02   4.8946121065e+01    0.5361993    0.4097312  16.41  0.002096418    1.606    0.377
       134 -11.3279     80.5756     82.4626   1.1821302191e+02   4.9760180144e+01      0.59576    0.5226787 -79.84  0.002494303    1.273    0.215
       135 -12.1682     69.9103     80.1148   1.2084459542e+02   5.1831606019e+01      1.10708    0.8242777 -13.34  0.005967024    1.745    0.427
       136 -11.8203     85.8747     73.6134   1.1406529214e+02   5.0781174077e+01    0.6413534    0.5443283 -66.06  0.003641935    1.297    0.229
       137 -11.7774     78.8395     67.0360   1.1424729668e+02   5.3255497643e+01    0.7457815    0.5215439 -74.55    0.0035889    2.143    0.533
       138  -8.4573     78.6190    100.6973   1.2336980846e+02   4.6049293714e+01    0.1387617    0.1034027 -22.22 0.0007023452    1.777    0.437
       139 -10.6976    124.9937     93.6903   1.0890280079e+02   3.9303099164e+01    0.5788426    0.3154091  37.97  0.002367666    2.058    0.514
       140  -9.5994    160.8522     93.7155   1.0027906374e+02   3.1295260758e+01    0.2984774    0.2225069  73.57  0.001341078    1.672    0.402
       141  -9.6532    138.2110     93.3629   1.0548382193e+02   3.6543490118e+01    0.3994724    0.2507596  22.50  0.001552559    2.426    0.588
       142 -11.5381    113.6627     85.3190   1.0951827819e+02   4.3322063480e+01    0.8863805    0.3867382 -40.80  0.002335708    2.241    0.554
       143 -10.6178    117.1033     92.9668   1.1076480780e+02   4.1054299363e+01    0.5763366    0.3731738  17.32  0.002339973    2.490    0.598
       144 -11.2257    119.9413     85.2207   1.0780374373e+02   4.2078173036e+01    0.6484484    0.4902479  82.12  0.002305508    1.853    0.460
       145  -9.5185    105.0539     93.5428   1.1417539282e+02   4.3237514213e+01    0.2585643    0.2094446  70.36 0.0008215259    1.468    0.319
       146 -10.2356    100.9662     90.8728   1.1458551137e+02   4.4550892356e+01    0.5071863    0.2285811  40.66  0.002024599    2.409    0.585
       147  -9.9180    104.8040     88.3862   1.1282927795e+02   4.4379082991e+01    0.3310589    0.2445081  46.63   0.00167577    1.451    0.311
       148 -10.4893    152.5515     91.9875   1.0167391143e+02   3.3567982945e+01    0.3510107     0.331634 -57.56  0.001295925    1.089    0.081
       149 -10.3131    183.9020     85.8291   9.3190708422e+01   2.7146515614e+01    0.6929749    0.2623471 -40.67   0.00233746    2.582    0.613
       150  -9.7832    212.1415     87.0264   8.8339515855e+01   2.0021918918e+01    0.2287946    0.2139381  -7.49 0.0004396241    1.066    0.062
       151  -8.8416    135.2889     86.3585   1.0418855352e+02   3.8579654664e+01    0.1563185      0.12034  -1.70 0.0007025577    1.685    0.407
       152 -10.8099    164.4384     83.0696   9.6419103371e+01   3.2411103785e+01    0.4901733    0.4194749 -60.98  0.001784881    1.283    0.221
       153 -11.6202    143.4169     83.0942   1.0123105521e+02   3.7383372957e+01    0.5307941    0.4203351 -16.96  0.001496948    1.417    0.294
       154 -10.4807    127.4492     83.3600   1.0528897400e+02   4.0877641359e+01    0.3992923    0.2879878  57.74  0.001347455    1.544    0.352
       155 -10.7635    120.3354     79.9886   1.0614023903e+02   4.3047669999e+01    0.5382348    0.2253896  49.39  0.001967641    2.564    0.610
       156 -11.5353     52.9581     76.6220   1.2531377509e+02   5.4752206013e+01    0.6111863    0.3540913 -61.44  0.002724807    1.593    0.372
       157 -11.4237     58.0755     78.1066   1.2404789443e+02   5.3819076384e+01    0.4568055    0.3368169 -80.96 0.0009021087    1.658    0.397
       158  -9.2954    108.9869     80.2469   1.0930943009e+02   4.5274414691e+01    0.2261965    0.2002653  -3.19  0.001043931    1.240    0.193
       159 -10.2080    105.9712     75.9298   1.0884906847e+02   4.6728501699e+01    0.4401327    0.3764612  55.05  0.002127701    1.299    0.230
       160 -10.4225     22.7712     72.2072   1.3422199447e+02   5.8592895837e+01    0.3186948    0.2094726  41.29  0.001544236    1.901    0.474
       161 -10.2564      6.4531     74.9800   1.4006563443e+02   5.9073201936e+01    0.5199875   0.08149808 -53.08  0.001511773    3.630    0.725
       162 -11.9758     13.5249     74.8528   1.3777170102e+02   5.8669801496e+01    0.4494562    0.3306367 -63.92  0.001611322    1.036    0.035
       163 -10.4467     14.4372     67.4466   1.3604359244e+02   6.0204764055e+01    0.3304226     0.233492 -59.52  0.001423957    1.072    0.068
       164 -10.1945    134.4777     77.2215   1.0163891901e+02   4.0530281566e+01    0.3265546    0.2545068  60.89 0.0009638171    1.423    0.297
       165 -10.5886     22.2707     36.2550   1.2495716687e+02   6.6019986463e+01    0.5141191    0.3164305  51.49  0.002877857    2.758    0.637
       166 -11.4746     25.9520     56.1481   1.2935085675e+02   6.1751680401e+01    0.9338866    0.6865327   5.15  0.006158974    1.689    0.408
       167 -10.5749     22.7639     48.0150   1.2834328863e+02   6.3667673355e+01    0.6157301    0.3159262  15.37  0.003394231    2.557    0.609
       168 -11.0728     32.2583     41.6522   1.2266307045e+02   6.4114312285e+01    0.4767987     0.376531  69.31  0.002341686    2.020    0.505
       169 -10.3264    143.8012    248.8043   1.3253940273e+02   7.0867980301e+00    0.2795643    0.1738811  27.70  0.001691376    2.030    0.507
       170 -11.4120     58.1478     30.3351   1.0826200244e+02   6.3133746963e+01    0.4959576     0.333027   1.50  0.001817724    1.748    0.428
       171 -11.8048     47.9260     30.6157   1.1234220313e+02   6.4439253288e+01    0.5664021    0.3077146  24.50  0.002463996    2.171    0.539
       172 -10.6166     60.3097     23.3232   1.0444558964e+02   6.3939478991e+01    0.3708329    0.1929324 -27.27  0.001165338    1.816    0.449
       173 -12.1894     54.4365     61.8338   1.2076160513e+02   5.7706209258e+01    0.8488249    0.5834691  45.09   0.00458711    1.804    0.446
       174 -12.7065     43.2575     46.8359   1.2010315785e+02   6.1995674545e+01    0.6580498     0.543096 -89.24  0.001313335    1.780    0.438
       175 -11.2667     51.2572     45.8286   1.1675641600e+02   6.1267595085e+01    0.4245658    0.2499531 -56.10  0.001098707    1.807    0.447
       176 -11.2633     45.9101     58.0744   1.2264119495e+02   5.9460400018e+01    0.5378974    0.2993725 -52.95  0.002874549    1.514    0.339
       177 -11.2747     40.0117     55.5016   1.2401270385e+02   6.0607081006e+01    0.4691955    0.3587783 -82.32  0.002830313    1.751    0.429
       178 -12.2897      2.3081     70.2309   1.4060558999e+02   6.0317850693e+01    0.6805705    0.1470219 -64.65  0.002886271    2.878    0.653
       179 -12.3722      8.3165     60.7834   1.3680260982e+02   6.1995874752e+01    0.9128345    0.3748762 -48.56  0.004946806    1.904    0.475
       180 -10.0981    242.0075     75.9864   8.0829515382e+01   1.4656616627e+01    0.2357012    0.1657532 -60.85  0.001139375    1.675    0.403
       181  -9.6489    192.5010     65.9299   8.5811976967e+01   2.8280833014e+01    0.2986229     0.236893 -73.20 0.0009279444    1.493    0.330
       182 -10.3456    183.9849     75.2344   9.0115127508e+01   2.8932257357e+01     0.358635    0.2274634  55.09   0.00125013    1.589    0.371
       183 -12.1079    186.9489     69.8486   8.7971279578e+01   2.9068837030e+01    0.8466082    0.6878899 -50.76  0.003279681    1.282    0.220
       184  -9.9677     46.2752     72.6338   1.2649480907e+02   5.6358942971e+01    0.3088091    0.1623078 -64.44  0.001515927    1.879    0.468
       185 -11.5746     40.4780     71.9709   1.2825978211e+02   5.7099240792e+01    0.6934413    0.3164636 -40.28  0.003258992    2.249    0.555
       186 -11.1340     33.2922     71.9380   1.3065376353e+02   5.7783168049e+01    0.3886066    0.2823767  26.78  0.002477209    1.694    0.410
       187  -9.0914    151.4557     73.5038   9.6418825777e+01   3.7273413335e+01    0.1532903    0.1491415  -9.79 0.0003204344    1.010    0.009
       188  -9.5402     61.3097     73.0308   1.2165870067e+02   5.4503266396e+01    0.2233974    0.1857708  48.04  0.000589573    1.429    0.300
       189 -10.2131    162.0964     70.2639   9.3056355586e+01   3.5248700521e+01    0.3909255    0.3254886 -85.78  0.001898971    1.452    0.311
       190 -11.7590    124.7774     67.3365   1.0098109352e+02   4.4529214651e+01     1.014814    0.4933341  40.66  0.003522385    2.238    0.553
       191 -10.2033    206.9762     68.5137   8.4094257148e+01   2.4216915640e+01    0.4821867    0.2024705  48.18  0.001333622    2.465    0.594
       192 -10.6512    172.3912     67.7631   9.0150915771e+01   3.3096824936e+01    0.4576958     0.349624 -45.62   0.00143522    1.340    0.254
       193 -11.7210    219.4736     65.9339   8.1416738422e+01   2.1496616362e+01    0.7771831    0.4345577  57.88  0.002756065    1.829    0.453
       194 -10.5042     21.0663     65.2663   1.3330339334e+02   6.0210195594e+01    0.1977928    0.1764805 -78.29 0.0006404278    1.227    0.185
       195  -9.7314    205.7799     62.8458   8.2680318825e+01   2.5378662973e+01    0.2991371    0.2177284  26.53  0.001379947    1.659    0.397
       196  -8.9952    167.9576     63.2496   8.9648366368e+01   3.4956829344e+01    0.2198166    0.1947362  61.00  0.001120705    1.155    0.134
       197 -10.7895    159.4756     61.7234   9.0927734448e+01   3.7335638195e+01    0.5004821    0.3311931  34.66  0.001964529    1.700    0.412
       198  -9.5846    174.6625    246.8316   1.2718583887e+02   2.5012882334e+00    0.2264238    0.1252961  29.95  0.001302632    1.886    0.470
       199 -10.5116    198.8517    243.9570   1.2279967898e+02  -9.9312372652e-01    0.2511642    0.1882278   0.32  0.001752605    1.591    0.371
       200  -9.7270    167.7622    238.0057   1.2723526820e+02   4.7321182954e+00    0.1262978   0.09997124 -45.91 0.0008834325    1.624    0.384
       201 -10.6659    117.7085     56.0899   9.9064067282e+01   4.8077719791e+01    0.5111438    0.3501926  44.03  0.001521123    1.493    0.330
       202 -10.1903    150.5556    237.7305   1.3014093773e+02   7.5433763457e+00     0.182005    0.1138645 -44.60  0.001139012    2.094    0.523
       203 -12.0237    105.9614     32.4463   9.3469973726e+01   5.4347560471e+01    0.6455833    0.4474428   3.07  0.002419914    1.670    0.401
       204 -10.8437    127.3295    242.3086   1.3459262440e+02   1.0525554246e+01    0.3044309    0.1802127 -62.66  0.001943104    2.117    0.528
       205 -12.5561    117.2842     42.9635   9.4449092675e+01   5.0336360353e+01    0.8886073    0.6151738  89.01  0.003273034    2.595    0.615
       206 -13.0191    120.4674     38.8483   9.2083569036e+01   5.0253345692e+01    0.8054783    0.6059207 -70.61  0.002635736    1.933    0.483
       207 -10.3176    106.0140     61.7674   1.0427210569e+02   4.9466547681e+01    0.4531744    0.3087342 -53.29  0.002161295    1.647    0.393
       208 -10.7313     98.8373     62.5663   1.0663620979e+02   5.0696675076e+01    0.2664176    0.2396009 -12.55  0.000196679    1.093    0.085
       209  -9.8455    148.0333     60.5468   9.3061858588e+01   4.0347391983e+01    0.4595774    0.1548912  56.20  0.001442743    3.155    0.683
       210  -8.9852    111.6087     67.2628   1.0451494007e+02   4.7314184983e+01    0.1443354    0.1167878  89.57 0.0006976064    1.703    0.413
       211  -9.9746    138.6550     43.7199   8.9463194562e+01   4.5284144025e+01    0.3735454    0.1977109  43.27   0.00108827    1.919    0.479
       212 -11.3459    136.3595     56.1238   9.4316162869e+01   4.3873207093e+01    0.7188705    0.5805987   1.08  0.002804102    1.383    0.277
       213 -10.4578    145.3032     52.1485   9.0875749487e+01   4.2377925577e+01    0.4577508     0.396086  -7.47   0.00196623    1.196    0.164
       214 -12.0554    145.1761     45.8362   8.8738637798e+01   4.3380613561e+01    0.7839791    0.5875869 -22.27  0.003841179    1.364    0.267
       215  -9.2581    219.6623     57.0735   7.8953911749e+01   2.2735020219e+01    0.2467239    0.2034638  88.98 0.0009695629    1.332    0.249
       216 -11.3205    156.7378     53.2917   8.8767619086e+01   3.9369771121e+01     1.198286    0.7488571 -17.95  0.005088842    1.850    0.459
       217 -12.0000    156.2327     41.7700   8.5014049789e+01   4.1208406216e+01    0.6308951    0.4145798  68.96 0.0007423884    1.688    0.408
       218 -11.1098    153.2063     36.0677   8.3664451315e+01   4.2761192164e+01    0.3145299    0.3022365 -81.98 0.0004039714    1.120    0.107
       219  -9.6027      2.0895     56.0588   1.3806084656e+02   6.3320874451e+01    0.1703024    0.1251068 -57.66 0.0005257852    1.024    0.023
       220  -9.6813    187.3723     55.2879   8.3534309559e+01   3.1224010799e+01    0.3328686     0.185374  51.24   0.00138033    1.773    0.436
       221  -9.8709     67.0341     54.8617   1.1420810199e+02   5.7441244780e+01    0.2273844    0.1730204 -42.48  0.000657571    1.154    0.134
       222 -10.6341    231.1450     39.6555   7.2726600989e+01   2.2245463226e+01    0.6446881    0.3279273 -73.39  0.001949817    3.189    0.686
       223 -10.1452    249.5102     53.0241   7.4033508364e+01   1.6132755952e+01    0.3673275    0.2398493 -68.55  0.001197494    1.843    0.457
       224 -10.2046    233.4902     45.3080   7.3944790085e+01   2.0940811744e+01    0.4426601    0.2353229  66.53  0.001956144    1.970    0.492
       225 -11.1054    239.8969     50.2648   7.4466632068e+01   1.8745697797e+01    0.4779277    0.3824063 -84.55  0.001542454    1.366    0.268
       226 -10.2102    244.5016     50.5065   7.3979773348e+01   1.7628203611e+01    0.2755656    0.2387506 -35.24   0.00081142    1.078    0.072
       227 -10.2547    210.6135     53.0444   7.9143070090e+01   2.5580608520e+01    0.4148455    0.1913631  53.20  0.001628364    2.150    0.535
       228 -11.1522     89.9337     89.0161   1.1722161006e+02   4.6852849191e+01    0.7023104    0.4052386 -30.38  0.002986348    2.288    0.563
       229 -10.0788    216.4393     52.0278   7.8013321569e+01   2.4251070067e+01    0.2445741    0.1989864  48.99 0.0003727374    1.283    0.221
       230 -11.2484    202.7204     49.7413   7.9379324077e+01   2.8062842698e+01    0.7292719    0.4470516 -50.88  0.003191666    1.757    0.431
       231 -10.9360    176.9780     37.5313   7.9787766649e+01   3.6427667218e+01      0.53163     0.332351 -14.10  0.002193103    1.867    0.464
       232 -11.2243    173.9662     48.0225   8.3669315820e+01   3.5761067788e+01    0.7469088    0.4114907  63.86  0.002712053    1.888    0.470
       233 -10.3388    177.2828     43.5158   8.1642004919e+01   3.5538395584e+01    0.4683843    0.3288101 -60.66   0.00213585    1.686    0.407
       234 -11.2148    171.8860     33.4332   7.9329302481e+01   3.8289419874e+01    0.5370429    0.3002343  56.75  0.002321396    1.691    0.409
       235 -10.4456    175.7488     29.5130   7.7415141104e+01   3.7768219767e+01    0.3576878     0.313457  -6.91  0.001192613    1.218    0.179
       236  -9.4591    228.4391     49.4946   7.5694945796e+01   2.1615892316e+01    0.1424532    0.1349757 -43.99 5.056986e-05    1.020    0.019
       237  -9.8891     90.7202     48.1552   1.0404533764e+02   5.4832144085e+01    0.2488576    0.2277259 -49.47  0.001352885    1.233    0.189
       238  -9.2080      3.7792     48.9195   1.3589655420e+02   6.4709094131e+01    0.1695628    0.1589223  13.41  0.001014868    1.403    0.287
       239  -9.1343    101.3096     47.9141   1.0074775607e+02   5.2865267951e+01    0.1988486    0.1575856 -26.13            0    1.186    0.157
       240  -9.2833     94.4353     36.4719   9.8423118352e+01   5.6071526175e+01    0.2603635    0.1785569 -56.78  0.001177084    2.056    0.514
       241 -10.4377    100.5319     43.5741   9.9354637641e+01   5.3743687631e+01    0.4317347     0.318533 -80.23   0.00199362    2.397    0.583
       242 -11.2388     93.8062     41.1931   1.0046316964e+02   5.5438230796e+01    0.5074139    0.3379716  39.46  0.001537912    1.554    0.356
       243  -9.6160     14.0938     46.4256   1.3128668416e+02   6.4610267676e+01    0.2440886    0.1083359 -48.67  0.001344988    1.665    0.399
       244 -10.0203    193.3922     45.9613   7.9712725838e+01   3.1002462620e+01    0.3606482    0.2196411  85.45  0.001185315    2.179    0.541
       245  -9.3290    132.1670     45.1883   9.1508935290e+01   4.6606709790e+01    0.2259188     0.187851  21.29 0.0002868492    1.244    0.196
       246 -10.0032      3.9614     44.5808   1.3480216770e+02   6.5581781000e+01    0.2605052       0.1311   7.25   0.00121795    2.681    0.627
       247  -8.9864    181.8588     42.8407   8.0643130826e+01   3.4438476622e+01    0.2034151     0.171305 -66.68 0.0003194148    1.292    0.226
       248  -9.3447     15.4480    233.3605   1.5192910429e+02   2.6316967591e+01    0.1668841   0.07330959 -76.01  0.001126884    2.068    0.517
       249 -10.3086    189.4744     32.5275   7.6231830749e+01   3.3794910290e+01    0.3125731    0.2512434  49.16 0.0005299425    1.246    0.198
       250 -10.3868    189.1240     27.9537   7.4878601097e+01   3.4445710309e+01    0.4072129     0.316948  12.07  0.001821387    1.525    0.344
       251  -9.6189     18.3125     41.6677   1.2827216140e+02   6.5269423644e+01    0.2498413    0.1494511  -9.52  0.001233315    2.141    0.533
       252 -11.1499     69.9220     33.2001   1.0513852281e+02   6.0903059515e+01    0.5470977    0.3383129  40.27  0.001463666    1.776    0.437
       253 -10.9138     82.1447     31.8953   1.0044307574e+02   5.9059390293e+01    0.4420119    0.3874773  32.06   0.00269241    1.225    0.184
       254 -11.3463     81.7220     39.3076   1.0356437512e+02   5.7942298738e+01    0.4129118    0.3359935  67.03  0.001222578    1.764    0.433
       255 -10.5782     78.0927     34.5004   1.0285382385e+02   5.9352248706e+01    0.2958336    0.2305416  33.14 0.0009950335    1.345    0.257
       256  -9.7288    217.9956     38.7572   7.4103679883e+01   2.5635203326e+01      0.25535    0.2064847 -32.72 0.0006945922    1.209    0.173
       257 -10.3734    242.5608    231.2359   1.1377234588e+02  -6.4379844003e+00    0.2206029    0.2035984  73.76  0.001626124    1.894    0.472
       258  -9.3469     23.4825    231.5449   1.5062574249e+02   2.5803246332e+01    0.1015233   0.06794297  70.68 0.0004792825    1.016    0.016
       259  -9.7435    133.7007     24.4111   8.3499124792e+01   4.9094669988e+01     0.375909    0.2951615 -78.82  0.001904581    1.674    0.402
       260 -10.6466    153.3296     25.5145   7.9959055081e+01   4.4066706402e+01    0.5242593    0.2666701 -14.08  0.002069066    2.389    0.581
       261 -10.6122    156.8144     25.1452   7.9190463565e+01   4.3217622068e+01    0.4434122    0.3505414  10.67  0.001778293    1.396    0.284
       262 -10.6767      5.0257     35.7632   1.3206156179e+02   6.7279015225e+01    0.5210089    0.2947409 -32.49  0.003325601    1.663    0.399
       263  99.0000      6.5582     30.5798   1.2987672534e+02   6.8194453527e+01    0.3979393    0.1560555  15.91  0.002096655    3.275    0.695
       264 -10.4668    206.8434     37.1634   7.5129581435e+01   2.8687493178e+01    0.3308504    0.2829924 -64.05 0.0007571735    1.185    0.156
       265  -9.3057    189.8843    229.8702   1.2234271355e+02   2.1544783436e+00    0.1813535    0.1332311  27.77 0.0005289961    1.242    0.195
       266 -10.6250    217.2603     31.9781   7.2310791030e+01   2.6672626082e+01    0.2730528    0.2359409  58.48 0.0004162431    1.186    0.157
       267 -11.0649    198.0846     29.0602   7.3952846321e+01   3.1967806655e+01    0.4567295    0.3957609   1.53  0.001476945    1.295    0.228
       268  -9.0871    182.4164     32.2467   7.7224938659e+01   3.5681356939e+01    0.1987342    0.1341656 -38.93 0.0003200741    1.488    0.328
       269 -10.7544    230.4354     29.6652   7.0154092394e+01   2.3659446180e+01    0.4553098    0.3478467 -41.67  0.001700053    1.227    0.185
       270 -10.6468    199.8498     24.8078   7.2457183759e+01   3.2010929416e+01    0.2995309    0.2548688  43.99 0.0005331093    1.233    0.189
       271  -9.6524    180.9961    228.2627   1.2365001321e+02   3.8416882349e+00    0.1620295   0.08454826  42.98 0.0007594482    1.530    0.346
       272  -9.9951    200.3957    226.8010   1.2008975815e+02   7.9525655465e-01    0.1488823    0.1081593 -14.25 0.0006617571    1.673    0.402
       273  -9.6397      9.0238    227.2701   1.5262270510e+02   2.7961389346e+01    0.1361786    0.0915333  66.34 0.0004031922    1.103    0.094
       274  -9.8781      9.9493    217.9469   1.5205661548e+02   2.9472112477e+01    0.1590443    0.1046117  74.78  0.000682677    1.038    0.036
       275  -9.6127    166.9440    213.6603   1.2405365413e+02   8.2883446134e+00    0.2417351    0.1603741 -83.53  0.001191431    2.877    0.652
       276  -9.3939    152.7936    207.8257   1.2581374069e+02   1.1647162233e+01    0.1734204    0.1349336  64.74  0.001031516    1.323    0.244
       277  -9.6653    222.0102    205.8264   1.1298498414e+02  -2.3850449419e-01     0.192462    0.1412595  62.40  0.001097184    2.001    0.500
       278 -10.1050    250.3633     25.2850   6.7020786555e+01   1.9409297454e+01    0.2302759    0.1675178 -28.94 0.0004947907    1.340    0.254
       279 -10.2001    192.0365     16.6564   7.1034673652e+01   3.4961983990e+01     0.320564    0.2607357  57.17  0.001150554    1.195    0.163
       280 -10.9753      4.4666    203.7278   1.5225248204e+02   3.2508424649e+01    0.4771218    0.1242393 -71.18  0.002422262    3.118    0.679
       281 -12.3436      5.5209    185.5118   1.5111865243e+02   3.5817494995e+01    0.7333514    0.3965177  80.74  0.005016571    1.427    0.299
       282 -11.2941    183.2540     24.6247   7.4700896781e+01   3.6379523617e+01    0.5303192    0.3466783  57.50  0.002131712    1.452    0.311
       283 -10.4221    245.4612    200.9982   1.0817586638e+02  -3.5970845499e+00    0.1910362    0.1401662  28.84 0.0006240781    1.153    0.133
       284 -10.4856    234.1299    197.0460   1.0935380356e+02  -1.2187671361e+00    0.3210448    0.2566958   4.39  0.001341731    1.143    0.125
       285 -10.0885     16.8157    192.7242   1.4955561917e+02   3.3415508006e+01    0.1854499    0.1252533  81.39 0.0004219861    1.082    0.076
       286  -9.6139    170.1670    191.1516   1.1991850993e+02   1.1222260409e+01    0.3473957    0.1560266  31.67  0.001349649    2.949    0.661
       287  -9.8114     81.2225     19.4055   9.5374406218e+01   6.1024689656e+01     0.341992    0.2169244  36.64  0.001268964    1.561    0.360
       288  -8.9146    191.7978    188.3591   1.1533124056e+02   7.6242775984e+00     0.177792     0.109022  36.62 0.0002872279    1.482    0.325
       289  -9.3055    168.4086    188.2418   1.1976531306e+02   1.2027036304e+01    0.1635996    0.1282566 -59.28 0.0007056716    1.534    0.348
       290  -9.5829    213.6762    180.6634   1.0987225460e+02   4.6574079288e+00    0.1396497    0.0942168  12.85 0.0007051028    1.716    0.417
       291  -9.2705    250.3308    179.2042   1.0325979581e+02  -1.7764026396e+00    0.2535139    0.1084913 -22.31  0.001094376    2.658    0.624
       292  -9.5823     28.3264    176.3216   1.4628411675e+02   3.5502173735e+01    0.1014282   0.07772636 -55.46 0.0004930735    1.685    0.407
       293 -10.2853    221.0088     19.1835   6.8364952067e+01   2.7223301751e+01    0.2484021    0.2205289  52.50  0.000478324    1.205    0.170
       294 -10.1777    214.6826     21.7198   6.9760550143e+01   2.8540078689e+01    0.3782117    0.2474933  31.72  0.001771847    1.954    0.488
       295  -9.6556     57.1823    175.1606   1.4045469747e+02   3.2520053844e+01    0.1662854     0.143181 -89.92 0.0004798666    1.154    0.133
       296 -10.1923    238.9942    204.9741   1.0995795153e+02  -2.9965912705e+00    0.1714834    0.1569314  80.17  0.001147007    1.795    0.443
       297  -9.8935    247.5655    173.7584   1.0263354417e+02  -5.9868475611e-01    0.3330817    0.1445103  30.39  0.001396188    2.640    0.621
       298 -10.0602     66.0216     22.0115   1.0175199577e+02   6.3259105896e+01    0.2574708    0.1757856  39.29 0.0006269552    1.590    0.371
       299 -10.0891     51.6231    173.6427   1.4142636941e+02   3.3503030546e+01    0.2684853     0.161831 -81.27  0.001617988    1.470    0.320
       300 -10.0289     39.6956    172.5638   1.4372684959e+02   3.5078518535e+01    0.2924059   0.07013248 -65.12  0.001219119    3.347    0.701
       301 -10.7625     35.1027    170.6450   1.4447263741e+02   3.5962303406e+01    0.2488327     0.162716 -84.08  0.001030961    1.250    0.200
       302 -10.0401     18.5002    164.9758   1.4731334499e+02   3.8748399169e+01    0.2474139    0.2159173  -6.96  0.001872936    1.919    0.479
       303 -11.4935      9.1778    166.9697   1.4928755723e+02   3.9157341031e+01    0.4467594    0.2938851  87.32  0.002578489    1.130    0.115
       304  -9.9412    206.8545     19.0016   6.9901143109e+01   3.0852244489e+01    0.4137692    0.2133569 -51.41  0.001756348    2.078    0.519
       305  -8.8403      1.4421     20.4815   1.2893665065e+02   7.0373891984e+01    0.1126275   0.07802513 -42.37 4.719482e-05    1.042    0.041
       306 -11.9797     13.8566    159.5574   1.4782222219e+02   4.0273707263e+01    0.6053671    0.3203147  84.06   0.00192287    1.615    0.381
       307 -10.4658     39.7710    166.5622   1.4314525821e+02   3.6310976727e+01    0.2360139    0.1707638 -40.09  0.001477598    2.128    0.530
       308  -9.3212     30.3280    167.6477   1.4516678925e+02   3.7069043024e+01     0.124255   0.06623504  71.46 0.0007047431    1.768    0.435
       309  -9.1406     27.5384     15.4284   1.1460164730e+02   6.9255470988e+01    0.1168316   0.08934899 -25.73 0.0001200364    1.009    0.009
       310  -9.7854    188.7964    164.2941   1.1132156540e+02   1.2071832766e+01    0.2723193    0.1931027 -23.56  0.001131419    1.618    0.382
       311  -9.8014     28.2279    162.8857   1.4517427599e+02   3.8264226331e+01    0.2939208    0.1159269 -63.73  0.001540724    2.205    0.547
       312  -9.7374    205.1044    163.1703   1.0796695191e+02   8.9750263964e+00    0.2848843    0.1945787  22.64 0.0006347205    1.607    0.378
       313 -10.1124     80.5840    159.8614   1.3360385077e+02   3.2611110913e+01    0.3288849    0.2658018  56.56  0.002060064    1.198    0.165
       314 -10.4103    246.6516    158.5484   9.9649642241e+01   1.5947652875e+00     0.263396    0.1562717 -31.60  0.001350349    1.643    0.391
       315  -9.5024    215.4823    158.0328   1.0496653872e+02   7.7011466851e+00    0.2090137    0.1336289 -29.59  0.001031711    1.606    0.377
       316 -10.7099    104.6571    153.6140   1.2722845794e+02   3.0207852760e+01     0.402395    0.2764104 -60.79  0.002156465    1.434    0.303
       317 -10.2192     31.7942    154.6954   1.4365976786e+02   3.9637178874e+01    0.3156597    0.2102331  55.16  0.001915554    1.454    0.312
       318 -12.2638     23.4205    136.6121   1.4366860248e+02   4.4317866177e+01     0.742604    0.5179262  64.37   0.00499363    1.396    0.284
       319 -11.5493     29.7972    132.7764   1.4174592155e+02   4.4581430427e+01    0.4835241    0.2770882 -81.95 0.0009210762    1.501    0.334
       320 -10.6711    240.6908     31.1372   6.9441075718e+01   2.0992786572e+01     0.516284    0.3608916 -17.23  0.002633157    1.581    0.367
       321 -10.9203     30.6321    148.8378   1.4332205245e+02   4.1004069838e+01    0.3595279    0.2052048 -77.93 0.0008730215    1.435    0.303
       322 -10.8397     33.1895    144.2691   1.4226689172e+02   4.1741554728e+01    0.3501122    0.2195955 -79.44  0.001392809    1.306    0.234
       323  -9.6797     23.3059    154.9278   1.4548533441e+02   4.0399852099e+01    0.2032318    0.1725145  -4.91  0.001462631    1.927    0.481
       324 -10.5494     13.9873    132.6749   1.4544068791e+02   4.5958052286e+01    0.3431265    0.1975872 -74.76 0.0005338618    1.339    0.253
       325 -11.1751     10.4018    128.1646   1.4582902378e+02   4.7208513754e+01     1.036958    0.1473907 -69.47  0.003721689    4.204    0.762
       326 -10.9682     14.6257    140.2655   1.4602290902e+02   4.4272227310e+01    0.4135688     0.275068  76.19   0.00280178    1.326    0.246
       327 -11.8419     22.1540    149.8184   1.4526328342e+02   4.1586984505e+01    0.5003398    0.3031622 -38.07  0.002839068    2.732    0.634
       328 -10.6130     15.4719    147.8110   1.4651820717e+02   4.2594475821e+01    0.3280858    0.2192419  54.99  0.001391865    1.481    0.325
       329 -12.0473      4.9054    147.2693   1.4871555410e+02   4.3551087602e+01    0.5774276    0.3306508 -69.40   0.00256799    1.455    0.313
       330 -10.9797      2.3934    141.6354   1.4881124461e+02   4.4917417128e+01    0.3205152    0.2655021 -86.16  0.002079195    1.181    0.153
       331 -12.1531      3.8320    136.2642   1.4806284994e+02   4.5949246126e+01    0.2192268    0.1689529 -80.17 0.0003058258    1.117    0.105
       332  -9.7522    214.4891    151.9611   1.0384235301e+02   8.8519204976e+00    0.2108596    0.1353827 -33.21 0.0007548596    1.579    0.367
       333 -11.0560     63.3254    150.3381   1.3616218978e+02   3.7012637373e+01     0.431568    0.3263446  -7.23  0.002386952    2.407    0.584
       334 -10.1546     60.5423    147.4969   1.3641460465e+02   3.7985673082e+01    0.3212031    0.2444308 -75.23  0.001111232    1.142    0.124
       335 -10.0470    222.9296     22.6492   6.9096671601e+01   2.6349166651e+01    0.2644016    0.2411599  77.09 0.0007114256    1.095    0.086
       336  -9.4437     47.4630    151.4593   1.3988243504e+02   3.8673995586e+01    0.3239964    0.1781157  49.66  0.001827289    1.800    0.444
