#   1 NUMBER                 Running object number                                     
#   2 MAG_AUTO               Kron-like elliptical aperture magnitude                    [mag]
#   3 X_IMAGE                Object position along x                                    [pixel]
#   4 Y_IMAGE                Object position along y                                    [pixel]
#   5 X_WORLD                Barycenter position along world x axis                     [deg]
#   6 Y_WORLD                Barycenter position along world y axis                     [deg]
#   7 A_WORLD                Profile RMS along major axis (world units)                 [deg]
#   8 B_WORLD                Profile RMS along minor axis (world units)                 [deg]
#   9 THETA_WORLD            Position angle (CCW/world-x)                               [deg]
#  10 FWHM_WORLD             FWHM assuming a gaussian core                              [deg]
#  11 ELONGATION             A_IMAGE/B_IMAGE                                           
#  12 ELLIPTICITY            1 - B_IMAGE/A_IMAGE                                       
         1 -11.3588    152.7230     45.1550   8.4430374831e+01   4.1474520523e+01    0.8877748    0.6103398 -89.03   0.00366709    2.299    0.565
         2 -12.8937    218.9670     31.2972   6.8930470156e+01   2.6192458602e+01     3.865622     1.829913 -56.76   0.01366075    3.140    0.682
         3 -11.0491    229.5327     21.2023   6.4758087783e+01   2.4603838272e+01    0.5170768    0.3008707  30.84  0.001568707    2.047    0.511
         4  -9.9079    221.0489     13.3568   6.3331045745e+01   2.7487182358e+01    0.6720544    0.2591368 -52.40  0.002241271    3.481    0.713
         5 -10.3077    212.8193      5.1045   6.1668675407e+01   3.0341928338e+01    0.5710776    0.2281162 -45.91  0.001270389    2.694    0.629
         6 -11.2050    235.5837      8.5004   6.0554602486e+01   2.4317178263e+01     1.029335    0.3207822 -47.87  0.003362621    3.743    0.733
         7  -9.1672    228.6670     12.8338   6.2423182856e+01   2.5624085422e+01    0.6464453    0.2009389 -49.70  0.001913787    4.443    0.775
         8 -11.5757    118.9043      9.2017   7.7652722403e+01   5.4514636732e+01    0.7094292    0.6326112  25.50   0.00281848    1.055    0.052
         9  -8.5922     14.6623      6.3070   1.1642968150e+02   7.2383292877e+01    0.1029026   0.08814902 -81.36 0.0006838926    1.678    0.404
        10  -9.0960    187.8897     10.8289   6.6321151747e+01   3.6394551864e+01    0.5051585    0.2713321 -53.55  0.002021635    2.276    0.561
        11  -9.1119    172.0532      2.7085   6.5554460061e+01   4.1375814115e+01    0.4050497    0.2307629 -41.31  0.001198871    1.863    0.463
        12  -7.7068    176.9837     10.8163   6.7777846439e+01   3.9316676961e+01    0.2282801    0.1451109 -40.62 0.0007081811    1.641    0.391
        13  -8.2939    249.5582      2.3228   5.7750885324e+01   2.1525260604e+01      0.24406    0.1553283 -24.64  0.001023229    1.421    0.296
        14  -9.4661     98.4222      2.2490   7.9483314397e+01   6.0002351110e+01    0.3432219    0.1923053  32.21  0.001570657    1.820    0.451
        15 -10.1254      2.4345      7.5641   1.2378746674e+02   7.2944790976e+01    0.3034633    0.1489905 -53.98   0.00181109    1.442    0.307
        16 -10.3042     67.6119    144.2608   1.3002464606e+02   3.7719340208e+01    0.5425412    0.2887267  58.99  0.002012469    1.959    0.490
        17  -8.4050    236.3223    146.3324   9.6228099291e+01   7.9441398513e+00    0.1403451    0.0857157  15.15 0.0007049954    1.702    0.412
        18  -7.5820    198.6974    142.6881   1.0199768057e+02   1.5623603153e+01    0.1397224   0.09591706  14.54 0.0003447669    1.610    0.379
        19  -9.0953    129.2536    141.0162   1.1574355347e+02   2.9098830496e+01    0.2045721    0.1716236  47.26 0.0003225452    1.121    0.108
        20 -11.8131    240.8131    123.1813   9.0400727924e+01   9.8759380521e+00    0.8769637    0.4727131 -31.86  0.001126208    1.836    0.455
        21 -12.3988    243.3891    107.5075   8.6293971932e+01   1.1281712688e+01     1.636601    0.6386486 -32.38  0.006678811    2.392    0.582
        22  -9.7312     57.3708    128.8284   1.3041687884e+02   4.2116053936e+01    0.5915529     0.271773  77.89  0.001659421    4.164    0.760
        23  -8.4470    161.1847    128.1842   1.0626608300e+02   2.5396719192e+01    0.1907646    0.1718278  84.98  0.001088208    1.337    0.252
        24  -8.4029    126.5494    126.0366   1.1344576501e+02   3.2414913021e+01    0.1901256    0.1696834  45.09 0.0002438704    1.095    0.087
        25  -8.7155    183.6501    122.6767   1.0043158398e+02   2.1701039881e+01    0.1519976    0.1044672  14.97 0.0007048745    1.749    0.428
        26  -8.1249    223.9320    121.1678   9.2694411372e+01   1.3516840417e+01    0.2037954    0.1654078  87.35 0.0009946026    2.024    0.506
        27  -9.1676    213.7518    115.3111   9.3053470207e+01   1.6434539433e+01      0.27022    0.2300119 -66.86 0.0009034989    1.681    0.405
        28  -9.6612    167.8911    113.5974   1.0147988067e+02   2.6524178477e+01    0.3314057     0.300866 -77.13 0.0009060498    1.346    0.257
        29 -10.7055    186.4733    108.4610   9.6427417877e+01   2.3357092424e+01    0.5608564    0.2363076 -32.07  0.001974591    2.431    0.589
        30 -10.4727    189.9758    103.5094   9.4482138809e+01   2.3363459086e+01       0.4366    0.3127681  47.29   0.00151091    1.385    0.278
        31  -9.3151    204.8609    110.2812   9.3408819227e+01   1.9060837658e+01    0.4286256    0.2097279  28.82   0.00160051    2.697    0.629
        32  -7.5785     63.9585    105.9906   1.2525295188e+02   4.6240603895e+01    0.1483163    0.1318388 -80.16 0.0003741372    1.024    0.023
        33  -7.7167    142.7717    100.1276   1.0367419861e+02   3.4235396316e+01    0.1983686    0.1674548   9.56 0.0006013105    1.330    0.248
        34  -8.3797    230.7273     98.3843   8.6000351568e+01   1.5090379770e+01    0.1961643    0.1679112 -11.00 0.0006894382    1.076    0.071
        35  -8.3253    169.6829     96.9932   9.6860439447e+01   2.8970079828e+01    0.2133556     0.190405 -31.19  0.001145332    1.131    0.116
        36  -9.0274    149.7925     93.4168   1.0026828549e+02   3.3990602844e+01    0.3731392    0.2658864  -4.77 0.0009957018    1.869    0.465
        37 -10.7734    186.3444     89.2030   9.1357553231e+01   2.6437141790e+01    0.8192242    0.3488024 -36.24   0.00307781    2.291    0.563
        38 -11.2752    133.6299     37.7937   8.6037714822e+01   4.7233444691e+01    0.6812743    0.4512401  63.58  0.003067531    1.767    0.434
        39 -11.1103    142.2941     41.5587   8.5430917581e+01   4.4579468653e+01    0.6848642    0.4299856  60.06  0.002735617    1.749    0.428
        40  -9.4223     63.2074    247.1739   1.3938486686e+02   2.1028905488e+01    0.1599451    0.1139349  57.48 0.0002449152    1.064    0.060
        41 -11.1925    164.8978     53.2123   8.4666199394e+01   3.7234228180e+01     1.191014    0.7099666 -72.05  0.003951535    3.590    0.721
        42  -8.3396    135.5643     92.0759   1.0326513106e+02   3.7255950270e+01    0.2293808     0.173049 -55.74 0.0005672642    1.459    0.315
        43  -8.8898    249.3948     85.3373   7.9896630111e+01   1.2728611569e+01    0.2268609    0.1473526  16.84 0.0006131675    1.663    0.399
        44  -8.9545    158.9799     85.0067   9.5844247398e+01   3.3451504077e+01    0.2932566    0.2524021  24.69 0.0008092968    1.174    0.149
        45  -9.7403    162.0625     82.3587   9.4402506556e+01   3.3202600919e+01    0.3897661     0.337358 -44.93  0.001126779    1.224    0.183
        46  -9.4512    193.7121    131.2609   1.0044667161e+02   1.8294791562e+01    0.3511683    0.2172209  19.74            0    1.980    0.495
        47 -10.7481    238.7395     73.3885   7.8264628335e+01   1.6499197899e+01      0.63188    0.2879938 -19.56  0.002541507    2.151    0.535
        48  -9.3632    143.5346     81.9722   9.8503718444e+01   3.7450664126e+01    0.3209824    0.2586645 -43.50 0.0008761854    1.252    0.201
        49 -10.7151    158.7649     71.5155   9.1866395243e+01   3.5812189268e+01    0.3960318    0.2785648 -19.94 0.0006760336    1.492    0.330
        50  -9.1668    206.7743     65.3397   8.0845993240e+01   2.5052166372e+01    0.5951168    0.3110665 -60.40  0.001890265    3.958    0.747
        51 -10.4926    194.9272     52.1420   7.8803403875e+01   2.9782374569e+01    0.4655632    0.3507453  26.82  0.000608886    1.390    0.281
        52 -10.2109    200.7661     47.1888   7.6322161031e+01   2.8943454576e+01     0.529952    0.3270284  26.30  0.001339268    1.909    0.476
        53  -7.6626    156.0074     64.9796   9.0412181985e+01   3.7555504602e+01    0.1812225    0.1665312 -15.47            0    1.044    0.042
        54 -11.3321    227.8326     48.0703   7.2724474255e+01   2.2100715428e+01     1.738236    0.5850174 -45.67  0.005277307    3.995    0.750
        55  -8.3432    173.2967    243.7009   1.2220539184e+02   7.2511771704e+00   0.09610451   0.06659126  56.19 0.0003587465    1.573    0.364
        56  -8.1231    232.7531    240.9852   1.1284922376e+02  -9.2948345951e-01    0.1956256   0.07443402  23.84 0.0009012545    3.540    0.718
        57  -9.7227    184.4154     61.7177   8.3633014236e+01   3.1092353434e+01    0.2717849    0.2604473   8.83 0.0003001551    1.042    0.040
        58  -8.1319    193.3640     60.8654   8.1766436452e+01   2.8981781274e+01    0.2098548    0.1761961  -9.17   0.00040905    1.153    0.133
        59  -8.1192     88.5548     61.0581   1.0705641653e+02   5.2377900804e+01    0.2034971    0.1175851 -65.16 0.0008080688    2.641    0.621
        60 -10.2276    208.2932     61.6063   7.9503388728e+01   2.5181929587e+01     1.315413    0.5949437 -58.58  0.003095123    7.180    0.861
        61 -11.7453    177.2417     49.9876   8.1207377203e+01   3.4581266138e+01    0.6475188     0.390835  -4.12  0.001817339    2.068    0.516
        62  -8.7492    133.9440     49.9907   9.0471553007e+01   4.5239909695e+01    0.2231755    0.2064476 -16.56  0.001199298    1.029    0.028
        63  -9.1818     80.0512     45.9143   1.0464285929e+02   5.6807072899e+01    0.5089491    0.2645946 -59.75  0.001959977    2.978    0.664
        64  -9.6625    248.4921     46.8106   6.9851590845e+01   1.7391989799e+01    0.2463587    0.2170732  24.16 0.0002826337    1.163    0.140
        65 -10.2491    182.4048     77.8278   8.8883010622e+01   2.9149246910e+01    0.6941113    0.5849811 -39.75  0.003572305    1.242    0.195
        66  -8.1996    250.5651     34.8992   6.6409709225e+01   1.8193820520e+01     0.208164    0.1246611 -18.28 0.0009034381    1.538    0.350
        67  -8.5625    238.9033     33.6617   6.7304265089e+01   2.1047595756e+01    0.3495315    0.1987588   7.56   0.00101841    2.262    0.558
        68  -7.8242     73.8286     34.8485   1.0255837917e+02   5.9918561178e+01    0.1779002    0.1506452 -53.15 0.0003917578    1.322    0.243
        69  -7.2445    189.6632     34.2947   7.3921273086e+01   3.3405262164e+01    0.1558207    0.1139371 -59.68 0.0007028429    1.648    0.393
        70 -11.7157    176.2868     68.1810   8.7186497347e+01   3.2129883834e+01     1.282142    0.7471247 -48.74   0.00158638    2.057    0.514
        71  -8.2194    161.1022     27.3793   7.6330663073e+01   4.1737590400e+01    0.2647966    0.1981892  -5.70 0.0005180342    1.368    0.269
        72 -10.3331    143.2436     26.2837   7.9424036990e+01   4.6467196296e+01    0.2831213     0.244175  -5.75 0.0003328674    1.112    0.101
        73  -8.8624    104.3889     26.4724   8.9109537394e+01   5.5563718667e+01     0.274939    0.1639297 -32.31 0.0006332329    1.561    0.359
        74  -8.1016    176.5302     25.0735   7.2861446308e+01   3.7944429336e+01    0.2279586    0.1423874 -26.13  0.001002917    1.548    0.354
        75  -9.3964    128.1456     22.5452   8.1262565700e+01   5.0684567082e+01    0.2586575    0.1978645   6.77 0.0009473682    1.338    0.253
        76  -8.1051    130.3008    234.3062   1.2802435689e+02   1.4374040446e+01    0.0942617   0.07134483  24.36 0.0003020893    1.595    0.373
        77 -11.9098      4.6126    227.2967   1.4714910487e+02   2.9571316601e+01     0.572171    0.3113047  87.00  0.004876815    1.538    0.350
        78  -8.6519     63.3969     15.1010   9.7669062478e+01   6.5016518592e+01    0.2640094    0.1456349 -45.64  0.001269663    1.938    0.484
        79  -7.8014    135.3050    228.6501   1.2665367411e+02   1.4391734515e+01    0.1051861   0.06785268  63.83 0.0007041583    1.702    0.413
        80  -8.5141     41.0178    225.5029   1.4160268987e+02   2.6447782590e+01    0.1383182    0.1129297 -86.84 0.0004277828    1.408    0.290
        81 -12.5132     29.4180    204.1154   1.4237699990e+02   3.0929305388e+01    0.6281086    0.4416837  79.20  0.002610526    1.147    0.128
        82 -11.0586     38.9666    195.6452   1.4028355559e+02   3.1389505731e+01      0.32684    0.2852359  37.17  0.001117489    1.537    0.349
        83 -12.6898     44.9520    188.5068   1.3875971265e+02   3.1991011846e+01    0.9019309    0.7562984  48.36  0.005665348    1.340    0.254
        84  -7.1934    184.7327    179.7275   1.1154872797e+02   1.3056000442e+01    0.1179803    0.0842641  17.99 0.0006865379    1.474    0.322
        85  -9.9964    184.3027    194.4974   1.1398327919e+02   1.1210677682e+01    0.2066918    0.1701342  32.15 0.0002555899    1.030    0.029
        86  -8.0453     12.4921    152.5450   1.4258525602e+02   4.1616004593e+01    0.1049615   0.07732532  78.95 0.0001623341    1.017    0.017
        87  -8.9889    239.5072    150.4756   9.6574948191e+01   6.8786523911e+00     0.131433    0.1051421  13.57 -2.389025e-05    1.012    0.012
