#   1 NUMBER                 Running object number                                     
#   2 MAG_AUTO               Kron-like elliptical aperture magnitude                    [mag]
#   3 X_IMAGE                Object position along x                                    [pixel]
#   4 Y_IMAGE                Object position along y                                    [pixel]
#   5 X_WORLD                Barycenter position along world x axis                     [deg]
#   6 Y_WORLD                Barycenter position along world y axis                     [deg]
#   7 A_WORLD                Profile RMS along major axis (world units)                 [deg]
#   8 B_WORLD                Profile RMS along minor axis (world units)                 [deg]
#   9 THETA_WORLD            Position angle (CCW/world-x)                               [deg]
#  10 FWHM_WORLD             FWHM assuming a gaussian core                              [deg]
#  11 ELONGATION             A_IMAGE/B_IMAGE                                           
#  12 ELLIPTICITY            1 - B_IMAGE/A_IMAGE                                       
         1 -11.0106      5.2933     36.3090   1.0210577696e+02   6.8090122810e+01    0.8898303    0.5361727 -57.28  0.005445373    1.532    0.347
         2 -10.6282    123.7344     31.3523   5.4875445925e+01   5.0317266153e+01    0.5666859    0.3912271  33.02  0.002903113    1.463    0.316
         3 -10.8381    208.8988     34.1775   4.1626652374e+01   2.9491216366e+01    0.4601858    0.3541022 -15.00  0.002607867    1.596    0.374
         4 -11.1767      2.0158     24.9195   9.9946456363e+01   7.0409160503e+01    0.2856449    0.1478798 -52.30 0.0005276225    1.638    0.389
         5 -11.2066     16.4899     17.4144   8.8967501096e+01   7.0660040163e+01    0.7879159    0.4586577 -47.73  0.004688631    1.826    0.452
         6 -11.8215      5.5821     14.2487   9.3679258923e+01   7.2039453198e+01    0.7333637    0.4276399 -42.37  0.003514409    1.428    0.300
         7 -10.4335     18.0512      1.7273   8.0260831397e+01   7.2795937397e+01    0.5512689    0.2583714   9.33  0.002737169    2.686    0.628
         8 -11.4412     24.9428      6.9128   7.9263058369e+01   7.1343835469e+01    0.2133842    0.1579338 -21.24 0.0002957184    1.213    0.175
         9 -12.0293     20.5980      6.1228   8.1197230091e+01   7.1935268874e+01     0.679319    0.3078746  13.68  0.003341749    2.676    0.626
        10 -11.3477    165.7249     18.7302   4.3032571161e+01   4.1580092596e+01    0.4996187    0.3079057  34.15 0.0009979446    1.984    0.496
        11 -10.9758     25.0785     22.2379   8.6594738662e+01   6.9068231979e+01     1.031004    0.4582083   8.80  0.004475385    3.297    0.697
        12 -10.6815    182.8182     17.8384   4.0507557057e+01   3.7526786447e+01    0.6080505    0.3371424  32.54  0.001561704    2.665    0.625
        13 -12.2755    117.3055     22.3107   5.3077959467e+01   5.2844344363e+01    0.4722424    0.2786628  60.81 0.0003744884    1.652    0.395
        14 -10.0167    127.5657     18.5027   4.9482413146e+01   5.0844736874e+01     0.518945    0.2401058 -41.60  0.001965028    2.528    0.604
        15 -10.0239     23.7318      1.3718   7.6928566463e+01   7.2198555812e+01    0.1636825    0.1103134  24.05 0.0001791439    1.416    0.294
        16 -10.5457    225.5499     17.0488   3.5864100787e+01   2.7742730707e+01    0.6288776    0.1716592 -37.05   0.00255316    2.962    0.662
        17  -9.8599    224.6464      9.1548   3.4167114880e+01   2.8784363937e+01    0.2196149    0.1814443 -76.05 0.0001136422    1.025    0.024
        18  -9.3640     67.5874     11.3236   6.2738190636e+01   6.4388268164e+01    0.3447078    0.2065229  57.01  0.001787205    2.119    0.528
        19  -9.9568     60.9636     17.3607   6.8030162478e+01   6.4860717081e+01    0.3920202      0.24691  19.22  0.001572466    1.531    0.347
        20 -10.9744     67.3716     15.3740   6.4701152567e+01   6.3978869343e+01    0.4081152    0.3847439 -88.59 0.0005947332    1.649    0.393
        21  -8.3268     45.9529     15.7532   7.3510684444e+01   6.7429255879e+01    0.4665175    0.3117054  21.05  0.002839393    1.345    0.257
        22  -8.9797     51.6883     13.4419   6.9907988155e+01   6.6853123816e+01    0.3615678    0.1434705 -23.33  0.001243733    2.753    0.637
        23  -9.1742     49.2504      8.1600   6.8313405728e+01   6.7858728993e+01    0.1708719    0.1469688  48.25 0.0004884945    1.654    0.396
        24  -8.5604     55.6466     10.7818   6.6983750736e+01   6.6527922172e+01    0.2251002    0.1863996  -0.69  0.001503808    1.120    0.107
        25  -9.2672     52.7204      9.2850   6.7430988453e+01   6.7176912639e+01    0.1767745    0.1374085 -39.04  0.001104221    1.737    0.424
        26  -9.9878     42.7897     10.4748   7.2320794194e+01   6.8560961746e+01    0.6445364    0.2382974  27.40  0.001642606    3.309    0.698
        27  -9.2399     37.3812      9.7708   7.4479677332e+01   6.9407923969e+01    0.1711614    0.1345699 -17.87  0.000314071    1.235    0.190
        28 -10.1100    199.5999     17.3358   3.8448837930e+01   3.3596268553e+01    0.4457528    0.2662277 -18.56  0.002270033    2.087    0.521
        29 -10.0986     93.4520     19.3968   5.8061326202e+01   5.8428154046e+01    0.3054183    0.2629481 -11.77  0.001268486    1.199    0.166
        30 -11.5160    231.6305     15.8510   3.5077960989e+01   2.6555846271e+01    0.6620764    0.3136947 -64.25  0.002986095    2.261    0.558
        31  -9.3259     37.2849     19.0851   7.9102140960e+01   6.8153133974e+01      0.50482    0.2495873  -4.02   0.00207192    3.423    0.708
        32  -9.9639    209.6812     13.6811   3.6531568730e+01   3.1654388797e+01    0.2109364    0.1907025  54.86 0.0007728867    1.275    0.216
        33  -9.8455    211.8453      8.9848   3.5216880129e+01   3.1647310499e+01    0.3652462    0.2604401  75.24  0.001592268    1.297    0.229
        34 -10.3949    208.9568      4.5848   3.4434687570e+01   3.2736874612e+01    0.3236003    0.2689531  56.91  0.001197057    1.336    0.252
        35  -9.1189    206.4707      1.5834   3.3939577825e+01   3.3586949987e+01    0.1871023    0.1577608 -67.41 0.0001115887    1.081    0.075
        36  -9.6239    116.9073     15.2814   5.0563499771e+01   5.3656506530e+01    0.3233055    0.2019212  43.66 0.0008308919    1.429    0.300
        37  -8.8450    112.4368     15.2387   5.1548491920e+01   5.4686375519e+01    0.2527694    0.1687521 -35.41  0.001351598    1.685    0.407
        38 -10.4485    243.1918     13.9387   3.3755162337e+01   2.4330360679e+01    0.2354533    0.2104829 -20.84  0.001037161    1.429    0.300
        39 -11.0163    180.4262      2.6610   3.6695662808e+01   3.9561669625e+01     0.465044     0.340771 -45.82  0.002800101    1.401    0.286
        40  -9.9911    179.1948     13.1821   3.9680268012e+01   3.8872851544e+01    0.2686173    0.2003745  73.48 0.0003618065    1.214    0.176
        41 -10.7433    175.8837     10.8518   3.9440069417e+01   3.9897562137e+01    0.5679407      0.32847  35.25  0.001853412    2.245    0.555
        42 -10.9714    133.0999     12.7263   4.6409890641e+01   5.0086151180e+01    0.2367583    0.2282887  45.69 0.0002971886    1.086    0.079
        43  -9.8322     31.6664     12.9640   7.8883966230e+01   6.9721841418e+01    0.4854839    0.2255574  31.06  0.002588225    2.115    0.527
        44  -9.0384     98.4247     12.4183   5.3847092744e+01   5.8079261556e+01    0.2683378    0.1851822 -63.86  0.001339559    2.376    0.579
        45  -9.5697     89.0268     13.0840   5.6681185119e+01   6.0012263533e+01    0.2031163      0.16985   0.20 0.0004659591    1.172    0.147
        46  -9.4084     92.0586      8.1861   5.3765052410e+01   5.9839161861e+01    0.3269253    0.1685477  35.81  0.001105042    1.802    0.445
        47  -9.2213     78.8797     11.6193   5.9092671417e+01   6.2213328507e+01    0.2028857    0.1495937   1.28 0.0001878686    1.308    0.236
        48  -9.1813    219.1567     11.9600   3.5263908123e+01   2.9701242688e+01    0.2200097    0.1658175  83.99  0.001064171    1.216    0.178
        49 -10.1572    146.9277     11.8880   4.3776062799e+01   4.6829934462e+01    0.5887321    0.3166729  72.04  0.002526112    1.813    0.449
        50 -10.6188    192.0547      8.0254   3.6877677377e+01   3.6312734601e+01    0.3585287    0.2911085 -85.49  0.002255106    1.110    0.099
        51 -10.9884    194.1835      3.7325   3.5577709224e+01   3.6218952517e+01     0.798109    0.2166462  61.58  0.003146064    3.003    0.667
        52 -10.6322    165.0595      7.6066   3.9875106498e+01   4.2816273138e+01    0.3263857    0.2294534 -48.75 0.0005426409    1.512    0.339
        53 -11.3578    160.2513      2.5738   3.9022102667e+01   4.4415216194e+01    0.5684019    0.2711989  66.15 0.0005561504    1.783    0.439
        54 -10.4981    202.6708      8.7131   3.5997518601e+01   3.3770381237e+01    0.2533537    0.1982553 -86.71            0    1.143    0.125
        55  -8.9633    138.5018      7.7122   4.3783754805e+01   4.9237385772e+01     0.294243    0.1320802  -5.03 0.0009511163    3.486    0.713
        56  -9.3593    120.2079      8.6081   4.7417225354e+01   5.3501170649e+01    0.2389148    0.1804183   1.80  0.001378794    1.469    0.319
        57  -9.1500    169.7458      7.2355   3.9178285593e+01   4.1716019852e+01    0.3439798    0.1809113  50.48  0.001686586    1.858    0.462
        58  -8.9470    174.2288      5.1897   3.8070808269e+01   4.0819848935e+01    0.2150668    0.1613147 -80.86   0.00126058    1.314    0.239
        59 -10.9214    109.3935      6.0274   4.8704512028e+01   5.6209253592e+01    0.8286051     0.381953  51.72  0.003198419    1.779    0.438
        60 -10.6839    119.4596      2.4188   4.5308128577e+01   5.4181377723e+01    0.2344221    0.1976458  53.09 0.0005252672    1.030    0.029
        61 -10.4402    115.6729      1.7457   4.5787948813e+01   5.5111241361e+01    0.2089906    0.1534308  48.18 0.0002356394    1.157    0.136
        62  -8.8684     74.3016      7.9328   5.8883035373e+01   6.3470616290e+01    0.1793477    0.1425409  16.24   0.00089745    1.077    0.071
        63 -11.0271    248.1988      4.8000   3.1525828584e+01   2.4283880963e+01    0.3300589     0.272275 -20.33 0.0005436846    1.573    0.364
        64  -9.4636    127.9782      8.4834   4.5882126813e+01   5.1684396899e+01    0.4241959    0.1940707  75.30  0.001726218    2.674    0.626
        65  -9.5374     86.9966      6.6539   5.4491526450e+01   6.1040050772e+01    0.3056451    0.1564563  56.95   0.00150805    1.875    0.467
        66  -9.8922     61.8692      5.3541   6.1934888440e+01   6.6033328854e+01    0.2624997    0.2387899 -20.82  0.001316241    1.401    0.286
        67 -10.5310    237.9205      3.7013   3.1992555878e+01   2.6507978788e+01    0.2971683    0.2325041   0.81  0.001907616    1.952    0.488
        68 -10.0526     39.1550      4.3035   7.0793786266e+01   6.9819983935e+01    0.3163997     0.261986  18.90   0.00223708    1.268    0.211
        69  -8.5314    153.0054      4.4154   4.0537318708e+01   4.6014030821e+01    0.1927228    0.1670126 -24.98  0.001210729    1.306    0.235
        70 -10.3103     49.0562      2.5584   6.5515533623e+01   6.8494310404e+01     0.417013    0.1882314  26.70  0.001430161    2.294    0.564
        71 -10.3623     30.9430      3.3407   7.4251319967e+01   7.1059711744e+01    0.2565776    0.2065068 -38.75  0.001040402    1.810    0.447
        72 -10.1384    218.1738      3.0037   3.3305442739e+01   3.0826083203e+01    0.2902234    0.2318762  49.50  0.001558246    1.513    0.339
        73  -8.6698    146.4409      3.5003   4.1187982201e+01   4.7676300550e+01    0.2100736    0.1637961   6.82  0.000628144    1.522    0.343
        74  -9.1254    143.2361      2.5998   4.1374744806e+01   4.8521286856e+01      0.32156     0.151387  48.29  0.001421957    1.941    0.485
        75  -9.8183     90.4853      1.8467   5.1484778696e+01   6.0710032871e+01     0.385924    0.2251236  65.87  0.001190081    1.890    0.471
        76 -10.0581     73.6907      1.8992   5.6275436204e+01   6.4138193006e+01    0.3081247    0.2075173  49.94  0.001061879    1.398    0.285
        77  -9.4970     69.0124      2.0619   5.7854173347e+01   6.5024873789e+01    0.2572715     0.164652  14.57  0.001483737    1.496    0.332
        78  -9.7730      3.5374      2.4749   8.9312683924e+01   7.4029290417e+01    0.2957188    0.1480213 -14.52  0.001714993    1.930    0.482
        79  -8.8496    127.9051      1.6222   4.3503058788e+01   5.2259486980e+01    0.2127449    0.1229667  48.89 0.0007733487    1.499    0.333
        80  -9.3726     81.1693      1.8654   5.4023352713e+01   6.2648673653e+01    0.2622955    0.1758239  67.10  0.001052433    1.827    0.453
        81  -8.9714    186.0221      1.3222   3.5765230601e+01   3.8353142665e+01    0.1838442    0.1034276  75.15 0.0009600329    1.583    0.368
        82  -8.3064     42.6711      1.2471   6.7563194280e+01   6.9633761166e+01   0.09802997   0.09128632  27.70 0.0005050155    1.543    0.352
        83 -10.4440      3.9995    116.4723   1.1831349521e+02   5.0261743356e+01    0.2753313    0.2492236 -83.19  0.001773504    1.159    0.137
        84  -9.3639    201.5168    249.5362   9.0387617815e+01  -4.6754637929e+00     0.216297    0.1624941  19.57 0.0006972831    1.053    0.050
        85 -10.1612    116.0496    248.8433   1.0695539212e+02   7.9704227508e+00     0.237254    0.2055621  57.43 0.0009079326    1.125    0.111
        86  -8.8782      1.3384    113.2431   1.1872411293e+02   5.1171402416e+01    0.2239938   0.08828937 -69.76            0    1.902    0.474
        87 -10.5216      4.1805    110.7939   1.1757224559e+02   5.1606995102e+01    0.3913869    0.2768856  72.86  0.002399198    1.558    0.358
        88  -8.7434      3.1675    103.7840   1.1698550683e+02   5.3324938807e+01    0.5628784    0.2282096 -88.05  0.002275217    3.156    0.683
        89  -8.9115     47.9599    115.5965   1.0459293593e+02   4.6973017425e+01    0.3716296    0.1444801  39.33  0.001481372    2.860    0.650
        90  -8.8413     52.9139    113.3053   1.0255768271e+02   4.6986919899e+01    0.3231469    0.1362751  14.24  0.001089288    4.146    0.759
        91  -8.6535     49.0488    111.9649   1.0353493251e+02   4.7745648371e+01    0.1902841     0.157914  88.61 0.0006414323    1.348    0.258
        92  -8.6162    121.9692    112.2949   8.1160494847e+01   3.6168496525e+01     0.216014     0.201017  35.75 0.0005210196    1.107    0.096
        93 -10.0521     62.9598    110.9116   9.8808089126e+01   4.6353595349e+01    0.2704201    0.1819178 -52.23            0    1.316    0.240
        94  -9.2584     62.5328    104.5663   9.7505480041e+01   4.7939722671e+01    0.2686046    0.2571323  65.98 0.0008281401    1.191    0.160
        95  -9.5093     66.0317    103.4663   9.6082884053e+01   4.7742771041e+01     0.267919    0.1998821 -12.47 0.0002977733    1.595    0.373
        96  -9.2571    231.5095    109.9977   5.6928494155e+01   1.3076514881e+01    0.2086494     0.103535 -53.38 0.0008103496    2.557    0.609
        97  -9.2334    129.2274    109.4019   7.8389386483e+01   3.5326188882e+01     0.224378    0.1493685  53.12 0.0009551452    1.693    0.409
        98 -10.5876    117.9488    106.1696   8.0639562799e+01   3.8340353812e+01    0.5066548     0.286635 -32.24  0.001448544    2.022    0.505
        99  -9.0181     37.0408    108.3835   1.0675439326e+02   4.9827527604e+01     0.334652    0.1397038 -55.29 0.0009562758    1.914    0.478
       100 -10.0907     37.5376    103.3228   1.0561851481e+02   5.1007940359e+01    0.3650075    0.2245893  -0.21  0.001797631    2.183    0.542
       101 -10.4877     94.8904    106.9105   8.7686134217e+01   4.2483844237e+01    0.6698088    0.2632708  48.28  0.002181522    3.340    0.701
       102  -8.1133     43.3330    106.6616   1.0434680567e+02   4.9637531583e+01    0.1374971    0.1011812  74.55 0.0007051831    1.744    0.427
       103 -10.1478    137.3916    107.4192   7.5676899705e+01   3.4028393913e+01    0.2813919    0.2708204 -66.22 0.0005533343    1.121    0.108
       104  -9.8281     74.4965    104.4488   9.3535977133e+01   4.6323068370e+01     0.308013    0.2628733  10.66  0.001676013    1.280    0.219
       105 -10.4964    101.3900    100.4023   8.3932401640e+01   4.2810149549e+01    0.7030519    0.4429533 -33.73  0.002542407    1.667    0.400
       106 -10.4503    104.0599     90.5771   8.0294572273e+01   4.4465865207e+01    0.5097041    0.3318438  58.75 0.0009966993    2.087    0.521
       107 -10.7162    109.9405     99.2920   8.1048534020e+01   4.1439158855e+01    0.5574082    0.3932126  39.35  0.001694168    1.464    0.317
       108  -9.4826    108.7281     95.1905   8.0235089987e+01   4.2570565292e+01    0.3290205    0.2712902  73.05 0.0006861222    1.590    0.371
       109  -8.7979    174.7513    102.9962   6.5606940335e+01   2.6588231012e+01    0.2109783    0.1910094 -32.17 -0.000430966    1.066    0.062
       110  -9.5407     85.1515    102.4004   8.9563616069e+01   4.5163115423e+01    0.2918091    0.2772025  29.71  0.001089992    1.133    0.117
       111  -9.3840     48.0000    102.0043   1.0180858264e+02   5.0275041369e+01     0.394278    0.1681649 -56.51  0.001203182    1.962    0.490
       112  -8.8987     50.9699     99.2521   1.0018253703e+02   5.0606337542e+01    0.2017213    0.1835287 -82.41 0.0004027153    1.227    0.185
       113 -10.0432    139.0849    102.0100   7.3737047334e+01   3.4804115839e+01    0.2311212    0.2240575 -32.86 0.0002968488    1.041    0.039
       114 -10.2010     57.2982     99.9439   9.8180115348e+01   4.9699607132e+01    0.4574227    0.2132646 -36.61  0.001806249    2.460    0.594
       115  -8.9350     77.8823     99.8523   9.1254989203e+01   4.6897485356e+01    0.2697083      0.21997 -63.60 0.0007935594    1.309    0.236
       116 -10.0353     79.2089     95.8142   8.9741443601e+01   4.7625712551e+01    0.4728721     0.278971   7.54  0.001830897    2.761    0.638
       117 -10.3866    125.1732     97.8547   7.6276162338e+01   3.8663440435e+01    0.4399458    0.3152564  17.19  0.001932242    1.742    0.426
       118  -8.8659    156.9914     98.5673   6.8364149572e+01   3.1499285435e+01    0.2262958    0.2034657 -36.23 8.211349e-05    1.087    0.080
       119  -8.6761     42.9635     99.5902   1.0300634528e+02   5.1379772738e+01    0.2447767    0.1919729  55.94  0.001374425    1.574    0.365
       120  -9.1913     42.3345     95.3440   1.0229806234e+02   5.2454660643e+01    0.2527225    0.1804025  74.56 0.0006488163    1.990    0.498
       121  -8.6997    117.4378     98.4508   7.8625023090e+01   4.0133458247e+01    0.1537405    0.1470183 -22.82 8.839407e-05    1.017    0.017
       122  -8.4377     67.0203     98.0253   9.4408940952e+01   4.8895309031e+01     0.172211    0.1548252 -38.89 0.0004052703    1.008    0.008
       123  -9.8746     34.0029     97.9064   1.0574276973e+02   5.2628671166e+01     0.224088    0.1689917 -62.75            0    1.166    0.143
       124 -10.2349     33.6202     91.3869   1.0451824156e+02   5.4208591790e+01    0.5579743    0.2352185 -41.44  0.002400695    2.259    0.557
       125  -9.1879     27.3670     91.8439   1.0684323166e+02   5.4621271176e+01     0.195048    0.1765438  38.68 0.0003982078    1.335    0.251
       126  -9.7604     24.8580     87.7435   1.0690781984e+02   5.5776779864e+01    0.3787223    0.1949076 -71.95  0.001332527    2.012    0.503
       127 -11.2598     30.9350     85.0760   1.0410641564e+02   5.5913053611e+01    0.6231071    0.4014111 -21.48  0.002367754    1.737    0.424
       128  -9.2825    129.9471     96.8235   7.4675244556e+01   3.7866081136e+01    0.2322266    0.2028387   1.13 0.0002400513    1.223    0.182
       129  -8.8981    135.2913     96.3263   7.3109325470e+01   3.6811091015e+01    0.1590721     0.122232  -1.45 0.0002984289    1.618    0.382
       130 -10.1872     43.4038     88.2322   1.0027111057e+02   5.4015303871e+01    0.3296889    0.2227913  29.40 0.0005622593    1.677    0.404
       131  -9.5200     47.1775     92.7200   9.9988348742e+01   5.2569993223e+01      0.41156    0.1772709 -47.39  0.001758985    1.975    0.494
       132  -9.8082     52.0299     93.9498   9.8570359081e+01   5.1740492847e+01    0.3020875    0.2159593 -70.64  0.001564514    1.546    0.353
       133 -10.6291     48.8831     88.4083   9.8330511291e+01   5.3388109761e+01    0.4478391    0.2844138  52.07   0.00215931    2.180    0.541
       134  -8.8451    179.1322     93.8296   6.2226802576e+01   2.7308911095e+01    0.2135382    0.1792467  -5.15 0.0006680281    1.350    0.259
       135 -10.0908    116.7869     91.7834   7.6872078597e+01   4.1685015559e+01    0.2700973    0.2533448 -20.18 0.0002833923    1.018    0.018
       136 -10.7666    124.2125     87.9928   7.3641526470e+01   4.0909820126e+01    0.5135118     0.315078 -46.34   0.00212688    1.662    0.398
       137  -9.5282    132.7414     82.0091   6.9525127756e+01   4.0223322591e+01    0.2896603    0.2227566  32.75 0.0006154327    1.348    0.258
       138  -9.5299     16.0872     86.8322   1.0990426221e+02   5.6595177237e+01     0.394969    0.2341834 -35.79  0.002182401    1.632    0.387
       139  -9.0603      7.6693     89.4106   1.1335461901e+02   5.6478573884e+01    0.2478586    0.1591008  31.14 0.0007701074    1.914    0.478
       140  -8.9830     11.0200     86.1395   1.1160239751e+02   5.7058328941e+01    0.2713964   0.09944663 -47.53  0.001236597    2.152    0.535
       141 -10.4184     87.3414     87.2427   8.4618117531e+01   4.8216303664e+01    0.5925667    0.3186765 -45.93  0.001935094    1.748    0.428
       142  -8.5519     97.4465     88.2652   8.1662181444e+01   4.6202824659e+01    0.6437963     0.242482 -49.99   0.00217633    2.806    0.644
       143  -9.5425     70.1118     86.4992   9.0256230186e+01   5.1102675731e+01    0.1966358    0.1787094   3.12 0.0005579921    1.131    0.116
       144 -10.0751     80.3134     84.0744   8.6030785201e+01   5.0072826102e+01    0.4842691    0.3327522   7.68  0.002178015    1.827    0.453
       145 -11.0649     73.9127     80.6396   8.7214586158e+01   5.1824437246e+01    0.8221947     0.367444 -38.41  0.001594602    2.242    0.554
       146 -11.8830     79.8397     69.9951   8.1776355869e+01   5.3092859595e+01    0.3182156    0.2602493   5.96 0.0003190014    1.241    0.194
       147  -9.6479     80.4532     76.4199   8.3636082812e+01   5.1678812764e+01    0.3080875    0.2321384  24.09 0.0008962068    1.386    0.278
       148  -9.6588     83.8523     74.1619   8.1749226535e+01   5.1572392020e+01    0.2272826    0.2030037   2.31 0.0002915485    1.084    0.078
       149  -8.3022      2.4192     86.7221   1.1475899408e+02   5.7360009917e+01    0.1700575   0.08596894 -58.81 0.0006087433    1.461    0.315
       150  -9.1004    180.9909     85.9315   5.9707271230e+01   2.8301502334e+01    0.2426369    0.1804737 -68.53 0.0006277795    1.676    0.403
       151 -10.0680    155.6394     84.1771   6.4569546951e+01   3.4564752031e+01    0.3380347    0.2726815 -38.94 0.0008953782    1.225    0.184
       152 -10.8728    150.6822     80.5523   6.4645545103e+01   3.6388816796e+01    0.5209925    0.3132699  55.35  0.001826121    1.752    0.429
       153 -10.2904    129.5477     85.6046   7.1466207305e+01   4.0230991699e+01    0.4376089    0.3808636  15.74  0.001472175    1.200    0.166
       154 -10.6816     59.1053     83.4093   9.3308985892e+01   5.3302004869e+01    0.4237805    0.2593218  39.28  0.001366028    1.874    0.466
       155  -9.5590     47.9786     82.4508   9.7135290064e+01   5.4852838512e+01    0.4307277    0.2303943  54.86  0.001416514    3.441    0.709
       156  -9.6014     20.7012     80.4911   1.0692315408e+02   5.7755885688e+01    0.4488931    0.2049634 -66.28  0.001890492    2.000    0.500
       157 -10.6403     17.6799     74.0609   1.0667802179e+02   5.9420378674e+01    0.3262734    0.2942005 -39.92  0.001014808    1.140    0.123
       158  -9.3740     42.1148     80.9592   9.8939396343e+01   5.5816412231e+01    0.2659454    0.2560136  17.77  0.001718518    1.224    0.183
       159  -8.6766     38.2898     79.6461   1.0005076399e+02   5.6493601711e+01    0.1985857    0.1455549 -51.84  0.000666564    1.171    0.146
       160  -9.4178    142.8511     80.8268   6.6601844903e+01   3.8153666070e+01    0.1995755    0.1783476 -67.79            0    1.275    0.216
       161 -10.2975    167.1059     79.0273   6.0574498790e+01   3.2789543675e+01    0.3948422    0.2249319 -27.15   0.00160681    1.968    0.492
       162  -9.4378      2.0477     79.4629   1.1369135386e+02   5.9044760845e+01    0.3394307    0.1278707 -62.82  0.001634797    1.911    0.477
       163  -9.3402     61.6518     76.7255   9.0455511905e+01   5.4439754043e+01    0.3047165    0.1869773 -48.82 0.0006553294    1.488    0.328
       164  -9.8419     68.8988     74.1904   8.7028498422e+01   5.3955195876e+01    0.2613703    0.2216094 -25.75 0.0005022577    1.056    0.053
       165  -9.4181     67.3048     77.6620   8.8671423969e+01   5.3448534884e+01    0.2764004    0.1896195 -47.34 0.0007798541    1.354    0.261
       166  -9.8074     64.5268     75.5212   8.9034900226e+01   5.4302915460e+01    0.3914293    0.2881227  70.93  0.001542645    2.332    0.571
       167  -8.7660     13.0645     79.3795   1.0957220906e+02   5.8499359797e+01    0.1632165    0.1439545 -62.59 0.0004594522    1.150    0.130
       168  -9.0699    106.6331     78.1552   7.5689776568e+01   4.6527608662e+01    0.3208665    0.1808746 -30.84  0.001317358    1.915    0.478
       169  -9.8354    110.1086     76.8399   7.4225891579e+01   4.6083263523e+01    0.3492448    0.3130402 -36.47  0.001215995    1.121    0.108
       170  -9.5039    173.4973     69.0281   5.6429343553e+01   3.2953753911e+01    0.3150812    0.2174554  31.99 0.0009789218    1.742    0.426
       171 -11.2193    171.3468     73.5790   5.8150159367e+01   3.2715427043e+01    0.6664835    0.3426522  68.97  0.002422279    2.743    0.635
       172 -10.0843    158.3625     76.7773   6.1788931522e+01   3.5258265949e+01    0.2988382    0.2456962  20.73  0.000840875    1.370    0.270
       173 -12.2485     53.0486     75.1027   9.3197130287e+01   5.5897144113e+01    0.2967409    0.2732809   0.30 0.0003586056    1.154    0.133
       174  -9.8685     53.2068     70.2848   9.1703103949e+01   5.6914655597e+01    0.3082034    0.1849619 -56.74  0.000825765    1.745    0.427
       175  -8.8261     28.3911     75.3031   1.0278107185e+02   5.8353951391e+01    0.2609801   0.09534857 -54.80  0.001110006    2.111    0.526
       176 -10.3660    142.1563     74.0898   6.4713486784e+01   3.9542782659e+01    0.4094505    0.2439153 -20.42  0.001626994    2.146    0.534
       177  -9.4403    145.9029     70.8719   6.2828331818e+01   3.9232813669e+01    0.3247292     0.258475  10.82 0.0007711095    1.475    0.322
       178  -8.9639    126.5272     74.9683   6.8980226790e+01   4.2934665394e+01    0.2182053    0.1327859 -12.41 0.0008097157    2.526    0.604
       179 -10.7224     89.3473     73.2570   7.9604078401e+01   5.0790938716e+01    0.4521428     0.316243 -42.51  0.002229431    1.387    0.279
       180 -10.4973     94.3119     71.9584   7.7547222483e+01   5.0137314129e+01    0.6562703    0.3618716 -41.83  0.002749831    1.757    0.431
       181 -10.4739    152.1982     72.8039   6.1972916147e+01   3.7412508534e+01    0.3322288    0.2843133  66.91 0.0004747308    1.259    0.206
       182 -10.6401    199.7347     71.8345   5.2579360677e+01   2.6295076581e+01    0.2660667    0.2412298 -25.76 0.0003525821    1.140    0.123
       183  -9.3666     15.9739     60.0095   1.0398780854e+02   6.2618297420e+01    0.7608968    0.1672463 -54.02  0.002964329    2.888    0.654
       184  -9.5072     14.1570     54.6517   1.0334825233e+02   6.3869070823e+01    0.4184144    0.1868991 -61.73  0.001714185    2.073    0.518
       185 -10.9157      6.9901     50.7879   1.0550704199e+02   6.5091439416e+01    0.4234228    0.2872327 -40.29   0.00197368    1.138    0.121
       186 -11.0678      2.0980     67.2514   1.1140016502e+02   6.1787224556e+01    0.5379159    0.2403779 -60.97   0.00260948    1.668    0.400
       187  -9.2909      8.3886     43.7392   1.0288125829e+02   6.6452894333e+01    0.1806483    0.1342638 -28.20 0.0002627757    1.139    0.122
       188  -9.6520    163.4974    246.1865   9.7232651637e+01   1.3651840508e+00    0.2072437    0.1504861  16.65  0.000934668    1.341    0.255
       189 -10.1526      5.2353     63.6011   1.0935957588e+02   6.2446295690e+01    0.2515717     0.151573 -36.63  0.001385596    1.432    0.302
       190  -9.9261      9.3457     61.6646   1.0720668771e+02   6.2657217551e+01    0.3354566    0.2735564 -62.80  0.001276163    1.222    0.182
       191 -11.2491      3.5559     60.4911   1.0937006512e+02   6.3201379572e+01    0.6064347    0.3162184 -41.43  0.003461156    1.532    0.347
       192 -11.1518     12.2222     44.2351   1.0121688191e+02   6.6121662435e+01    0.7681137   0.06066935 -54.37  0.002417243    4.848    0.794
       193 -11.4354     14.5025     39.5666   9.8631918676e+01   6.6885354274e+01    0.4674226    0.3533747 -56.15  0.001588329    1.412    0.292
       194  -9.9593    181.7665     72.1799   5.5768549882e+01   3.0462573529e+01    0.2512427    0.1823721  -9.91  0.001086157    1.754    0.430
       195 -10.6682     46.1792     68.0266   9.3769772689e+01   5.8225670373e+01    0.5710509    0.2780135 -28.43  0.001834098    2.474    0.596
       196  -8.9826    101.6482     69.8370   7.4512116850e+01   4.9133663145e+01    0.2507192    0.1938006  27.63 0.0006807546    1.310    0.237
       197  -9.6670    106.4140     66.1253   7.1805946715e+01   4.8862912913e+01    0.3560734    0.2133447  34.03 0.0005485864    1.750    0.428
       198  -9.3438     10.2509     69.4271   1.0859499727e+02   6.0903959817e+01    0.2651266    0.1354455 -40.18  0.000835775    1.657    0.397
       199  -8.5273     64.0122     69.4342   8.7326384946e+01   5.5656638303e+01    0.2012829    0.1342747  29.54 0.0006097461    1.588    0.370
       200  -9.3479     25.5166     67.5122   1.0196092996e+02   6.0310830908e+01    0.4130594    0.2069162  15.67  0.002019013    2.325    0.570
       201 -11.4918     32.4760     64.3568   9.8240844905e+01   6.0403355113e+01    0.4801645    0.3071764 -37.29   0.00104719    1.325    0.245
       202  -9.9471     31.4633     58.4795   9.6935288758e+01   6.1733245395e+01    0.3172151    0.2215874  22.91  3.04956e-05    1.601    0.375
       203 -10.4207    150.0020     59.5955   5.8401289556e+01   4.0122673773e+01    0.3370049    0.2996243 -63.64  0.001032318    1.240    0.193
       204 -10.4899    149.0403     54.5399   5.7022948385e+01   4.1133257219e+01    0.4268047    0.3327728  62.01 0.0003339556    1.300    0.231
       205 -10.4031    143.8115     66.4544   6.1943380847e+01   4.0479037560e+01     0.360839    0.2818843  26.34 0.0007569027    1.402    0.287
       206  -9.6349    147.5280     64.4741   6.0470567594e+01   3.9928529001e+01    0.2778887    0.2244815   0.97 0.0006724576    1.435    0.303
       207 -10.1956    120.3775     66.1656   6.7798814607e+01   4.5884944911e+01    0.5016669    0.3420253 -23.18  0.001925029    1.586    0.370
       208 -10.9606    134.9207     64.8985   6.3587566162e+01   4.2818386902e+01    0.5050306     0.422433  58.29  0.002615904    1.255    0.203
       209 -10.3479    204.2943     63.8250   4.9783824779e+01   2.6481787217e+01    0.4688131    0.3047769  79.41  0.002219782    1.844    0.458
       210 -10.1033     82.8972     63.4876   7.8511766883e+01   5.3838000431e+01    0.4205615    0.2910246 -55.13  0.002032055    1.803    0.445
       211 -10.0136     25.0146     54.4130   9.8493495663e+01   6.3131112872e+01    0.3184145    0.1718954 -46.67 0.0004809308    1.474    0.322
       212 -10.4842     22.8675     63.4241   1.0197661041e+02   6.1401705413e+01    0.5381585    0.2517587 -27.26  0.001917656    2.405    0.584
       213 -10.0298     22.0528     59.3602   1.0121412984e+02   6.2330893971e+01    0.3580049    0.2042184 -55.50 0.0008459622    1.499    0.333
       214  -9.8172     97.0622     64.0059   7.3980459015e+01   5.1120615850e+01    0.2174027    0.2014983  -5.44 0.0003551895    1.033    0.032
       215  -9.7428    160.2146     60.9430   5.6671907288e+01   3.7449601413e+01    0.3129405    0.1946814 -39.36  0.001021875    1.614    0.380
       216 -10.5258    162.9021     56.4868   5.4799425471e+01   3.7482913733e+01    0.5734521    0.2473326 -28.78  0.002138026    2.555    0.609
       217  -8.4713    212.0106     61.0347   4.7957138242e+01   2.5130543512e+01    0.1610527    0.1480846 -58.51 0.0009522102    1.003    0.003
       218 -10.5478     70.6931     59.9607   8.1655804895e+01   5.6539656047e+01    0.3089711    0.2852861  61.12  0.001015082    1.454    0.312
       219  -9.5880     53.7066     60.7981   8.8482970308e+01   5.8811750263e+01    0.2646044     0.242546 -49.28 0.0004616997    1.285    0.222
       220  -9.6810     53.4648     54.2350   8.6326161850e+01   6.0129960227e+01    0.3796305    0.2668967 -21.54  0.002098053    1.338    0.253
       221  -9.6561     75.0628     65.9626   8.2124524744e+01   5.4678848922e+01    0.2346961    0.1850121 -24.31  0.000361267    1.176    0.150
       222  -9.4463     66.1099     63.6090   8.4623594957e+01   5.6531934366e+01    0.3021038     0.269797  22.14  0.001171009    1.209    0.173
       223 -10.3180     39.7830     58.0025   9.3265164933e+01   6.1011064150e+01    0.2801221    0.2120678 -52.53  0.001105545    1.347    0.257
       224 -10.0393    105.2003     57.6850   6.9258416271e+01   5.0599056786e+01    0.2836671    0.2198902 -32.42 0.0003139828    1.283    0.220
       225  -9.0222    181.0847     57.9496   5.1912733295e+01   3.2855613739e+01    0.2700769    0.2061717 -25.03  0.001381057    1.401    0.286
       226 -10.6085    168.3984     56.7049   5.3818857524e+01   3.6114484375e+01    0.5059385    0.3095512  69.73  0.001640688    1.841    0.457
       227  -9.5386    172.0310     53.5303   5.2228768968e+01   3.5700384762e+01    0.2334453    0.2043063 -35.38 0.0004417452    1.162    0.139
       228  -9.0464    128.3649     57.5781   6.2827801729e+01   4.5536647785e+01    0.4577141    0.1985081  65.55 0.0007793197    4.598    0.782
       229  -9.3888    133.0007     58.0165   6.1818543855e+01   4.4395839484e+01    0.2403569     0.174039  18.10 0.0006183377    1.657    0.396
       230  -9.5630    136.5023     56.4542   6.0461454656e+01   4.3824884255e+01    0.3005811    0.2682644   0.22 0.0009637242    1.160    0.138
       231  -9.2238     64.9771     56.4880   8.2581897211e+01   5.8077952342e+01    0.2225385    0.2081135 -79.77   0.00038373    1.502    0.334
       232  -9.4191     61.8000     52.2692   8.2287526144e+01   5.9335898291e+01     0.290238    0.2554191  -6.47  0.001303879    1.065    0.061
       233 -12.4833     61.8963     43.9893   7.9109831260e+01   6.0789416965e+01    0.4624269    0.3125848 -34.93 0.0005076466    1.382    0.276
       234 -11.2405     71.1474     51.9328   7.8587693203e+01   5.7946755389e+01    0.3512526    0.2782534   4.84 0.0003027294    1.218    0.179
       235 -10.0000     65.6077     49.2065   7.9665747298e+01   5.9312081692e+01    0.3060506    0.1747052 -30.33  0.001479078    1.685    0.406
       236 -11.1566     68.6392     47.1793   7.7734418418e+01   5.9184833737e+01    0.6314061    0.3422979 -36.17 0.0008023846    1.738    0.425
       237  -8.6933     60.4828     57.5435   8.4694873351e+01   5.8533698871e+01    0.1368916    0.1188161 -18.13 0.0001107826    1.031    0.030
       238  -9.2744    225.8368     55.4972   4.4795409213e+01   2.2844668948e+01    0.2267073    0.1728327 -39.11 0.0002477193    1.224    0.183
       239  -8.6540    127.9777     51.5231   6.0885349466e+01   4.6572458300e+01    0.2132219    0.1384134  50.84 -0.0001507608    1.484    0.326
       240 -11.1892    124.9697     45.7386   5.9645303645e+01   4.8122041699e+01    0.5402545    0.4131851  14.79 0.0008149587    1.454    0.312
       241 -11.0466    117.9861     52.3695   6.3757911795e+01   4.8710619120e+01    0.4385709    0.2853816 -30.89 0.0002990734    1.564    0.361
       242  -9.8424    122.9993     52.0139   6.2313386070e+01   4.7637919555e+01    0.4120949     0.265646  31.22  0.001228443    1.691    0.409
       243  -8.5822    111.2398     56.3958   6.7037108239e+01   4.9539515884e+01    0.1935386    0.1387924  56.63 0.0004711599    1.562    0.360
       244  -9.8996     31.9925     41.7516   9.1110436929e+01   6.4981527802e+01    0.3194155     0.261133 -50.70  0.001281501    1.420    0.296
       245 -11.4650     40.8104     38.6081   8.5897641810e+01   6.4583618583e+01    0.5232314    0.2763804 -13.36  0.001026021    2.542    0.607
       246  -9.7355     44.4587     55.4904   9.0476744757e+01   6.0998279105e+01    0.3661204    0.2374042  -4.60   0.00192816    1.736    0.424
       247  -8.9896     42.5871     44.6451   8.7425718399e+01   6.3288236015e+01    0.2257683    0.1903682 -28.13  0.001441516    1.129    0.115
       248 -10.1926     46.9064     47.5414   8.6636462484e+01   6.2230615183e+01    0.4814585    0.2210376 -41.19  0.001942829    1.908    0.476
       249 -10.5639     42.3758     49.6432   8.9336937217e+01   6.2375757344e+01    0.4992068    0.1942642 -43.45  0.001871838    2.186    0.543
       250 -10.4416     37.9455     46.3768   9.0103908647e+01   6.3491533671e+01    0.3562562    0.3071462  60.74  0.002203242    1.833    0.455
       251  -8.5430    242.4842     55.5269   4.2880192576e+01   1.9300599379e+01    0.2214727     0.121057  83.39  0.001033643    2.393    0.582
       252 -10.4322    191.5607     53.8866   4.9092049012e+01   3.0938103883e+01    0.3688132    0.2555999 -22.29  0.001129891    1.629    0.386
       253  -8.9252     83.0395     45.2059   7.1766881141e+01   5.7014525410e+01    0.4536604    0.2448036 -58.06  0.001520871    4.555    0.780
       254  -9.6676     90.9394     40.9733   6.7502070510e+01   5.6155959007e+01    0.5003315    0.4035653  -4.53  0.002825546    1.197    0.165
       255 -11.5052     93.6133     49.3410   6.9827507239e+01   5.4328622503e+01    0.7998216    0.6438262  45.64  0.002294773    1.318    0.241
       256 -10.9608     93.9862     45.0449   6.8094412647e+01   5.4933447264e+01    0.3119493    0.2569447  13.64            0    1.151    0.131
       257  -9.4772     83.1426     52.1157   7.4347602698e+01   5.5849116639e+01    0.4416461    0.2555048 -39.58  0.001718894    1.716    0.417
       258  -8.7253     79.5751     48.7844   7.4343825458e+01   5.7055406823e+01    0.2500259    0.1311359 -42.49 0.0008532329    1.985    0.496
       259 -10.6072     31.3844     52.8512   9.5208446226e+01   6.2890447922e+01    0.5456606     0.238828  28.72  0.002514519    2.503    0.601
       260  -8.5841    106.6779     52.9737   6.7148736159e+01   5.1070799102e+01    0.1945011    0.1759117 -11.92 0.0002287618    1.075    0.070
       261 -10.0050     19.7639     50.7198   9.9712868528e+01   6.4295707976e+01    0.4046686    0.2133738 -44.82 0.0009924364    1.474    0.322
       262  -8.5095     21.3983     46.3028   9.7582110319e+01   6.5056802131e+01    0.2004951     0.112158  -0.34            0    2.042    0.510
       263  -9.4568     17.4906     46.1595   9.9346812523e+01   6.5380282148e+01    0.3121088    0.1478758 -40.09  0.001056255    1.670    0.401
       264  -9.3143     25.2251     47.7808   9.6309366577e+01   6.4450974759e+01    0.2263312    0.1452959 -48.10  0.001320426    1.342    0.255
       265  -9.2850     27.3504     44.2317   9.4136994723e+01   6.4956147230e+01    0.2232673    0.1324131 -38.08  0.000766337    1.365    0.267
       266  -7.8513    212.4735     51.5852   4.5526894696e+01   2.6379717815e+01    0.1328128    0.1245086 -70.01 0.0001165207    1.038    0.037
       267  -9.6871    175.3859     50.2757   5.0704375520e+01   3.5351388788e+01    0.2691198     0.253117  80.88 0.0007835861    1.037    0.036
       268  -9.6460    193.9993     60.3223   5.0444117866e+01   2.9415517288e+01    0.2605517    0.2033326 -34.84  0.001380013    1.268    0.212
       269 -10.1450    181.3420     48.3447   4.9172070579e+01   3.4176286797e+01    0.3678518    0.2257084 -50.21  0.001335793    1.715    0.417
       270 -10.4604    153.8430     48.9951   5.4291972965e+01   4.0784249883e+01    0.4917045    0.3100806  69.36  0.001506443    1.763    0.433
       271  -9.2801     53.8578     50.0140   8.4643503308e+01   6.0872402617e+01    0.1996208    0.1620084 -15.59  0.000371212    1.060    0.057
       272  -8.2500    224.5079     48.5507   4.3299446318e+01   2.4097793464e+01    0.1293236    0.1199667 -62.56 0.0001341445    1.064    0.060
       273  -8.7735    196.8097     48.2020   4.6793169691e+01   3.0489822582e+01    0.1840592    0.1575284  36.70 0.0004524305    1.341    0.254
       274  -9.9272     31.8020     47.8764   9.3369035827e+01   6.3834641564e+01    0.1877016     0.154284 -13.38 0.0005528372    1.115    0.103
       275  -8.3843    234.6873     47.2976   4.1861522768e+01   2.2059523341e+01    0.1353932   0.08616291 -63.54 0.0001672869    1.602    0.376
       276  -9.4171    204.1999     46.3795   4.5299441457e+01   2.9002281303e+01    0.2296167    0.2026712  20.45 0.0004925388    1.389    0.280
       277 -10.1121    114.2896     45.3723   6.2276136646e+01   5.0592624796e+01    0.4888471    0.2559717 -42.33  0.002095657    2.125    0.529
       278  -8.9043    164.9693     46.0260   5.1277830282e+01   3.8484979260e+01    0.3334938    0.1611562  40.40  0.001293123    2.490    0.598
       279  -8.7548    139.1097     44.8793   5.6054912693e+01   4.4919662634e+01    0.2017991    0.1622927  24.91 0.0005450801    1.322    0.244
       280  -9.5128    245.0685     43.8724   4.0024802635e+01   2.0339159002e+01    0.2191327    0.1782784 -35.07 0.0007775206    1.248    0.199
       281  -8.9821    185.5199     44.2728   4.7388361427e+01   3.3721384932e+01    0.2992905    0.1420296  50.81 0.0008733364    2.129    0.530
       282  -9.3486    175.6708     43.8601   4.8815008404e+01   3.6165101374e+01     0.313723    0.1943797 -55.48  0.001453007    1.826    0.452
       283  -9.2469    149.9950     43.9905   5.3486082446e+01   4.2417172747e+01     0.220845    0.1611308  27.89 0.0003253768    1.565    0.361
       284  -8.7966    133.0250     43.9553   5.7112304737e+01   4.6493990795e+01    0.2284674     0.162366  24.28 0.0005499179    1.599    0.375
       285 -11.9465    104.0679     39.2274   6.2851938873e+01   5.3701532664e+01    0.4374182     0.400331 -38.04 0.0006508577    1.249    0.200
       286  -9.2429    200.0865     43.0340   4.4984376264e+01   3.0412829483e+01    0.2287593    0.1923111  50.78 0.0007534773    1.279    0.218
       287  -8.2407     53.2275     43.5949   8.2477964088e+01   6.2115511056e+01    0.1203551     0.099493 -56.80  0.000688421    1.664    0.399
       288 -10.8997    228.2140     38.1422   4.0441770945e+01   2.4653452325e+01    0.3887953    0.2265853 -39.07 0.0007203496    1.562    0.360
       289  -9.3627    191.2636     39.9085   4.5364943809e+01   3.2915129267e+01    0.3220121    0.2134723  -7.98   0.00115525    2.110    0.526
       290  -8.4081    134.2493     27.9749   5.1404089793e+01   4.8231648125e+01    0.1907107      0.12409 -38.58 0.0009466346    1.668    0.401
       291  -8.2586    188.3031    244.7128   9.2173868204e+01  -2.1038829096e+00    0.1110169   0.09050882  49.29 0.0002739448    1.562    0.360
       292  -9.4648    128.2793     40.3910   5.6993274090e+01   4.8097789736e+01    0.2729713    0.2217295  71.23 0.0009467227    1.378    0.274
       293 -10.6721    131.1794     35.9900   5.4810716083e+01   4.7991828394e+01    0.4401763    0.3881981  68.36 0.0006503953    1.191    0.161
       294  -9.8963    135.7874     36.1789   5.3868137655e+01   4.6872097952e+01     0.292947    0.2361101 -37.14  0.001090048    1.325    0.246
       295  -9.6304    186.3931     36.9160   4.5239020718e+01   3.4466151518e+01    0.2777267    0.2264079 -80.45 0.0007032849    1.245    0.197
       296 -10.0084    182.2007     39.2080   4.6481900843e+01   3.5187970543e+01     0.285703    0.2088666 -47.12 0.0006381157    1.373    0.272
       297 -10.5257    177.7194     37.1041   4.6565223920e+01   3.6543797492e+01    0.4360066    0.3048886  85.93  0.001561292    1.569    0.363
       298  -8.8099    171.2337     40.2601   4.8498009441e+01   3.7722720972e+01    0.1850314    0.1523393 -66.81 0.0003484637    1.289    0.224
       299  -9.7677    158.1633     38.8333   5.0320267272e+01   4.1106837315e+01    0.3287486    0.2197586 -42.13 0.0009880196    1.563    0.360
       300  -9.6412     25.1776     38.9934   9.3292882072e+01   6.6143084530e+01    0.2327235    0.1736776 -17.26 0.0006645205    1.150    0.131
       301  -8.5651    165.9323     39.5242   4.9167042145e+01   3.9115203207e+01    0.2023997    0.1328533  63.48 0.0003723711    1.461    0.315
       302  -8.7465     82.1131     38.4872   6.9443882605e+01   5.8225347583e+01    0.2008192    0.1651544 -18.86 0.0005901044    1.166    0.142
       303  -9.1397    238.6611     37.4457   3.9229354473e+01   2.2500458958e+01    0.1928464    0.1526345  -9.76  0.001148044    1.693    0.409
       304  -8.5938      1.3577    244.1887   1.2773592375e+02   2.2542890024e+01     0.142196   0.07202418  81.70 0.0003979665    1.626    0.385
       305 -10.0815     71.5022     29.9070   6.9651240628e+01   6.1393709762e+01    0.2802656    0.2211285 -18.05  0.001674866    1.196    0.164
       306 -10.0788     76.6722     34.7621   6.9825017901e+01   5.9776233635e+01     0.658207    0.2049328  45.52  0.001006628    3.209    0.688
       307  -9.8905     75.6140     27.1440   6.6998215817e+01   6.1026452965e+01    0.3281848    0.3228121  54.47  0.001546176    1.393    0.282
       308  -8.5477    133.4637     31.5314   5.2783737355e+01   4.8001191049e+01    0.2457816    0.2056031 -18.91 0.0008722815    1.274    0.215
       309 -11.0122    116.7640     33.4074   5.7290415310e+01   5.1668373181e+01    0.4320249    0.2727461  22.92 0.0004940344    1.870    0.465
       310  -9.3470    144.2396     34.8786   5.1696613095e+01   4.5000658439e+01    0.4174727    0.2293267  38.56   0.00182674    1.993    0.498
       311  -9.8979    142.6814     31.6626   5.0949487334e+01   4.5769928130e+01    0.2756306    0.2336971  16.10  0.001555475    1.278    0.217
       312 -10.0117    146.2010     29.0903   4.9438151466e+01   4.5218609167e+01    0.4353338      0.29918  75.17   0.00219745    1.561    0.359
       313  -7.8371     95.2559     35.3239   6.3947071329e+01   5.6091629389e+01    0.1388968     0.097683  11.12 0.0002254073    1.547    0.354
       314  -9.6927     41.6232     21.9217   7.8391977491e+01   6.7175474251e+01    0.2237329    0.1683605  32.39 0.0007070937    1.497    0.332
       315 -11.1987     56.2988     33.8988   7.7274483700e+01   6.3287018734e+01    0.5393004      0.28195  44.78  0.002581186    2.344    0.573
       316  -9.0099     55.5684     29.4709   7.5679824679e+01   6.4075495957e+01    0.1761742    0.1250114  -0.45 0.0004599135    1.335    0.251
       317 -10.1552     51.9405     28.9709   7.6987127254e+01   6.4689653751e+01    0.2034149    0.1650269  23.98 0.0003331068    1.265    0.209
       318  -9.5098     49.5657     25.1627   7.6318555932e+01   6.5600223194e+01    0.2496752    0.1729406  -5.92 0.0002115746    1.337    0.252
       319  -9.0690     45.6362     24.7763   7.7874086046e+01   6.6211508743e+01    0.2437961    0.1887022 -42.31  0.001090066    1.611    0.379
       320  -9.1592     47.4165     34.4393   8.1276943776e+01   6.4458587965e+01    0.2058415    0.1397819   6.87  0.001166097    1.462    0.316
       321 -12.1205    107.5837     29.2807   5.8103467302e+01   5.4239090555e+01    0.4893214     0.363887 -18.45   0.00268398    1.398    0.284
       322  -9.1786     99.9844     26.8006   5.9205794000e+01   5.6192743270e+01     0.381865    0.1492648  46.07 0.0009810397    2.266    0.559
       323  -8.8895     75.5248     31.4407   6.8851196286e+01   6.0458421810e+01    0.1888061    0.1201819 -37.95 0.0004950216    1.703    0.413
       324  -9.0605    233.5188     32.5022   3.8619171413e+01   2.4210933817e+01    0.3286184    0.1495877 -63.02  0.001412623    2.664    0.625
       325  -9.1990    215.8886     33.4218   4.0649057451e+01   2.7987130256e+01    0.2641746    0.1524035 -87.36  0.001268165    2.027    0.507
       326  -9.0170    202.8796     32.0231   4.1796506930e+01   3.1152927537e+01    0.2229846    0.1849702  -0.40 0.0009389034    1.553    0.356
       327 -10.6929    186.8727     30.8128   4.3509303550e+01   3.5098385481e+01    0.4985046    0.2971914  48.43  0.002008055    1.775    0.437
       328 -10.0910    182.7793     28.3878   4.3399094038e+01   3.6371110945e+01    0.3017827    0.2416325  43.40 0.0009496139    1.360    0.265
       329  -9.3143    153.2778     31.5711   4.8939561738e+01   4.3201415380e+01     0.469431    0.2002028  47.65  0.001889113    2.279    0.561
       330  -9.5722    202.8536    242.5588   8.9057505923e+01  -3.9132181279e+00    0.1928749     0.143412  -4.59 0.0004564471    1.274    0.215
       331  -9.2045    247.5087    239.0301   8.0356366781e+01  -9.5016852213e+00    0.1674773   0.09837583 -26.22 0.0005748049    1.585    0.369
       332  -8.5112     36.0042    239.5268   1.2146834945e+02   1.9972374272e+01    0.1297641   0.09810976  -1.30 0.0006173162    2.449    0.592
       333 -10.7248     33.4864     29.4060   8.5537954383e+01   6.6999911693e+01    0.6299641    0.4163648   3.51  0.003765825    1.475    0.322
       334  -9.0618    221.2277    237.6056   8.4820757389e+01  -5.8350764634e+00    0.2130371    0.1254192  22.75 0.0006850546    1.471    0.320
       335 -11.1711     24.5305     31.0077   9.0561966643e+01   6.7646538509e+01    0.3375595    0.2644648  21.90  0.001423972    1.465    0.318
       336 -11.3733     19.1180     29.1684   9.2550064582e+01   6.8452586252e+01    0.2795356    0.2244999  13.78 0.0004141114    1.382    0.276
       337  -9.3660    186.5110    231.4845   9.0469791416e+01   1.3335255491e-01    0.1298568    0.1055549  14.52 0.0008099703    1.045    0.043
       338  -8.8571    176.5031    231.4908   9.2468459387e+01   1.6768542714e+00    0.1296383    0.1079443  19.05 -6.605823e-05    1.015    0.015
       339  -9.4440    248.3930     30.7293   3.6881630946e+01   2.1318410321e+01    0.2939038    0.1937101 -81.14  0.001744433    1.525    0.344
       340  -9.2701    159.0806     30.0386   4.7460410192e+01   4.1961854450e+01    0.3125186    0.1978596 -26.83  0.001285005    1.703    0.413
       341 -10.0759    165.7756     26.4079   4.5291322693e+01   4.0738811239e+01    0.5634026    0.3603311  62.66  0.002250909    1.435    0.303
       342  -8.9099    159.4186     24.5217   4.5721090091e+01   4.2504964241e+01    0.2204984    0.1724798 -10.37 9.539711e-05    1.491    0.329
       343  -8.8958    162.6836    225.5416   9.4361140137e+01   4.8315036931e+00    0.3126264    0.2114711  81.11  0.001340549    3.496    0.714
       344  -8.7532    223.7197    225.0629   8.2236845227e+01  -4.4638422029e+00    0.1751497    0.1353404   0.60 0.0008320097    1.066    0.062
       345 -10.8914    222.0899     26.5968   3.8380359695e+01   2.7418268007e+01    0.3897214    0.3340134  23.03  0.001167193    1.572    0.364
       346  -8.4122    195.6695     29.2119   4.1949634290e+01   3.3187110237e+01    0.1647972    0.1245214 -21.67 0.0003959888    1.514    0.339
       347  -9.5840     86.0004     35.0325   6.6753900387e+01   5.7984179108e+01    0.5479314    0.2167336 -38.09  0.002213561    2.651    0.623
       348  -8.9740     42.5079     28.5534   8.0959795622e+01   6.6050718529e+01    0.1271878    0.1017125  -8.98 8.070455e-05    1.011    0.011
       349  -9.0397    207.9573     26.4915   3.9827299480e+01   3.0631580323e+01    0.1943235    0.1200572  71.91 0.0005092961    1.556    0.357
       350 -10.7661    206.0788     22.7353   3.9102444412e+01   3.1496201404e+01    0.3634267    0.2406981  60.14  0.001827178    1.502    0.334
       351 -10.6449    173.2864     23.2690   4.3274361282e+01   3.9253327381e+01    0.7037981    0.3253336  64.07  0.003133656    1.955    0.489
       352  -8.8631    131.9034    225.2052   1.0076498696e+02   9.7759303748e+00    0.1980833    0.1614983  53.95 0.0005810401    1.227    0.185
       353  -9.1711    231.9770     23.4957   3.6742623536e+01   2.5618058682e+01    0.2749348    0.1719248 -69.48  0.001352954    1.567    0.362
       354 -10.8375    153.7238     22.9999   4.6178568597e+01   4.4063496340e+01    0.2408115    0.2322726  50.73 0.0003204321    1.065    0.061
       355  -9.0027    151.9674     18.4454   4.5041447520e+01   4.4968382593e+01    0.2152842    0.1847859  12.97 0.0005943712    1.317    0.241
       356  -8.2030      1.7205    224.3164   1.2681644651e+02   2.6271912171e+01    0.1133379   0.05809966  66.23  0.000194207    1.574    0.365
       357 -10.0136     62.5934     23.2180   7.0080148724e+01   6.3837722302e+01    0.4287186    0.1975292  36.18  0.001827919    2.056    0.514
       358  -9.2039    189.2487     21.5058   4.0706796244e+01   3.5592656930e+01    0.3096381    0.1988868  12.51  0.001457384    2.519    0.603
       359  -9.7314    132.3548     21.4371   4.9543840658e+01   4.9403653413e+01    0.3325769    0.2411009  59.01  0.001225176    1.260    0.207
       360  -9.2264    196.5470    222.2698   8.6962051382e+01   1.2632984243e-02    0.1744482    0.1134449 -22.38 0.0009455381    1.628    0.386
       361  -9.1527    109.4525     21.5120   5.4652159199e+01   5.4716707982e+01    0.2531621    0.2022071  11.84 0.0007132405    1.267    0.211
       362 -11.0213    104.9786     20.9397   5.5558666939e+01   5.5774916876e+01    0.2553248    0.2359802  42.67 0.0003246502    1.121    0.108
       363  -8.4640     85.8401     22.4151   6.1595618144e+01   5.9648208987e+01    0.1843594     0.108129  37.84 0.0009289705    1.542    0.351
       364  -8.0831     10.4793     22.5183   9.4426314176e+01   7.0294408792e+01    0.1179112   0.08848466 -25.77   3.4789e-06    1.027    0.027
       365  -9.1443     88.7604    221.0102   1.0940513331e+02   1.7044643578e+01    0.2164178    0.1669437  42.95  0.000587669    1.180    0.152
       366 -10.8263    218.0426     18.8775   3.6968347661e+01   2.9203317554e+01    0.5283871    0.2381925  79.53    0.0024222    2.335    0.572
       367  -9.0516    203.1480    217.8641   8.4903142337e+01  -3.2633052301e-01    0.1788996    0.1557554  15.85 0.0002747031    1.134    0.118
       368  -9.1725    231.0184    209.1565   7.8040036317e+01  -3.2337262567e+00    0.1964468    0.1410728   2.59 0.0004271639    1.247    0.198
       369  -9.2776     35.2690    201.2717   1.1884142488e+02   2.7846520436e+01    0.2040063    0.1045781  65.19  0.001050332    1.949    0.487
       370  -8.9914    244.5061    200.5393   7.4006810822e+01  -3.9381374233e+00    0.1284324    0.1017951  -5.03 0.0001589852    1.005    0.005
       371  -8.5768    120.4149    199.2373   9.9491774096e+01   1.6725239103e+01    0.1782274    0.1329089 -73.93 0.0007187163    1.587    0.370
       372  -9.3378      7.3700    194.7912   1.2416238163e+02   3.1876838178e+01    0.3006868    0.1499257  54.81  0.001737753    1.797    0.443
       373  -8.1337     92.3021    188.2977   1.0443722203e+02   2.3516084921e+01    0.1306924    0.1071781 -22.02 0.0006998223    1.581    0.367
       374  -9.1093     55.2024    181.3334   1.1239774643e+02   3.0115958074e+01    0.2060752    0.1581935 -66.46 0.0004759596    1.244    0.196
       375 -10.0253      7.2291    174.8469   1.2285978192e+02   3.6306148493e+01    0.1883249    0.1305519  74.39  0.000720683    1.249    0.199
       376  -9.5303     17.4644    174.5185   1.2053582775e+02   3.5550522356e+01    0.1220611   0.09870014 -89.30 1.100798e-05    1.019    0.019
       377 -10.5804      7.1747    167.0102   1.2228820810e+02   3.8100665994e+01     0.322662    0.2179177  -9.28  0.001903696    2.361    0.576
       378 -10.2278     14.4631    166.5134   1.2055757482e+02   3.7651126008e+01    0.2143104     0.138859 -50.10 0.0006478241    1.712    0.416
       379  -9.9238     17.9726    165.0000   1.1959552486e+02   3.7717853256e+01     0.195421     0.175037  21.60 0.0007262667    1.424    0.298
       380 -11.7048     37.6512    159.3876   1.1415610249e+02   3.7257917817e+01    0.6242835    0.3697506  56.35  0.002782791    1.790    0.441
       381 -12.2479     30.6665    154.8272   1.1541738031e+02   3.9030024483e+01    0.8650149    0.4516721  50.27  0.004035684    2.037    0.509
       382 -10.6287     24.0486    162.6342   1.1790578030e+02   3.7756893726e+01    0.3635922    0.1866792  41.53  0.001912147    1.990    0.497
       383  -9.8621      5.6374    141.5721   1.2049864101e+02   4.4170388625e+01    0.2798008    0.2168051 -61.78  0.000906951    1.209    0.173
       384 -10.9134      2.3637    154.1540   1.2240853926e+02   4.1419898900e+01    0.7174279    0.1352769 -72.46   0.00258504    3.670    0.727
       385 -10.6422      4.4279    146.5719   1.2126283723e+02   4.3064220018e+01    0.3983644     0.240645  79.80  0.001424956    1.565    0.361
       386  -9.2078    249.5051    153.5022   6.3698454292e+01   2.5540950237e+00    0.1356383    0.1115534 -18.66 0.0008106121    1.017    0.017
       387 -10.8871     12.1422    151.7372   1.1979959455e+02   4.1305348587e+01    0.3454771    0.2973525 -89.66  0.002228051    1.085    0.078
       388  -9.9248     45.9538    151.3915   1.1096999052e+02   3.8343253106e+01    0.2359382    0.1700522 -70.01 0.0002480437    1.219    0.180
       389  -7.8800    103.4488     16.4447   5.4179722291e+01   5.6583549697e+01    0.1367872    0.1121182  31.35 0.0008045863    1.079    0.073
       390  -8.8054    230.4052    147.7868   6.5694350887e+01   6.7914998179e+00    0.1957283    0.1195018 -26.10 0.0005912025    1.573    0.364
       391 -10.0688    144.7411     17.2421   4.5858032040e+01   4.6847512563e+01    0.3409328    0.2262548  55.76  0.001808147    1.337    0.252
       392  -9.5959     54.1764    146.0167   1.0795018030e+02   3.8749028382e+01    0.1998543    0.1946292  69.34 0.0002535142    1.130    0.115
       393  -9.8588     21.3145    141.3306   1.1633192211e+02   4.3102308077e+01    0.1990513    0.1604883 -64.77 0.0007485306    1.120    0.107
       394 -10.7201     13.4252    144.2688   1.1874168359e+02   4.2993146100e+01     0.423926    0.2172256 -55.71  0.001769073    1.758    0.431
       395  -8.6046    154.7536     13.9002   4.3194484605e+01   4.4737573861e+01    0.1650222    0.1614384  78.92 0.0004405191    1.089    0.082
       396  -8.8153    139.4299     13.6500   4.5594262466e+01   4.8479828284e+01    0.2575624    0.1394607  59.34 0.0007082051    1.599    0.375
       397 -10.3003     17.4960    140.4951   1.1726380169e+02   4.3600319690e+01     0.230007    0.1950192  23.87 0.0007921809    1.452    0.311
       398  -8.8093     41.7072    139.0933   1.1040399979e+02   4.1814003129e+01    0.1980654    0.1514807 -68.59   0.00113412    1.130    0.115
       399 -10.7036      2.0737    136.0614   1.2090985560e+02   4.5699921067e+01    0.4451708    0.1778675 -71.33  0.001136367    1.900    0.474
       400  -9.8852      3.4872    129.5211   1.1988862848e+02   4.7173541980e+01    0.3096324      0.15016 -63.05  0.001267003    1.610    0.379
       401  -9.3153    236.0464    137.0224   6.2346862080e+01   7.6123382748e+00    0.2119797     0.187066 -29.57 0.0005027684    1.075    0.070
       402  -8.8175     75.5428     12.7390   6.0671466471e+01   6.2747268373e+01    0.1575371    0.1554912  54.27 0.0008806087    1.385    0.278
       403  -9.8786     34.3914    136.6198   1.1211974561e+02   4.3131911434e+01    0.2770843    0.2154661  40.17  0.001020492    1.438    0.305
       404 -10.7022     14.8427    135.4707   1.1742028262e+02   4.5009216789e+01    0.2697841      0.16282 -56.89  0.001297187    1.454    0.312
       405 -10.8243     42.8490    131.2262   1.0887884043e+02   4.3644405932e+01       0.5821    0.2906245 -46.37  0.002655069    1.986    0.497
       406  -8.3891    248.6960    133.6668   5.9571303127e+01   5.9172977572e+00    0.1374751   0.09690046  -5.69  0.000413465    1.660    0.398
       407 -11.3806     28.6687    132.0169   1.1311493366e+02   4.4771483409e+01    0.2369387    0.2057458 -78.76 0.0003049997    1.054    0.051
       408  -8.8911     23.7131    133.3831   1.1470505210e+02   4.4846043709e+01    0.1752618    0.1622783   8.57 0.0006035813    1.334    0.251
       409  -9.3159     20.5577    130.6764   1.1525432721e+02   4.5752293013e+01    0.2961757    0.1170266 -63.64  0.001345177    1.959    0.490
       410 -10.5042      8.0504    132.9885   1.1900304600e+02   4.6065545775e+01    0.3295245     0.165911 -44.70  0.001497606    2.110    0.526
       411  -9.5630     61.6880    131.0628   1.0327595446e+02   4.1554639329e+01    0.2202914    0.1891005  59.15 0.0004834863    1.271    0.213
       412  -9.7666     34.1536    128.1198   1.1096045711e+02   4.5247869041e+01     0.310901    0.1803859 -57.96 0.0008768202    1.452    0.311
       413  -8.8200     17.6498    128.6754   1.1583134804e+02   4.6454671816e+01    0.1350502   0.07882995 -44.57 0.0006585842    1.754    0.430
       414 -10.2431     12.9616    127.2965   1.1699878802e+02   4.7115315272e+01    0.1676818    0.1483053 -72.13  0.000790979    1.103    0.093
       415  -8.5861    217.7719    125.0328   6.2755674457e+01   1.3198776713e+01     0.199654    0.1104255 -37.45 0.0008737735    1.639    0.390
       416  -8.7699     59.9386    125.3711   1.0273420438e+02   4.3181979953e+01    0.1888086    0.1750139 -52.75 0.0005471596    1.054    0.051
       417  -8.6720     30.0228    125.4922   1.1179283353e+02   4.6258442545e+01    0.1606513    0.1330444  22.49 -0.0001650954    1.442    0.307
       418  -9.9166     36.6093    123.3254   1.0948054988e+02   4.6204035848e+01    0.2725822    0.2125365  58.06   0.00082325    1.452    0.311
       419 -10.1316     32.6448    121.9027   1.1045850569e+02   4.6913273289e+01    0.3601378    0.2362348  25.90  0.001972676    1.781    0.439
       420 -10.8815      7.2074    123.7741   1.1822762519e+02   4.8329287119e+01    0.3053596    0.2094428 -44.50  0.001301907    1.491    0.329
       421 -10.1395     72.0750    123.6575   9.8688011254e+01   4.2017442357e+01    0.2715543    0.2311666 -45.28   0.00028836    1.112    0.101
       422 -10.1007     28.5330    108.5334   1.0955622725e+02   5.0529414038e+01    0.2842274    0.1791856 -31.64  0.001497969    1.770    0.435
       423 -11.4354     19.8073    110.5258   1.1267705206e+02   5.0708352378e+01    0.6950384    0.5679955 -27.93   0.00443276    1.364    0.267
       424 -10.7522     21.0211    119.7522   1.1365852271e+02   4.8380113649e+01    0.5751066    0.3188508  65.10  0.002759274    2.371    0.578
       425 -11.1601     27.9002    116.2763   1.1103194122e+02   4.8694540006e+01    0.6043798    0.3958626 -39.25 0.0009791771    1.575    0.365
       426 -10.5496     14.4174    113.8141   1.1483711351e+02   5.0278855587e+01    0.3844156     0.193786  33.67  0.001985592    2.289    0.563
       427  -8.8134    236.9403    120.7724   5.8547778204e+01   1.0202394748e+01    0.1734395    0.1165467  46.84 0.0002868708    1.686    0.407
       428 -10.0995     93.5702    119.1208   9.1145436962e+01   3.9827607001e+01    0.3457227    0.2666799 -22.62  0.001304458    1.482    0.325
       429 -10.0620     43.4251    119.6129   1.0675874054e+02   4.6457197414e+01    0.3503113    0.2276776  37.12  0.001560973    1.726    0.421
       430  -9.1954     83.6443    117.3506   9.3743112350e+01   4.1854869113e+01    0.2393447    0.2160036 -85.97 0.0006055332    1.229    0.186
       431  -9.0263    123.6684    120.9694   8.2942642230e+01   3.3866694162e+01    0.2150162    0.1928809 -45.96 0.0003932996    1.094    0.086
       432  -9.9756     54.6708    118.0006   1.0293605143e+02   4.5631756523e+01    0.2223134    0.2060781  23.68 0.0002098749    1.216    0.178
       433  -9.4853      1.9133     92.7961   1.1586173455e+02   5.5970760792e+01     0.217815    0.1474916 -72.87 0.0007007317    1.234    0.190
       434 -10.8398     15.6423     97.6485   1.1198234410e+02   5.4077106918e+01    0.4539011     0.374851  61.03 0.0009111872    1.458    0.314
       435 -10.2982     23.4684     95.5145   1.0892475838e+02   5.4048982532e+01    0.2850425    0.2132979 -57.40 2.666166e-05    1.085    0.078
       436 -10.1204      6.2844     97.6282   1.1511304637e+02   5.4621793762e+01    0.5169618     0.402715 -75.56  0.003377584    1.151    0.131
       437  -9.1940      7.7709    106.9163   1.1595412559e+02   5.2336546601e+01    0.3142108    0.1265342 -65.03 0.0004608189    1.845    0.458
