#   1 NUMBER                 Running object number                                     
#   2 MAG_AUTO               Kron-like elliptical aperture magnitude                    [mag]
#   3 X_IMAGE                Object position along x                                    [pixel]
#   4 Y_IMAGE                Object position along y                                    [pixel]
#   5 X_WORLD                Barycenter position along world x axis                     [deg]
#   6 Y_WORLD                Barycenter position along world y axis                     [deg]
#   7 A_WORLD                Profile RMS along major axis (world units)                 [deg]
#   8 B_WORLD                Profile RMS along minor axis (world units)                 [deg]
#   9 THETA_WORLD            Position angle (CCW/world-x)                               [deg]
#  10 FWHM_WORLD             FWHM assuming a gaussian core                              [deg]
#  11 ELONGATION             A_IMAGE/B_IMAGE                                           
#  12 ELLIPTICITY            1 - B_IMAGE/A_IMAGE                                       
         1 -14.2670      3.2031     90.2872   1.3706583034e+02   5.6232272215e+01     3.532156    0.8064349 -70.89   0.01070289    5.945    0.832
         2 -14.7491      3.2677    135.4697   1.4328265528e+02   4.6347585518e+01     4.362268     0.697255 -71.53   0.01388423    4.966    0.799
         3 -13.3469    199.2885     26.6790   6.7523760436e+01   3.2377063402e+01     1.411957     1.261983  26.77  0.007339107    1.409    0.290
         4 -13.3431    214.3820      8.7612   6.1503489191e+01   3.0807738419e+01    0.9478001    0.7810508  65.18  0.003696909    1.249    0.200
         5 -13.6115      9.6474    156.8587   1.4409589500e+02   4.1101371274e+01      3.05479     1.151227  84.85    0.0112111    4.339    0.770
         6 -10.3023    248.5378    249.5804   1.0856877343e+02  -1.3910242605e+01    0.3016035    0.1440078  34.61  0.001664866    1.804    0.446
         7 -11.6450    124.5765    249.8821   1.3135938238e+02   6.2181725180e+00     0.670311    0.1338987  46.33  0.002235503    4.035    0.752
         8 -11.1341     97.9146    248.6692   1.3608903101e+02   1.0695468334e+01     0.278102    0.2405401  50.11   0.00108153    1.280    0.219
         9  -9.1941     66.4880    250.4842   1.4177337004e+02   1.4972775273e+01    0.1176712   0.08764619  69.76 0.0008103609    1.001    0.001
        10 -10.7674     46.4813    248.9855   1.4500633372e+02   1.7897198959e+01    0.2690322    0.1472418  76.19  0.001522362    1.598    0.374
        11 -11.5804     29.1666    248.5646   1.4777392209e+02   2.0077528873e+01    0.3880407    0.2625425  71.23  0.002050042    1.060    0.056
        12 -12.7141     33.8597    244.0251   1.4672135444e+02   2.0368788306e+01    0.7365963     0.404999  73.66  0.004726335    1.488    0.328
        13 -11.6808      4.8810    249.4191   1.5155112125e+02   2.2575659453e+01    0.6126497    0.2611434  49.17  0.003112452    1.917    0.478
        14 -12.7126     10.3270    241.9133   1.5032813390e+02   2.3387809765e+01    0.6428887    0.5141866  52.00  0.005227196    1.525    0.344
        15 -11.7942    139.4556    248.0938   1.2837337718e+02   4.0409978148e+00    0.3763122    0.3403436 -47.15  0.002576342    1.381    0.276
        16 -10.8601    198.8850    247.5981   1.1717121084e+02  -5.9545216161e+00    0.2199776    0.1898169 -46.21  0.001476447    1.459    0.315
        17 -10.6148    216.6099    248.8291   1.1411462745e+02  -8.9969007620e+00     0.292812    0.1172532  29.70  0.001244726    2.763    0.638
        18  -9.3103    206.3437    242.3158   1.1495229143e+02  -6.4369459320e+00    0.1297294   0.08676352  12.61 0.0007048203    1.714    0.416
        19  -9.5062    183.6825    238.6549   1.1863536653e+02  -2.0465540839e+00    0.1296603    0.0936491  10.05 0.0007048726    1.722    0.419
        20 -12.3162     19.1930    242.3317   1.4896572136e+02   2.2361083686e+01    0.5200948    0.3316412  89.67  0.003782582    1.228    0.186
        21 -10.9894     49.8184    235.9119   1.4343140691e+02   1.9945269500e+01    0.2271197    0.1914347 -74.03  0.001141518    1.433    0.302
        22 -12.9677     46.1863    215.5158   1.4233279677e+02   2.4498645160e+01     1.115626    0.7086225  87.07  0.006535348    1.349    0.259
        23 -12.4758     10.5024    230.7991   1.4965989541e+02   2.5472580913e+01    0.6185232    0.2368448  86.97  0.003189006    2.521    0.603
        24 -12.2883    112.4392    231.3569   1.3139993864e+02   1.1576971218e+01    0.7565623    0.1536283  46.34  0.002437158    4.109    0.757
        25 -11.9428     89.1551    226.5517   1.3532043299e+02   1.6239305981e+01    0.7188317    0.1846166  51.89  0.002416756    4.108    0.757
        26 -12.8101     30.7990    233.3085   1.4648257015e+02   2.2772433381e+01    0.3003713    0.2277016 -78.03 0.0007528457    1.353    0.261
        27  -9.6596    174.2720    222.9994   1.1796034316e+02   2.1982791888e+00    0.3154306    0.1638866  48.36  0.001466878    1.808    0.447
        28 -11.4553     66.8487    217.5408   1.3862541877e+02   2.1350820855e+01    0.8709911    0.2085897  56.04  0.002057307    9.115    0.890
        29 -11.3096     58.1535    212.7405   1.3980445931e+02   2.3537871603e+01    0.4292861    0.1814047  56.70  0.001879319    2.296    0.565
        30 -13.8715     35.8323    226.9311   1.4515000613e+02   2.3436307475e+01    0.7624248    0.5346377  69.75  0.002387777    1.116    0.104
        31  -8.7491    152.6713    213.0649   1.2070032863e+02   7.9840690182e+00    0.1751081    0.1692477  78.04 0.0004084391    1.097    0.088
        32 -12.2834     10.0166    207.0625   1.4821284634e+02   3.0246585261e+01    0.5844708    0.3908067  36.90  0.002956919    1.858    0.462
        33 -10.7393     56.0818    205.8032   1.3949741358e+02   2.5283540211e+01    0.4529557     0.158969  57.16   0.00180379    3.241    0.691
        34 -11.1975     40.3628    199.1790   1.4191850411e+02   2.8665476466e+01    0.7137125    0.2480519  67.40  0.002112283    6.431    0.845
        35 -11.6001     58.3214    199.3640   1.3836068886e+02   2.6381747204e+01    0.2620439     0.218171 -72.47 0.0005726988    1.246    0.197
        36  -9.7696      9.2829    194.1068   1.4740750169e+02   3.3015500354e+01    0.1983172    0.1343663  61.71 0.0006480347    1.350    0.259
        37  -8.8906    191.7597    192.7640   1.0900872841e+02   4.3242575112e+00    0.2192225    0.1149305 -54.31 0.0007261084    2.454    0.592
        38 -11.8513     64.9609    190.8497   1.3599573515e+02   2.7368997061e+01    0.2607655     0.221672 -71.54  0.000429388    1.211    0.174
        39 -11.8364    244.0698    245.2735   1.0862626655e+02  -1.2739587540e+01    0.4487472    0.2701015   4.73  0.002535413    1.884    0.469
        40 -10.6112    171.0075    247.7515   1.2240048263e+02  -1.2793287105e+00    0.2348523     0.166317 -46.12  0.001411756    1.699    0.411
        41  -8.8903     96.0662    173.1058   1.2652192835e+02   2.6722005860e+01    0.2315758    0.1566969  76.44 0.0007651827    1.709    0.415
        42 -11.8222     83.4505    168.4121   1.2870799528e+02   2.9828120993e+01     0.689835    0.6490217 -52.83  0.004212433    1.241    0.194
        43 -10.2350     96.3636    152.8557   1.2287141727e+02   3.1416629797e+01    0.3330743    0.2793922 -56.39 0.0007676036    1.162    0.139
        44  -9.2119     99.4453    148.6772   1.2129536547e+02   3.1881177101e+01    0.2396921    0.1907512 -40.48 0.0007069351    1.387    0.279
        45 -11.9348     84.8927    151.8055   1.2553494843e+02   3.3520257535e+01    0.3045835    0.2447265 -48.18 0.0005167397    1.299    0.230
        46 -12.1301     67.3128    143.5342   1.2850627391e+02   3.8046017638e+01    0.6594537    0.4379279  67.09  0.002536469    1.784    0.440
        47 -10.0150    108.9590    137.4079   1.1653396528e+02   3.2845505675e+01    0.4812486    0.3273149 -12.26  0.001524558    2.690    0.628
        48 -10.4656     95.6891    134.8936   1.1944598258e+02   3.5773140031e+01    0.2572995      0.23191 -35.08 0.0004157164    1.212    0.175
        49  -9.0022     76.5754    129.6693   1.2345491365e+02   4.0018518863e+01    0.2283821    0.1578972  61.32  0.000800146    1.724    0.420
        50 -11.4401     26.2428    128.9121   1.3673796488e+02   4.6046240078e+01    0.4349769    0.2137046  50.42  0.001697747    2.495    0.599
        51 -11.2074     19.1392    125.1399   1.3803195004e+02   4.7499585402e+01    0.2954339    0.2044091  75.63  0.001132653    1.615    0.381
        52  -8.9120    106.2154    124.0689   1.1423387304e+02   3.6445333657e+01    0.1945259    0.1797384 -67.77 0.0002653599    1.050    0.048
        53  -8.7129    168.0156    113.0886   9.6142194713e+01   2.5713485288e+01    0.2456897    0.1903181 -81.89 0.0006756301    1.629    0.386
        54  -9.2097     40.4436     95.8559   1.2675271042e+02   5.2174453265e+01    0.2344627    0.1539433  52.24  0.001245219    2.021    0.505
        55  -8.5756     64.8751     81.6001   1.1550478797e+02   5.2358051721e+01    0.1712694    0.1229496  46.68 0.0008467993    1.698    0.411
        56 -10.2098    158.5227     77.1408   8.8447555146e+01   3.4934684246e+01    0.2835918    0.2153095  54.62 0.0007404509    1.296    0.228
        57 -13.0399     62.0997    175.9463   1.3471295666e+02   3.1139844406e+01    0.5134175    0.2697117 -47.50  0.001769955    2.302    0.566
        58 -10.7351     75.6702    177.7993   1.3192252479e+02   2.8815599375e+01    0.2493628    0.2100932 -74.66 0.0003871417    1.105    0.095
        59 -11.6012      3.6804     50.7063   1.2858768273e+02   6.4110366282e+01    0.3091532    0.2407078  55.36  0.001885227    2.024    0.506
        60 -10.9376    161.4667    249.0607   1.2437655572e+02   1.4359022124e-01    0.2722896     0.168366  42.25  0.001064834    1.341    0.254
        61 -11.2869    150.7653    249.1219   1.2639046432e+02   1.9555239153e+00     0.417802    0.1645053  36.61  0.001775159    2.542    0.607
