#   1 NUMBER                 Running object number                                     
#   2 MAG_AUTO               Kron-like elliptical aperture magnitude                    [mag]
#   3 X_IMAGE                Object position along x                                    [pixel]
#   4 Y_IMAGE                Object position along y                                    [pixel]
#   5 X_WORLD                Barycenter position along world x axis                     [deg]
#   6 Y_WORLD                Barycenter position along world y axis                     [deg]
#   7 A_WORLD                Profile RMS along major axis (world units)                 [deg]
#   8 B_WORLD                Profile RMS along minor axis (world units)                 [deg]
#   9 THETA_WORLD            Position angle (CCW/world-x)                               [deg]
#  10 FWHM_WORLD             FWHM assuming a gaussian core                              [deg]
#  11 ELONGATION             A_IMAGE/B_IMAGE                                           
#  12 ELLIPTICITY            1 - B_IMAGE/A_IMAGE                                       
         1 -12.9673    177.3124     35.7382   7.4215717179e+01   3.6384342935e+01     1.243261    0.8616924   9.00  0.001142832    1.611    0.379
         2 -13.6022    186.3576     27.9196   7.0053200765e+01   3.4929947988e+01     2.387322     1.464946  -0.48  0.008171313    1.881    0.468
         3 -13.7493    195.2016     14.6793   6.4407780981e+01   3.3975093171e+01     2.062309     1.243385  35.59  0.003393368    1.756    0.430
         4 -10.5322    165.4610     12.9534   6.8204408635e+01   4.2113219544e+01    0.4674402    0.2571545 -45.93  0.001337411    2.154    0.536
         5 -11.6661     12.1814      4.4035   1.1790140897e+02   7.2621007107e+01    0.7563249    0.1524129 -44.69  0.003020813    3.137    0.681
         6 -10.5295      2.9812      3.7194   1.2305131598e+02   7.3273542891e+01    0.2463587    0.1924366 -60.49  0.001780958    1.279    0.218
         7  -9.4027    234.8976      5.2249   5.7295846537e+01   2.4696672165e+01    0.3314159    0.1846569 -23.83  0.001188762    1.675    0.403
         8 -13.7185     68.0979    203.8271   1.3487959291e+02   2.6317185381e+01     1.226696    0.8301764  77.28  0.009035916    1.396    0.284
         9 -12.1498    190.9256    244.2415   1.1779484270e+02   4.1720183972e+00     1.097148    0.2227429  35.08  0.003525758    6.054    0.835
        10 -10.4243    134.9822    249.9438   1.2741154097e+02   1.1324005848e+01    0.3599231    0.1360144  43.85  0.001642694    1.868    0.465
        11 -12.4119    169.4684    249.2918   1.2181630003e+02   6.6835562184e+00     1.495435    0.2492593  37.65  0.004896193    5.896    0.830
        12 -12.6282    150.6140    247.6833   1.2468393268e+02   9.4687231344e+00     1.277603    0.3723173  36.38  0.006012295    2.966    0.663
        13 -11.2066     91.2091    246.5216   1.3410257264e+02   1.7309783809e+01    0.5178851    0.1910696  49.89  0.003159486    2.027    0.507
        14 -10.6416     94.2795    240.6693   1.3319447950e+02   1.7712270756e+01    0.4880843    0.2108849  68.72  0.002364441    4.175    0.760
        15 -14.8568     10.4160    207.8192   1.4496852844e+02   3.1366738607e+01     4.300197     2.092704 -73.33   0.01438557    2.050    0.512
        16 -11.0967     83.5006    180.2444   1.2983401303e+02   2.8466514005e+01    0.2552963    0.2108975 -50.79 0.0006067209    1.504    0.335
        17  -8.4851    203.3546    185.6999   1.0721725088e+02   8.7345766586e+00    0.1145526   0.09462071  58.96 0.0007037253    1.702    0.413
        18  -8.4373     89.9668    184.4738   1.2899143860e+02   2.6881302027e+01    0.2029672    0.1189634  61.90 0.0008695999    1.731    0.422
        19 -13.2265      3.4382    249.5014   1.4723561923e+02   2.5797849464e+01    0.4641891    0.3210582  77.44  0.001800173    1.259    0.205
        20  -9.2771     94.5411    180.1366   1.2760155466e+02   2.7027005562e+01    0.2269946    0.1446407  59.81 0.0009572454    1.513    0.339
        21  -9.1359     52.4987    175.9998   1.3562510839e+02   3.2882996476e+01    0.1528802    0.1445734  75.82 0.0006069386    1.276    0.217
        22  -8.0020     53.2877    172.7111   1.3519529689e+02   3.3405374352e+01     0.137765    0.1217557 -88.08  0.000371727    1.194    0.163
        23 -13.5222     81.1628    165.9839   1.2875458291e+02   3.1378771187e+01      3.07263     0.556779  40.65  0.004473337    4.157    0.759
        24 -10.6815    125.8679    174.1935   1.2043994552e+02   2.3460868406e+01    0.7072061    0.1765319  41.48  0.002591699    3.392    0.705
        25 -10.0400    137.0190    171.7597   1.1778314961e+02   2.2078025905e+01    0.3520695    0.2791658  78.38  0.002141342    1.585    0.369
        26 -13.7998     68.3316    145.2158   1.2912431851e+02   3.7051424387e+01     4.358783     2.080234  54.05   0.00737439    2.195    0.544
        27 -10.7791    229.3477    169.3213   9.9616810846e+01   6.2182037470e+00    0.3503562    0.2155027  -1.98   0.00190171    1.713    0.416
        28 -14.4418     52.7674    234.8331   1.3943859244e+02   2.3249221765e+01     1.610441     1.283261  70.07   0.01485367    1.183    0.155
        29  -9.9031     37.6951    162.1842   1.3751760416e+02   3.6974780154e+01    0.1803525    0.1305557  22.00  0.001252298    1.826    0.452
        30  -9.7397      7.3596    161.7890   1.4357120623e+02   3.9605810055e+01    0.1838435    0.1566774  75.33 0.0005840472    1.193    0.161
        31 -14.9997     61.6155    214.7883   1.3679902062e+02   2.5300141755e+01      7.02374    0.7351698  42.64  0.008943579    4.283    0.767
        32 -10.5187     22.5986    156.5714   1.4022401166e+02   3.9404133312e+01    0.2130251    0.1796092  28.71  0.001138243    1.517    0.341
        33  -9.6903    133.3813    144.4652   1.1397798770e+02   2.7503123606e+01    0.8727021     0.231737 -56.12  0.001970224    9.358    0.893
        34  -9.9553    107.4949    144.6550   1.1993939786e+02   3.1755325791e+01    0.4868535    0.2764887 -34.56  0.002233476    2.602    0.616
        35 -11.5343     95.7901    145.5434   1.2279487425e+02   3.3339156318e+01     0.232768     0.221269  26.66 0.0005238379    1.187    0.158
        36  -8.8781    123.8211    145.8705   1.1639592806e+02   2.8880649508e+01    0.1773598    0.1652353  29.08  0.000274434    1.092    0.084
        37  -9.2310    111.1908    209.0209   1.2752731366e+02   2.0022665532e+01    0.1921977    0.1322262  43.48 0.0004912671    1.174    0.148
        38 -10.2985    192.5295    194.8461   1.1068496542e+02   9.4191886689e+00    0.7351397    0.4148092 -61.18  0.002657666    6.556    0.847
        39  -9.9730    177.9989    200.1467   1.1413552135e+02   1.1130740430e+01    0.1737694    0.1476211  25.68 0.0002882509    1.098    0.089
        40  -8.6478     92.8575    199.0101   1.2991182411e+02   2.4056979203e+01    0.1618856     0.115646  61.73  0.001129906    1.245    0.197
        41  -8.6277    188.9368    136.9854   1.0050509074e+02   1.8187124386e+01    0.2105155    0.1834773  17.74 0.0002911879    1.007    0.007
        42  -9.6966    114.7482    133.6475   1.1631216059e+02   3.2761671931e+01    0.2926714    0.2504822  -6.92 0.0008505554    1.429    0.300
        43  -9.4180    121.0671    130.8037   1.1425500298e+02   3.2255883360e+01    0.2339358    0.1940182 -41.49 0.0003156244    1.275    0.216
        44  -9.4998    120.1612    125.8436   1.1349043214e+02   3.3395753632e+01    0.4506505    0.2658808 -25.66  0.001874021    2.735    0.634
        45  -9.9741    102.5479    130.3835   1.1868104929e+02   3.5381886515e+01    0.2504103    0.2095375 -30.76 0.0008251277    1.399    0.285
        46 -10.4168    234.8568    129.3217   9.0229424677e+01   1.0091961446e+01    0.2532904    0.2129073  25.32 0.0004213133    1.151    0.131
        47  -9.8560     33.8039    129.0448   1.3547678125e+02   4.4016440332e+01    0.2618803    0.1461444  38.95  0.001548424    1.834    0.455
        48  -9.9592     26.9940    127.4948   1.3696731015e+02   4.4919578438e+01    0.2791803    0.1667637  45.73  0.001038961    1.670    0.401
        49 -11.0693     11.8182    194.9592   1.4424386840e+02   3.3359877800e+01    0.3288186    0.1603692  59.24   0.00138081    1.558    0.358
        50  -8.8233    135.1735    123.2080   1.0930394589e+02   3.1196994166e+01    0.3574144    0.1056265 -48.49  0.001149241    3.701    0.730
        51  -9.1048    110.3077    121.8699   1.1513601494e+02   3.5876719627e+01    0.2102282    0.1746398  52.70 0.0002689852    1.211    0.174
        52 -10.8815     13.9977    187.6778   1.4355683480e+02   3.4421183534e+01    0.6465161    0.1970761  44.76  0.003837708    2.388    0.581
        53 -10.1413     44.3336    115.5948   1.3128511434e+02   4.5934470269e+01    0.2607093    0.1343883  38.62  0.001421897    2.014    0.504
        54  -9.2392    168.3989    113.7363   9.9424806592e+01   2.6252815407e+01    0.2865065    0.2408402 -87.83  0.001020117    1.706    0.414
        55  -8.9047     18.7629    111.9875   1.3755037334e+02   4.8852610303e+01    0.1683153    0.1493969  71.18 0.0003026146    1.184    0.156
        56  -8.8906     23.1720    110.2034   1.3622258039e+02   4.8918536503e+01    0.1645314    0.1141608  72.74  0.001026934    1.382    0.276
        57 -10.4485     63.2144    106.4368   1.2477859627e+02   4.5933971679e+01    0.5150374     0.252131 -46.55  0.001980025    2.149    0.535
        58 -10.1392      6.4734    108.8696   1.4042857518e+02   5.0318759606e+01    0.1825943    0.1144311 -32.36  0.001151168    2.252    0.556
        59  -9.1233     11.0269    104.7651   1.3889026939e+02   5.0925976135e+01    0.1560172    0.1244524 -86.25 0.0007844692    1.027    0.026
        60  -9.9305      3.2666    104.2039   1.4087925609e+02   5.1499375864e+01    0.2294934    0.1287331  37.20  0.001490164    1.972    0.493
        61  -9.4771      9.0616    183.5321   1.4424783765e+02   3.5539911665e+01    0.2451254     0.127424  32.83  0.001104417    2.031    0.508
        62  -7.7780    184.3152     77.3289   8.6122913467e+01   2.8681191051e+01    0.1650849    0.1132635  16.36 0.0007045001    1.676    0.403
        63  -7.7934    152.6795     77.6986   9.3197437120e+01   3.6104642179e+01    0.1604733    0.1163154  12.99 0.0004533321    1.626    0.385
        64  -8.3161    189.8165     66.8350   8.1906746956e+01   2.8922535759e+01    0.1882376    0.1774963 -50.06 0.0002770113    1.224    0.183
        65 -11.2738     79.8866    186.0403   1.3113253289e+02   2.7903418477e+01    0.2864392    0.2399062 -49.95  0.001160506    1.536    0.349
        66  -8.1260    130.5613     55.0132   9.1405994379e+01   4.5142358385e+01    0.2158013     0.144922 -32.03 0.0001472686    1.442    0.306
        67  -9.6628    245.0940     54.0465   6.9583626128e+01   1.7289756812e+01    0.2141696     0.195328  28.82 0.0003462063    1.130    0.115
        68 -10.2456    121.3506    248.5235   1.2946760572e+02   1.3286658947e+01    0.1917854     0.161792  67.97  0.001008741    1.311    0.237
        69  -9.3488    100.3781    246.5085   1.3265106872e+02   1.6196626907e+01    0.1946121    0.1424161 -61.65  0.001416883    1.822    0.451
        70 -10.0086    105.1625    240.7100   1.3143587187e+02   1.6352733561e+01    0.1849005    0.1406697  73.94 0.0005110751    1.393    0.282
        71  -8.6256     77.9470     51.8615   1.0660410881e+02   5.5887690193e+01     0.309619    0.1754967  58.59  0.001222613    3.214    0.689
        72  -9.1370    211.7952     37.5767   6.9323283767e+01   2.7210685204e+01     0.193257    0.1463046  82.64 0.0001860767    1.590    0.371
        73 -10.2522    140.7419     31.4471   8.0130570690e+01   4.6382880359e+01    0.2681868    0.2381634   6.96 0.0003184809    1.049    0.047
        74 -13.4286     19.1189    227.8899   1.4433185463e+02   2.7522257269e+01    0.9688917    0.5859941 -45.49  0.006181517    3.574    0.720
        75 -10.0699    213.8907    238.8824   1.1343693266e+02   1.4015112815e+00    0.1747303    0.1105783  23.51  0.001245849    1.242    0.195
        76 -15.5462     22.8629    244.3321   1.4435494482e+02   2.4824075867e+01     2.265014     1.174545 -64.88   0.01578853    2.503    0.600
