#   1 NUMBER                 Running object number                                     
#   2 MAG_AUTO               Kron-like elliptical aperture magnitude                    [mag]
#   3 X_IMAGE                Object position along x                                    [pixel]
#   4 Y_IMAGE                Object position along y                                    [pixel]
#   5 X_WORLD                Barycenter position along world x axis                     [deg]
#   6 Y_WORLD                Barycenter position along world y axis                     [deg]
#   7 A_WORLD                Profile RMS along major axis (world units)                 [deg]
#   8 B_WORLD                Profile RMS along minor axis (world units)                 [deg]
#   9 THETA_WORLD            Position angle (CCW/world-x)                               [deg]
#  10 FWHM_WORLD             FWHM assuming a gaussian core                              [deg]
#  11 ELONGATION             A_IMAGE/B_IMAGE                                           
#  12 ELLIPTICITY            1 - B_IMAGE/A_IMAGE                                       
         1  -7.6368     83.4949     10.9826   4.1957865597e+01   6.3492202590e+01    0.1986846     0.112787 -51.85  0.000631595    2.343    0.573
         2  -8.4305     55.9250      9.9365   5.2897400458e+01   7.0040802066e+01    0.2040981    0.1746835 -79.88 0.0005649663    1.638    0.390
         3  -7.7841     47.6085      9.8286   5.7523343392e+01   7.1720645886e+01    0.1875879    0.1272776 -46.13 0.0008579975    1.701    0.412
         4  -8.7396     90.8941      8.6376   3.8434162295e+01   6.1871932956e+01    0.2866301    0.1771028 -46.12 0.0008882687    1.871    0.465
         5  -7.7462     28.3046      9.6684   7.1169250606e+01   7.4903532058e+01    0.1233347    0.1073573  71.80 0.0003797015    1.658    0.397
         6  -7.6603    101.3312      7.7263   3.5239829075e+01   5.9211496321e+01     0.146816    0.1090603 -72.25 0.0004197923    1.593    0.372
         7  -8.4917     33.1769      4.3404   6.3666857691e+01   7.5160626600e+01    0.2406784    0.1787332 -67.79  0.001137551    2.243    0.554
         8  -8.5250     79.0798      3.5863   3.9273270651e+01   6.5452031292e+01    0.2724641    0.1845222 -42.46  0.001064046    1.680    0.405
         9  -8.0906     62.6989      1.5004   4.4145458227e+01   6.9662759865e+01    0.1803128    0.1326974  68.39 0.0009206094    1.534    0.348
        10  -8.9935    132.2365    247.3735   8.5470550868e+01   1.0271762151e+01    0.2357748    0.1674964  48.46 0.0009782243    1.645    0.392
        11 -10.2215    248.7323    242.0512   6.4276440235e+01  -2.2835939896e+00     0.627686    0.1647773 -31.25  0.003302653    3.842    0.740
        12  -8.8727    247.6763    234.4657   6.3386237940e+01  -1.5096440935e+00    0.1846774    0.1211742  -4.19 0.0009402851    1.173    0.147
        13  -9.5842    246.7495    229.2103   6.2781864844e+01  -9.3781110648e-01    0.3562609    0.1569834 -27.86  0.001964201    2.194    0.544
        14  -7.8496     25.6663    250.3214   1.0720936180e+02   2.1240751528e+01    0.1152354   0.04739466  48.41 0.0005180062    1.703    0.413
        15  -8.0860     64.3353    248.3002   9.9345158189e+01   1.7842399586e+01    0.1006754    0.0749907   5.09  0.000703444    1.657    0.396
        16  -9.2390    243.2181    245.8061   6.5616566650e+01  -2.0672389452e+00    0.2923715    0.1302427 -14.95  0.001886973    2.205    0.547
        17  -9.9631    223.8898    243.9189   6.8399389027e+01   8.1253720906e-02    0.3380536     0.183439 -38.03  0.002263303    2.681    0.627
        18  -9.1511    210.4898    246.1047   7.0895344130e+01   1.3096571814e+00    0.2450232    0.1633167  37.23  0.001112485    1.936    0.484
        19  -9.1679    146.9191    245.5411   8.2395617304e+01   8.7469007088e+00    0.2217302    0.1488152  46.49  0.001117248    1.785    0.440
        20  -9.2359    120.0028    244.9286   8.7683318815e+01   1.2059880874e+01     0.307475    0.1873301  57.71  0.001569534    2.353    0.575
        21  -8.5056     67.5201    244.9912   9.8497253662e+01   1.8014725276e+01    0.1294939    0.1079665 -88.76 0.0005858322    1.545    0.353
        22  -8.8694    139.5035    244.0184   8.3687408014e+01   9.8360527982e+00    0.1280232   0.09411714  69.39 0.0008101244    2.523    0.604
        23  -9.1503     78.3213    243.4002   9.6150893743e+01   1.7092726930e+01      0.31654    0.1244072  49.52  0.001644373    2.402    0.584
        24  -8.2833     49.8586    243.4213   1.0206648969e+02   2.0069415985e+01    0.2170504   0.09908716  72.82  0.001201964    2.828    0.646
        25  -8.7699      9.6331    243.4466   1.1020104091e+02   2.3673813414e+01    0.1895057   0.05582172  70.52 0.0009452787    3.453    0.710
        26  -8.5003    201.8842    242.6960   7.1920298829e+01   2.6090448007e+00     0.155542    0.1346695 -31.66 0.0007227983    1.904    0.475
        27  -8.7172    169.1665    243.0972   7.7865428431e+01   6.3739976070e+00     0.194265    0.1236612  32.31 0.0006739497    1.335    0.251
        28  -7.6902     34.5019    243.5151   1.0522014619e+02   2.1520968360e+01    0.1090019   0.07650983  41.18  0.000135098    1.005    0.005
        29  -9.1058    194.2465    239.9668   7.2903112189e+01   3.7713736400e+00    0.2077709    0.1482596 -40.85  0.001487755    2.130    0.530
        30  -9.2188    182.9785    239.9010   7.4919626164e+01   5.0991304940e+00    0.3112972    0.1938303  46.70   0.00158743    2.477    0.596
        31  -9.7879    160.1383    240.2837   7.9244749502e+01   7.8012268307e+00    0.2879755    0.2152186 -57.34  0.001479239    2.296    0.564
        32  -7.7249    153.3156    241.6649   8.0721993379e+01   8.4600067614e+00    0.1067268   0.07328397  44.11 0.0007047313    1.692    0.409
        33  -8.4343    240.4758    239.9940   6.5249678098e+01  -1.2772969598e+00    0.1730737   0.07942072 -21.98  0.001020313    2.059    0.514
        34  -8.5579    242.7328    235.9995   6.4351739509e+01  -1.1457743386e+00    0.2065056   0.09342977  11.02  0.001247131    2.096    0.523
        35  -7.8957    146.2063    239.2496   8.1842598865e+01   9.6382037299e+00    0.1498814    0.1070019  38.48 0.0006142456    1.385    0.278
        36  -8.8126    136.0208    238.9628   8.3844721611e+01   1.0929757449e+01    0.2177439    0.1089034  44.43   0.00121482    2.055    0.513
        37  -7.7862      1.6729    239.3086   1.1170094805e+02   2.4965703064e+01    0.1138827   0.04530397  48.56 0.0007038733    1.657    0.396
        38  -9.2067    230.9100    236.7999   6.6309389318e+01   1.1835729678e-02    0.1952337    0.1883319  40.55  0.001321353    2.567    0.610
        39  -8.2885    209.1634    238.1912   7.0079939715e+01   2.2540824042e+00     0.132259    0.1051151  16.10 0.0006035045    1.376    0.273
        40  -7.8411    128.7043    238.3321   8.5261444921e+01   1.1915638653e+01    0.1109254   0.07275529  46.89 0.0003367789    1.640    0.390
        41  -8.6372     25.6817    236.6813   1.0679597150e+02   2.3428104427e+01    0.2246947   0.08042768  62.57   0.00118448    2.681    0.627
        42  -9.1246    217.3071    235.6697   6.8368881523e+01   1.5997660251e+00    0.1979686    0.1274562  24.64 0.0007502097    1.307    0.235
        43  -9.4533    213.6564    231.6355   6.8426176663e+01   2.4226481756e+00    0.2464112    0.2068446  42.76  0.001217738    2.176    0.540
        44  -8.8050    203.1785    234.7083   7.0642049055e+01   3.3023575650e+00    0.1851204    0.1672672 -37.38  0.001079437    2.009    0.502
        45  -9.6966    175.7781    233.3400   7.5418713841e+01   6.7316760154e+00      0.33528    0.2059678 -50.98  0.002067974    2.761    0.638
        46  -7.9900     57.7841    236.6300   1.0005371033e+02   2.0356438984e+01    0.1755821   0.06829809  36.64 0.0009548092    1.731    0.422
        47  -7.9117    170.0389    235.4982   7.6774787732e+01   7.1758780610e+00    0.1687247   0.08360973  29.78 0.0003772622    1.498    0.332
        48  -9.1311    108.6695    234.0906   8.9006117916e+01   1.4979876129e+01    0.3001814    0.1619207  51.93  0.001075077    2.130    0.530
        49  -9.1194     78.6382    234.2108   9.5434717270e+01   1.8490670757e+01    0.2429901    0.1427733  58.39   0.00110227    1.845    0.458
        50  -8.4764    122.9634    233.9853   8.5995320193e+01   1.3237546606e+01    0.1786104    0.1154863  49.60 0.0008325967    1.725    0.420
        51  -8.4025     99.6423    233.9260   9.0908858680e+01   1.6093509127e+01    0.1909594    0.1359825  70.73  0.001252695    1.915    0.478
        52  -7.7394     70.6772    234.2948   9.7152742590e+01   1.9361446160e+01    0.1684156    0.1066594  37.12 0.0009987529    1.145    0.127
        53  -8.5655     67.4846    231.4678   9.7654733543e+01   2.0170610690e+01    0.2500351    0.1340044  61.73  0.001410232    2.091    0.522
        54  -8.2702    144.4036    232.6077   8.1447068094e+01   1.0742757335e+01    0.2390541    0.1163046  45.38 0.0009936212    2.327    0.570
        55  -8.3901    140.0936    229.8290   8.2002123843e+01   1.1669307743e+01     0.277298    0.1233102  41.63  0.001086344    2.085    0.520
        56  -8.8086    132.8748    232.7318   8.3810500527e+01   1.2177362030e+01    0.1919674    0.1366435  59.87 0.0009617757    2.076    0.518
        57  -8.2463    194.3991    232.2923   7.1865704738e+01   4.5979840658e+00     0.121232   0.09934406 -22.30 0.0005407648    1.557    0.358
        58  -9.5475    186.4053    230.3488   7.3054162917e+01   5.7840369765e+00    0.2436827    0.2201017 -82.63  0.001304448    2.432    0.589
        59  -8.1995     88.1444    241.9556   9.3995979419e+01   1.6213372176e+01    0.1691885    0.1146433  45.79 0.0006416875    1.293    0.227
        60  -8.3697     92.3859    231.5203   9.2258552414e+01   1.7329619691e+01     0.278566    0.1224171  52.76 0.0009260927    2.668    0.625
        61  -9.1642    236.0970    230.2252   6.4569678980e+01   8.5372334403e-02    0.2267578    0.1350416 -24.16  0.001076008    1.684    0.406
        62  -8.8866      1.6026    230.6770   1.1159461807e+02   2.6405439784e+01    0.1783727   0.09898831  63.91   0.00124531    1.513    0.339
        63  -8.8100    151.4797    228.9611   7.9591243121e+01   1.0335615736e+01    0.2387491    0.1739704  56.27  0.001278419    2.116    0.527
        64  -9.4167    148.8039    224.4694   7.9582098530e+01   1.1291193949e+01     0.320841    0.2042668  54.38  0.001807389    2.434    0.589
        65  -9.7955    128.2807    228.7013   8.4322729603e+01   1.3332780946e+01    0.2833765    0.2405402 -88.30  0.002015508    1.828    0.453
        66  -9.0436      9.3451    229.6811   1.0999079594e+02   2.5975501480e+01    0.3097883          nan  51.16  0.001171009    4.555    0.780
        67  -7.6707     81.3322    229.3118   9.4481721713e+01   1.8972967568e+01    0.1104282    0.0815521   1.44 0.0007043876    1.676    0.403
        68  -8.0853    229.6944    228.2213   6.5301929964e+01   9.7323929837e-01    0.1424619    0.1119394  -7.43  0.000499395    1.404    0.288
        69  -8.6539    162.1545    227.6057   7.7303695568e+01   9.1521740419e+00     0.204141    0.1624093  49.18  0.001410959    1.765    0.433
        70  -8.0784    223.4386    226.8467   6.6122352301e+01   1.8068420755e+00    0.1810993   0.08875547 -25.92 0.0006788973    2.028    0.507
        71  -7.9788    119.8486    227.0690   8.5929316398e+01   1.4643657650e+01    0.1714237    0.1184914  59.67 0.0006770334    1.952    0.488
        72  -8.6923    205.9542    225.6620   6.8912647229e+01   3.9570065863e+00    0.1731244    0.1438939 -37.52 0.0008658514    1.948    0.487
        73  -7.9544    200.1626    226.1221   6.9994752846e+01   4.5989689588e+00    0.1357553    0.1133098  13.39 0.0004825922    1.363    0.266
        74  -8.0464     49.1692    226.2076   1.0134378248e+02   2.2980372922e+01    0.1651174   0.09853402  52.25 0.0007615577    1.414    0.293
        75  -9.0129    104.6959    223.4936   8.8843471479e+01   1.7103895859e+01    0.3031465    0.1881707  64.05  0.001709733    2.298    0.565
        76  -8.8834     93.8390    223.8543   9.1271384987e+01   1.8382897304e+01    0.3509439    0.1582655  49.64  0.001719498    2.280    0.561
        77  -8.1932     38.3714    224.5737   1.0363385151e+02   2.4323864840e+01    0.1960489   0.07854851  75.40 0.0008960275    3.204    0.688
        78  -8.8839    216.4846    223.3232   6.6774318037e+01   2.9698201744e+00    0.1934808    0.1659234 -26.78  0.000941513    1.796    0.443
        79  -8.7487    180.5805    223.8519   7.3261790513e+01   7.2842395487e+00    0.2196817     0.163664  35.02 0.0009526589    1.469    0.319
        80  -7.9587    113.6349    223.7660   8.6919351734e+01   1.5935489593e+01    0.1302786    0.1140195  83.53 0.0003877799    1.575    0.365
        81  -8.6682    173.0123    222.6192   7.4537461849e+01   8.4025901117e+00    0.1709528    0.1639987 -39.30 0.0007680807    1.666    0.400
        82  -8.2600    162.9806    222.4735   7.6478525134e+01   9.7178109991e+00    0.3108031    0.1436204  48.66  0.001336625    3.760    0.734
        83  -8.5049    158.9863    220.3632   7.6998467372e+01   1.0522273484e+01    0.1824884    0.1484786  45.54 0.0005934609    1.582    0.368
        84  -8.3295    140.5688    222.7311   8.1066478203e+01   1.2609308984e+01    0.1271039    0.1190292 -86.30 0.0009332178    1.613    0.380
        85  -9.1268    238.9896    221.2535   6.2819832265e+01   6.3987004170e-01    0.2157784    0.1462518 -23.47  0.001082226    1.586    0.369
        86  -9.4248    225.6190    221.2885   6.4961388858e+01   2.1291791125e+00    0.2353243    0.1888451  20.89  0.001854992    1.500    0.333
        87  -9.1826    192.4225    221.1779   7.0693243591e+01   6.1179786712e+00    0.2231844    0.2008759  37.33  0.001233188    1.736    0.424
        88  -8.9122     81.9405    220.9362   9.3675057046e+01   2.0291178627e+01    0.3067783    0.1963347  23.05  0.001882068    1.391    0.281
        89  -9.3064      7.5326    221.6803   1.1020857576e+02   2.7506440778e+01    0.3192659          nan  43.63  0.001312772    3.519    0.716
        90  -9.0611    120.5315    219.0383   8.4908133112e+01   1.5782474609e+01    0.4257205    0.2020013  52.80   0.00192197    3.087    0.676
        91  -8.0550     73.7049    221.0912   9.5542623051e+01   2.1219932919e+01     0.211249   0.08464537  54.81 0.0009531159    2.892    0.654
        92  -8.0425     27.5813    221.1918   1.0586227781e+02   2.5916724704e+01    0.1310985   0.09883999 -67.47 0.0009395051    1.691    0.409
        93  -8.2184    202.8309    220.0693   6.8663664653e+01   4.9592233191e+00    0.1579447    0.1263514  17.50 0.0005451484    1.290    0.225
        94  -8.4392    210.0376    218.8610   6.7227616431e+01   4.2189719820e+00    0.1585651    0.1336985 -21.91 0.0006198137    1.602    0.376
        95  -8.8425    249.3581    218.1051   6.0766026399e+01  -1.7340615389e-01    0.2063224    0.1253065  39.90  0.001375137    2.450    0.592
        96  -8.2131    151.4521    217.7950   7.8194934325e+01   1.1874361395e+01    0.1513588    0.1033026 -20.05 0.0009407368    1.698    0.411
        97  -9.1991    133.0262    215.8831   8.1832281856e+01   1.4616669839e+01    0.4036597    0.2466067  62.99  0.001962826    3.192    0.687
        98  -8.5972     62.3046    217.2484   9.7852666186e+01   2.3164570423e+01    0.2974441    0.1236754  56.14 0.0009278724    2.582    0.613
        99  -8.9975     51.7099    217.2706   1.0027184933e+02   2.4288923615e+01    0.2435617      0.14216  61.85  0.001059648    1.699    0.411
       100  -8.7168    169.5528    216.1248   7.4325398151e+01   9.6965971485e+00    0.2174557    0.1892248  56.28   0.00111734    1.826    0.452
       101  -8.5966    142.9707    216.3865   7.9778854527e+01   1.3210179281e+01    0.2364543    0.1640266  58.78   0.00136399    2.238    0.553
       102  -7.5659     18.3216    216.3327   1.0773747145e+02   2.7591533249e+01   0.09763507   0.08205758 -23.60 0.0007049741    1.701    0.412
       103  -8.7693    232.3823    214.5348   6.2862462434e+01   2.0522766856e+00    0.1851975    0.1537196  -3.38 0.0008112378    1.450    0.310
       104  -8.0587    154.5469    214.8156   7.7166689992e+01   1.1880415286e+01    0.1294614    0.1208584 -63.57 0.0004898863    1.642    0.391
       105  -7.6815     41.6471    215.3186   1.0245665707e+02   2.5655428140e+01    0.1295247   0.06008767  50.04  0.000704699    1.745    0.427
       106  -8.3348    185.6974    214.1758   7.0939528400e+01   7.8274475268e+00    0.1526605    0.1405437  14.62 0.0009757137    1.485    0.326
       107  -9.1349     92.9103    213.6912   9.0533836104e+01   2.0194744869e+01    0.3400901    0.1574025  48.40  0.001693235    2.113    0.527
       108  -9.4788     73.5381    211.8988   9.4857380989e+01   2.2849151118e+01     0.636987    0.1850727  50.36  0.002337948    3.986    0.749
       109  -9.4112    214.0029    211.9371   6.5515279395e+01   4.5097844482e+00     0.296098    0.2089252  38.67  0.001464527    1.827    0.453
       110  -8.6758    161.6745    212.2788   7.5367198012e+01   1.1273398446e+01    0.2166438    0.1679178  46.95 0.0008648391    1.655    0.396
       111  -9.0789    204.3333    210.6850   6.7013314075e+01   5.8576039944e+00    0.1992112    0.1788211 -16.66 0.0007732183    1.577    0.366
       112  -7.8556    106.4947    212.5533   8.7318690740e+01   1.8656400560e+01    0.1260938   0.09605809  34.19  0.000226714    1.052    0.049
       113  -9.3931    175.4972    209.7130   7.2249878421e+01   9.7541340185e+00     0.318295    0.2434193  57.07  0.001470444    2.270    0.560
       114  -8.5784    147.9043    210.3820   7.7956748987e+01   1.3423673049e+01    0.1927193    0.1736727  75.08  0.000896685    1.701    0.412
       115  -9.0516    116.4132    210.2186   8.4815673679e+01   1.7734823460e+01     0.295072    0.1944133  50.59  0.001057107    1.643    0.391
       116  -8.9840      7.1344    209.9108   1.1004937048e+02   2.9666351595e+01     0.391296   0.07657303  63.86  0.001456481    4.772    0.790
       117  -8.2359    192.3825    210.2064   6.9108531106e+01   7.4506959728e+00    0.1370865    0.1065009 -36.33 0.0005700465    1.715    0.417
       118  -8.5053     85.4342    209.1286   9.1833986400e+01   2.1917585778e+01    0.2736556    0.1506239  58.76  0.001001325    2.153    0.535
       119  -8.1406     46.7942    209.5634   1.0095259136e+02   2.6200222177e+01    0.2394118   0.09965763  54.81  0.001190633    2.238    0.553
       120  -7.8797     32.4839    210.0362   1.0430395028e+02   2.7501912250e+01    0.1654211   0.06632656  62.51 0.0006795443    2.495    0.599
       121  -9.3359    236.6336    207.9374   6.1177797270e+01   2.2452238206e+00     0.273627    0.1765581 -26.19  0.001440028    1.604    0.377
       122  -9.5498    246.4101    207.0020   5.9520647599e+01   1.2294390920e+00    0.2456536    0.1506167 -23.06 0.0006837401    1.524    0.344
       123  -9.3123    250.2002    201.6376   5.8109385486e+01   1.3418303968e+00    0.3262815    0.1363067 -25.85  0.001614012    2.140    0.533
       124  -9.1287    243.1514    200.7643   5.9036996465e+01   2.2344614413e+00    0.2445232    0.1544097 -29.04 0.0009180607    1.695    0.410
       125  -9.7847    245.9141    193.5595   5.7455214538e+01   2.6622052999e+00    0.2959751    0.2322972 -46.33  0.002009978    2.568    0.611
       126  -8.2840    139.0573    207.7903   7.9504358333e+01   1.5034130684e+01    0.1812806    0.1605606  77.85 0.0008029042    1.677    0.404
       127  -8.1494    126.2170    208.1865   8.2376398447e+01   1.6738922246e+01    0.1689866    0.1266036  45.41 0.0007350635    1.371    0.271
       128  -9.2507     99.3372    205.7619   8.8239585726e+01   2.0748650586e+01    0.3277731    0.2056304  70.89  0.001120897    2.404    0.584
       129  -8.8469    183.8501    203.8934   6.9766267480e+01   9.3926461723e+00    0.2539198      0.19137  46.84  0.001262197    1.852    0.460
       130  -8.0859    109.1831    205.1323   8.5878389124e+01   1.9555437284e+01    0.1699087    0.1278082  48.74 0.0006675586    1.341    0.254
       131  -8.6549     56.5053    205.0698   9.8365783088e+01   2.6022782235e+01    0.2177947    0.1267277  70.68  0.000943166    1.948    0.487
       132  -8.1269     25.0000    205.0052   1.0582834576e+02   2.9125609125e+01    0.1603809   0.06215308 -82.16 0.0006733869    2.860    0.650
       133  -7.3699    218.3504    204.3089   6.3599772594e+01   4.8333096836e+00    0.1207729   0.06797737   6.00 9.594249e-05    1.713    0.416
       134  -9.2274    194.9189    203.4753   6.7617435103e+01   7.9558395438e+00    0.2386935     0.196337  14.89  0.001000455    1.212    0.175
       135  -9.2854    192.5989    197.3129   6.7083280017e+01   9.0568009636e+00    0.3278756    0.2914834 -83.27  0.001662079    2.350    0.575
       136  -9.6397    163.9095    202.8606   7.3568754669e+01   1.2294593303e+01    0.3955416    0.2039018  44.78  0.001168017    2.220    0.549
       137  -8.4465    131.2529    203.7937   8.0695556552e+01   1.6749472037e+01    0.2212641    0.1696398  53.48  0.000896078    1.574    0.365
       138  -8.4773    211.0437    201.9604   6.4485631133e+01   6.0292243587e+00     0.191082    0.1462152 -40.20  0.000796355    1.937    0.484
       139  -8.9364    140.3413    200.7435   7.8273176113e+01   1.5954057861e+01    0.2833183    0.2181778  75.24   0.00128343    2.235    0.553
       140  -8.5452     80.2417    201.2006   9.2325922117e+01   2.3998351456e+01    0.3152052    0.1531196  60.46  0.001418828    2.739    0.635
       141  -7.9091     73.0000    201.9768   9.4149224483e+01   2.4730101742e+01    0.1649135   0.07176489 -68.42 0.0005077531    2.811    0.644
       142  -8.0761     48.4710    201.9613   1.0009011762e+02   2.7466005807e+01    0.1706523   0.07752644  65.17 0.0008095276    2.521    0.603
       143  -8.0798    222.2232    201.2496   6.2465733969e+01   4.6970260429e+00     0.151349   0.08135808 -39.23 0.0005827197    2.410    0.585
       144  -9.4252    149.5583    198.5104   7.5950437691e+01   1.4983259696e+01    0.3302315    0.2579865  80.09  0.001351957    2.415    0.586
       145  -8.8723    124.0872    199.0764   8.1699621967e+01   1.8532534451e+01     0.275622    0.1982431  67.38  0.001130416    2.079    0.519
       146  -9.3019    112.9602    198.3277   8.4186912046e+01   2.0217316000e+01    0.3827491    0.2086718  55.98  0.001800126    2.503    0.600
       147  -9.1153    237.1406    198.3106   5.9577970133e+01   3.1995474862e+00    0.2138385    0.1315423 -27.59 0.0008329533    1.628    0.386
       148  -9.1146    176.7244    198.1988   7.0282035801e+01   1.1147870128e+01    0.2653639    0.2131926 -70.37  0.001572247    2.522    0.604
       149  -8.0524     99.7611    199.4148   8.7442880914e+01   2.1819379740e+01    0.1863503    0.1058275  21.85 0.0009515234    1.692    0.409
       150  -9.2254     88.5952    197.9197   8.9972969530e+01   2.3556027052e+01    0.3906441    0.2182395  65.75  0.001560691    2.559    0.609
       151  -8.0725    202.5281    197.7673   6.5329646836e+01   7.6533236538e+00    0.1363456    0.1075539 -33.89 0.0007334944    1.638    0.389
       152  -9.2483     61.2527    196.7291   9.6588250139e+01   2.7095902015e+01    0.4045133    0.1948128  59.45  0.001833813    2.292    0.564
       153  -8.3309     12.6427    196.8386   1.0845231807e+02   3.1733676570e+01    0.2577809   0.08036798  63.60  0.001147409    2.984    0.665
       154  -8.8032    216.0975    195.5247   6.2581156863e+01   6.1362185028e+00    0.1916482    0.1765902 -36.78   0.00103191    1.837    0.456
       155  -7.9679    133.1603    195.8959   7.9203661490e+01   1.7768124132e+01    0.1805335    0.1379331  68.37 0.0006728423    1.976    0.494
       156  -8.1057     53.6344    196.3402   9.8445911888e+01   2.8012668381e+01     0.205706    0.1100866  53.63  0.001104245    1.706    0.414
       157  -8.0235     35.8365    196.0226   1.0281776296e+02   2.9882318203e+01    0.2127689   0.09638508  58.87   0.00107725    2.081    0.519
       158  -8.7418    224.7487    193.8360   6.0849269089e+01   5.2216333063e+00     0.264318    0.1376217 -38.42  0.001455192    2.351    0.575
       159  -7.5252    209.3192    195.6367   6.3776168801e+01   7.0113579551e+00   0.09848139   0.09318096  37.59   0.00070411    1.774    0.436
       160  -8.7497    185.3602    194.6642   6.8037584953e+01   1.0414634540e+01    0.2028835    0.1834629   8.18 0.0007820937    1.324    0.244
       161  -8.9575    161.0369    194.0770   7.2846177274e+01   1.3993981724e+01    0.2700467    0.2125659  61.97  0.001023127    2.042    0.510
       162  -7.9977    230.9973    194.1998   5.9888902330e+01   4.3961069679e+00    0.1405422    0.1095103 -28.42 0.0006039974    1.616    0.381
       163  -9.0443     77.0647    193.7601   9.2394063620e+01   2.5800667566e+01    0.2512628     0.171834  51.03 0.0005787197    1.352    0.260
       164  -8.9583     43.7267    192.8309   1.0067528156e+02   2.9744350949e+01     0.366353    0.1690247  58.64  0.001821446    2.135    0.532
       165  -7.8930    156.5482    207.7570   7.5788921699e+01   1.2615906915e+01    0.1339873    0.1224605 -56.21 0.0009321099    1.621    0.383
       166  -7.7566    204.8368    191.5791   6.3909311385e+01   8.1148888404e+00    0.1500065   0.09793123  35.14 0.0004757652    1.529    0.346
       167  -7.9847    198.9928    191.3412   6.4931117850e+01   8.9481388847e+00    0.1648121    0.1266431  16.03 0.0005235213    1.081    0.075
       168  -8.0787    179.1869    191.2560   6.8697380961e+01   1.1765474534e+01    0.1516801    0.1358901  26.80  0.000561973    1.353    0.261
       169  -9.1395    139.4740    190.2915   7.6973903550e+01   1.7771449444e+01    0.3076943    0.2204822  62.45  0.001295567    2.122    0.529
       170 -10.4806     92.5521    188.7010   8.7983761027e+01   2.4774776793e+01     0.968627    0.1997444  40.91  0.003179099    3.775    0.735
       171  -8.8419    237.2052    188.2823   5.7924463593e+01   4.2818052021e+00    0.2228181    0.1224161 -26.07 0.0007126633    1.662    0.398
       172  -9.0229    216.7061    187.8023   6.1200379874e+01   6.9785539427e+00    0.2289701    0.1837559 -28.38 0.0009094704    1.525    0.344
       173  -9.3392    156.0317    187.4235   7.2877164129e+01   1.5757046778e+01    0.2724161    0.2137584 -56.46 0.0008403171    1.819    0.450
       174  -8.5970    148.6227    189.0673   7.4748863495e+01   1.6607505171e+01    0.1719416    0.1631031  80.69  0.001141014    1.495    0.331
       175  -8.9244    129.3068    188.4262   7.9035144557e+01   1.9595107995e+01    0.2554195    0.1952584  57.27 0.0008382079    1.627    0.385
       176  -9.6464    120.7485    186.1355   8.0732378391e+01   2.1263369391e+01    0.4277613    0.2761639 -79.96  0.002048497    2.818    0.645
       177  -8.7585     34.3238    188.0392   1.0275810816e+02   3.1633565503e+01     0.326778    0.1340791  61.44  0.001250154    2.478    0.597
       178  -8.6796    172.3511    191.4818   7.0104040019e+01   1.2725497234e+01    0.1737312    0.1545878 -61.24 0.0007570264    1.784    0.439
       179  -8.6088    191.5596    187.3966   6.5665259123e+01   1.0516346275e+01    0.2119756    0.1954731 -81.16     0.001182    1.998    0.499
       180  -9.0389     54.7601    186.7713   9.7439076955e+01   2.9806717683e+01    0.3809251    0.1814947  58.75  0.001701036    2.221    0.550
       181  -8.5064     15.6834    187.9564   1.0742906727e+02   3.3268839543e+01    0.1613276    0.1274796  63.51 0.0003422353    1.118    0.106
       182  -8.4130    230.3744    187.0312   5.8800276701e+01   5.2824628865e+00    0.1714021    0.1520742  23.09 0.0008948579    1.585    0.369
       183  -8.8514    165.0374    186.6971   7.0845036254e+01   1.4516133402e+01    0.2222493    0.2072969  58.05  0.001025971    1.539    0.350
       184  -9.1440    109.6180    185.9656   8.3409356678e+01   2.2915206918e+01    0.3302589    0.2251034  58.89  0.001354101    1.783    0.439
       185  -8.8600    249.5788    185.2838   5.5538777864e+01   3.0990318284e+00    0.2145313    0.1552523 -28.11 0.0009965157    1.583    0.368
       186  -9.1240    243.0055    183.3142   5.6193272499e+01   4.1096099060e+00    0.3193192    0.2396275  66.56  0.001542643    5.268    0.810
       187  -8.6507    202.9107    184.4590   6.3064654184e+01   9.2911790043e+00    0.1910712    0.1634516 -32.35 0.0007700369    1.549    0.354
       188  -8.7212    182.9936    184.8298   6.6890033981e+01   1.2116457297e+01    0.1985745    0.1645501 -16.04  0.000637027    1.248    0.199
       189  -9.1918     66.8678    184.2737   9.4084332889e+01   2.8926467655e+01    0.3867171    0.1802418  52.33  0.001181948    2.142    0.533
       190  -8.5267    224.2113    183.4314   5.9196627583e+01   6.5032253061e+00    0.1929034     0.134074 -18.04 0.0005123451    1.293    0.226
       191  -8.6995    210.0748    183.8976   6.1689152655e+01   8.3618880526e+00    0.1929097     0.146037 -14.69 0.0005324224    1.227    0.185
       192  -8.3085    197.0864    183.2556   6.3928925043e+01   1.0279217256e+01     0.191049    0.1619731 -59.23 0.0007208782    2.106    0.525
       193  -8.9074    174.3274    183.3693   6.8378970190e+01   1.3618371655e+01     0.231622    0.2126613 -51.16 0.0007526571    1.589    0.371
       194  -8.8812     44.3462    182.1327   9.9800775584e+01   3.1873021845e+01    0.3233622    0.1455193  61.57  0.000991223    2.381    0.580
       195  -8.1618      1.9353    183.5092   1.1069661338e+02   3.5193633214e+01     0.170849   0.09285107  30.05  0.001014468    1.563    0.360
       196  -9.2883    147.6415    180.5044   7.3623633760e+01   1.8157633935e+01    0.2903535      0.24224  58.05  0.001041507    1.582    0.368
       197  -8.3308    235.4019    181.2110   5.7010824829e+01   5.3015392881e+00    0.1437693   0.09348853 -31.39 0.0004754487    1.645    0.392
       198  -9.4612     25.4722    178.4497   1.0453248779e+02   3.4433776776e+01    0.6418105    0.1853473  65.98  0.002215244    4.540    0.780
       199  -8.7542    205.1586    177.9514   6.1534962709e+01   9.8197298866e+00    0.2280864    0.1767759 -23.61  0.000927441    1.335    0.251
       200  -9.3286    191.4379    178.0690   6.4097885599e+01   1.1814002711e+01    0.2521664    0.2193918  40.75 0.0006869297    1.511    0.338
       201  -8.1977    169.1750    178.2771   6.8581876468e+01   1.5171144923e+01     0.199513    0.1732692 -83.84 0.0007255868    1.992    0.498
       202  -8.7392    137.4960    178.8786   7.5687460344e+01   2.0009514167e+01    0.2479978     0.188511  52.96  0.001221969    1.564    0.361
       203  -8.9496     36.1034    176.6810   1.0161708255e+02   3.3843617212e+01    0.5338272    0.1749433  63.56  0.001906916    4.043    0.753
       204  -8.5791    250.5144    172.4954   5.3214700747e+01   4.3594805437e+00    0.1740679    0.1159197 -26.37 3.204867e-06    1.438    0.305
       205  -9.2769    248.9308    177.1116   5.4246599723e+01   4.0535666520e+00    0.2244775    0.1917785 -16.80  0.001291679    1.492    0.330
       206  -8.7741    247.4779    173.5340   5.3840720402e+01   4.6259780397e+00    0.2369105    0.1581583  12.99 0.0008140182    1.269    0.212
       207  -8.6867    129.2748    177.2021   7.7369368007e+01   2.1582232251e+01    0.2959839    0.2013824  70.67 0.0009484086    2.587    0.613
       208  -8.5571    231.0526    176.7678   5.6931221538e+01   6.3818650579e+00    0.1831266    0.1377845 -24.07 0.0007022552    1.380    0.275
       209  -8.2844    217.6627    177.0466   5.9188859232e+01   8.1666524703e+00    0.1663622    0.1355395 -28.46 0.0007833768    1.477    0.323
       210  -8.0641     97.8030    177.1521   8.5223311121e+01   2.6299575764e+01     0.183933    0.1447086  12.80 0.0006131088    1.330    0.248
       211  -9.1845     89.2137    176.5554   8.7386146398e+01   2.7622897564e+01    0.2880987    0.2046528  64.93 0.0009664307    1.631    0.387
       212  -9.9369     57.5256    173.1843   9.5541925168e+01   3.2345663639e+01    0.8057238    0.3165039  66.95     0.002654    4.687    0.787
       213  -8.9654     12.8339    176.0911   1.0773158207e+02   3.5958243097e+01    0.3229429    0.1339281  73.83  0.001440306    2.382    0.580
       214  -8.2934    211.5464    176.0299   6.0064226318e+01   9.1547774454e+00    0.1713528    0.1059414 -28.20  0.001010498    1.572    0.364
       215  -8.9756    183.1223    175.9128   6.5336456729e+01   1.3376754294e+01    0.2095323    0.1900234   4.10 0.0006670369    1.235    0.190
       216  -9.1716    158.8439    174.9604   7.0220988293e+01   1.7312427510e+01    0.3372117    0.2304735  60.11   0.00124157    2.419    0.587
       217  -9.3101    104.4251    174.5437   8.3160919846e+01   2.5854841305e+01    0.5434039    0.2357177  53.34  0.001893673    3.348    0.701
       218 -10.7309     75.8681    169.9980   9.0178963360e+01   3.0778716288e+01     1.074759    0.4549017 -82.55  0.003651462    4.636    0.784
       219  -9.7703     81.4511    155.2593   8.6725244838e+01   3.3225344928e+01    0.5042717    0.4774311 -60.90  0.002026089    1.183    0.155
       220  -8.5047    224.4759    174.0164   5.7513890132e+01   7.5980881850e+00    0.1671528    0.1008853 -27.42 0.0005332278    1.556    0.357
       221  -9.6613    175.9251    171.8957   6.6074616139e+01   1.5091952330e+01    0.3645007    0.2241652 -33.47  0.001058802    1.714    0.417
       222  -8.7169    143.0049    172.4607   7.3363214352e+01   2.0258393822e+01    0.2237144    0.1935917 -75.74 0.0007879369    1.658    0.397
       223  -8.2365    134.7026    171.5659   7.5170514416e+01   2.1745070727e+01    0.1986443    0.1690323  82.43 0.0005916947    1.676    0.404
       224  -9.0072     45.1592    170.9636   9.8750285129e+01   3.4178252054e+01    0.3623263    0.1765744  66.81  0.001394385    2.330    0.571
       225  -9.4636    121.4006    170.2184   7.8206004270e+01   2.4103760399e+01    0.3282181    0.2462793  68.57  0.001030037    1.844    0.458
       226  -9.1490    230.1654    169.0403   5.5702369305e+01   7.4188657514e+00    0.3224125    0.1414897 -38.07  0.001640716    2.502    0.600
       227  -8.2646    205.7329    170.1206   6.0035651261e+01   1.0772383304e+01    0.1725414    0.1457945 -35.39 0.0005799413    1.529    0.346
       228  -8.4918    198.7602    169.9849   6.1281569139e+01   1.1835391153e+01     0.173037     0.158773 -10.14 0.0006766031    1.333    0.250
       229  -9.1297    167.1879    168.3688   6.7266828205e+01   1.7036974375e+01    0.3177562    0.2441068  59.50  0.001189433    1.938    0.484
       230  -8.5921    150.0913    169.4624   7.1224268981e+01   1.9632603216e+01    0.2432312    0.2031554  57.05  0.001417264    1.540    0.350
       231  -8.1282    244.4766    169.0424   5.3495216886e+01   5.5102998278e+00    0.1607162   0.09241905 -25.36 0.0004663991    1.517    0.341
       232  -8.5076    237.0630    169.3238   5.4670018293e+01   6.4525703984e+00      0.15829    0.1224378   6.17 0.0004961838    1.084    0.078
       233  -8.6973     88.8777    168.7550   8.6478758153e+01   2.9273821809e+01    0.2505912    0.1611267  67.96  0.001072635    2.022    0.506
       234  -8.6203    218.8104    168.1049   5.7395438064e+01   9.1268089789e+00    0.1698315    0.1468341  -7.45 0.0004951707    1.254    0.203
       235  -8.0933    211.5612    167.8286   5.8587534032e+01   1.0214964358e+01    0.1591185    0.1077904 -37.18 0.0005652856    1.691    0.409
       236  -8.7593    111.8129    167.3120   8.0191234078e+01   2.6164327927e+01    0.3324478    0.2238141  65.81  0.001084757    2.088    0.521
       237  -9.2709    191.9845    166.6597   6.1947697618e+01   1.3344709010e+01    0.2253878    0.1984117 -33.14 0.0007180706    1.421    0.296
       238  -8.7439    185.0716    166.5703   6.3272988905e+01   1.4445259875e+01    0.1994979    0.1672047 -28.78 0.0005178697    1.330    0.248
       239  -9.1188     20.7875    166.1705   1.0518051345e+02   3.7488558769e+01    0.3990204    0.1229334  49.29  0.001398492    2.637    0.621
       240  -8.0243     13.3080    167.6404   1.0729045232e+02   3.7745186655e+01    0.1372086    0.0666318  54.59 0.0007040888    1.734    0.423
       241  -9.7354    137.2416    164.4842   7.3366740632e+01   2.2618587835e+01    0.6375061    0.2609557  49.04    0.0022466    3.237    0.691
       242  -9.9655     95.1245    162.6897   8.3940372337e+01   2.9641790298e+01    0.8055509    0.3753853  61.54  0.002558138    4.570    0.781
       243  -8.5859    233.9847    164.5386   5.4284212957e+01   7.4337900138e+00    0.2042662    0.1399115 -33.29 0.0007321226    1.588    0.370
       244  -8.6831    159.5860    164.1063   6.8143101341e+01   1.8978481878e+01    0.2593481    0.2271067  83.84 0.0009009748    1.766    0.434
       245  -9.3534     33.7276    163.2618   1.0138208643e+02   3.7012742410e+01     0.572318    0.1560616  47.09  0.002173797    3.042    0.671
       246  -7.7990    240.3620    164.1195   5.3229060092e+01   6.6169460504e+00    0.1515242    0.0910965 -33.86  0.000451782    1.719    0.418
       247  -8.6548    212.9446    163.5437   5.7557227449e+01   1.0572588061e+01     0.219496    0.1593162 -27.82 0.0006350286    1.378    0.274
       248  -8.3612     56.6362    163.7594   9.4887120499e+01   3.4511469313e+01      0.34691    0.1695611   4.06  0.001214126    4.058    0.754
       249  -9.2190    246.1724    162.7622   5.2118978153e+01   6.0006368490e+00    0.1844342    0.1260805 -25.70 0.0004658854    1.364    0.267
       250  -8.5192    204.9450    162.5065   5.8773014132e+01   1.1920576995e+01    0.2105164    0.1628901 -38.20 0.0006371627    1.567    0.362
       251  -9.2307      3.4240    162.1861   1.0979293754e+02   3.9627952225e+01     0.408373    0.1438798  47.84  0.001775571    2.187    0.543
       252  -9.1867    177.4919    160.4705   6.3657549253e+01   1.6598217144e+01    0.2373224     0.226278  43.03 0.0008311811    1.385    0.278
       253  -8.6576    151.6498    160.8232   6.9327216751e+01   2.0866180140e+01    0.2317654     0.200303  72.12 0.0007829631    1.648    0.393
       254  -8.7427    227.5670    159.0974   5.4293800285e+01   8.9995863539e+00    0.2447635    0.1565278 -43.93  0.001120536    2.145    0.534
       255  -8.5193     60.3871    159.6793   9.3384216115e+01   3.4984214504e+01     0.300096    0.1682219  67.35  0.001380399    2.132    0.531
       256  -9.3002    233.5506    147.4873   5.1150800165e+01   9.5707692950e+00    0.2512785     0.157625 -24.69 0.0008556058    1.392    0.281
       257 -10.2073    238.6776    151.7607   5.1193354807e+01   8.3104769454e+00    0.3579642    0.2742327 -45.28  0.002321842    1.895    0.472
       258  -9.7359    243.4747    150.0175   5.0156913070e+01   7.8438343130e+00     0.333683    0.1674253 -31.45  0.001238642    1.784    0.439
       259  -9.7568    250.1993    157.5584   5.0591190377e+01   6.0601091809e+00    0.2849568    0.1426693 -30.09 0.0008033825    1.758    0.431
       260  -9.0606    246.5727    155.4818   5.0729198420e+01   6.7811262285e+00    0.2063184    0.1235627 -25.91 0.0006261839    1.439    0.305
       261  -8.4107    237.0489    158.8065   5.2758231809e+01   7.6949676649e+00    0.1990871    0.1300222 -35.31 0.0009154478    1.671    0.402
       262  -8.3837    128.2474    158.7592   7.4580785008e+01   2.5184404866e+01    0.2494765    0.2080963  70.80 0.0009254352    1.566    0.362
       263  -9.4836    105.8566    157.9769   8.0299758582e+01   2.8985178104e+01    0.4094355    0.2424956  57.36  0.001209073    2.144    0.534
       264  -8.6213    196.5768    157.7700   5.9407298879e+01   1.3895594115e+01    0.2096803    0.1884997 -52.07 0.0008469655    1.625    0.385
       265  -8.1081    188.1512    157.6333   6.0987950716e+01   1.5279104138e+01    0.2109797    0.1663276 -36.53 0.0008460883    1.439    0.305
       266  -9.4218    167.5045    157.1272   6.5114706979e+01   1.8805316682e+01    0.2928143    0.2574207 -85.62  0.001164883    1.789    0.441
       267  -8.5825    218.0030    156.4593   5.5362205780e+01   1.0743605461e+01    0.2179553    0.1533545 -38.91 0.0007333953    1.676    0.403
       268  -9.1131    157.9095    156.3595   6.7073758824e+01   2.0572803766e+01    0.2275163    0.2006985 -65.04 0.0009846856    1.566    0.361
       269  -9.3488    119.5270    154.8111   7.6126679020e+01   2.7413480194e+01    0.3773422    0.2841793  84.27  0.001292032    2.001    0.500
       270  -9.1351     49.6889    155.0780   9.6053795400e+01   3.7261374445e+01    0.3910961    0.1835396  56.56  0.001466895    2.256    0.557
       271  -8.1529    204.9470    155.0493   5.7352308936e+01   1.2948426249e+01    0.1710448    0.1548759 -54.22 0.0005906689    1.669    0.401
       272  -8.8499    144.4542    154.0616   6.9749898385e+01   2.3303366680e+01    0.2480314    0.2037897 -62.71 0.0007785772    1.613    0.380
       273 -10.1809    139.4204    145.0814   6.9233515107e+01   2.5865824115e+01    0.5684193    0.3931039 -85.72  0.001858516    3.073    0.675
       274  -9.3225     68.0585    153.3936   9.0399695810e+01   3.5454056675e+01    0.4542337    0.2363224  61.33  0.001609806    2.395    0.582
       275  -8.1378     23.3546    155.3329   1.0386451007e+02   3.9723833953e+01    0.1264557   0.09081736 -36.63   0.00070447    1.789    0.441
       276  -8.2370    232.9816    153.9354   5.2470777992e+01   8.8587122308e+00     0.161836    0.1426089 -44.34 0.0006382581    1.704    0.413
       277 -10.0996    133.1712    151.4071   7.2009775051e+01   2.5759541147e+01    0.6241686    0.3889883 -49.58  0.001380829    1.825    0.452
       278  -8.2291    151.8057    152.7904   6.7780546641e+01   2.2252834504e+01    0.1784852    0.1621071  55.78  0.000457002    1.345    0.256
       279  -9.7972     29.3165    150.3040   1.0176539472e+02   4.0384887911e+01    0.4839981    0.1905606  60.55  0.001965235    2.718    0.632
       280  -8.7187     19.9460    152.1769   1.0468583712e+02   4.0723743153e+01    0.2125162    0.1397808  54.99  0.001125588    1.329    0.247
       281  -8.9937    189.4623    149.7574   5.9190807050e+01   1.6243938428e+01    0.3000069    0.2177887 -52.87  0.001102221    1.990    0.497
       282  -7.9609    182.4858    151.0377   6.0817532917e+01   1.7229393776e+01    0.1849814    0.1255651 -35.18 0.0005168779    1.527    0.345
       283  -8.9003     98.3455    150.6727   8.1194830587e+01   3.1712322587e+01    0.3003329    0.2079891  60.02 0.0009254158    1.681    0.405
       284  -9.4998    248.8011    149.1206   4.9225749480e+01   7.2124892074e+00    0.2567149    0.1507738 -23.63 0.0007131944    1.422    0.297
       285  -8.2527    212.9769    149.5270   5.4870889730e+01   1.2439116938e+01    0.1874226    0.1465017 -17.58 0.0003573027    1.161    0.139
       286  -8.4374    162.4141    150.0774   6.4850608352e+01   2.0865151800e+01    0.2324879    0.1912804  58.65 0.0009044391    1.591    0.371
       287  -8.6164    198.8374    148.6612   5.7205079584e+01   1.4841674447e+01    0.2212374    0.1744886 -32.14 0.0005484013    1.348    0.258
       288 -10.1534     89.3187    146.1547   8.3067406110e+01   3.4101101113e+01    0.6782594    0.3893257  79.21  0.002524521    3.318    0.699
       289  -9.8307     39.8912    147.6684   9.8323657392e+01   4.0016453277e+01    0.5584848    0.2164366  54.13  0.002012929    2.697    0.629
       290 -10.3189    149.0026    144.8819   6.6877258292e+01   2.4175993209e+01    0.5300633     0.391912  80.65  0.001847277    2.504    0.601
       291 -10.5146     54.8125    143.7655   9.3271075916e+01   3.9328192252e+01    0.9263497    0.4673144  75.43  0.003314453    2.796    0.642
       292  -8.4928    223.3939    146.5182   5.2552670699e+01   1.1218472593e+01    0.2106961    0.1720911 -33.33 0.0008063993    1.413    0.292
       293 -10.2550    106.7638    144.1063   7.7690022725e+01   3.1763658018e+01    0.7155038    0.4612744  76.96  0.002433661    2.718    0.632
       294  -8.8448     77.8738    146.5684   8.6538754948e+01   3.5687111199e+01    0.2698192    0.1811745  82.03 0.0009348799    1.920    0.479
       295  -7.9838    206.9471    146.2330   5.5261713389e+01   1.3857651575e+01    0.1741764    0.1460767   6.27 0.0006807293    1.038    0.037
       296  -8.4006    175.8972    145.9688   6.1139148185e+01   1.9173619457e+01    0.1942201    0.1718128  82.89 0.0007364221    1.730    0.422
       297  -9.3914     13.3886    145.9168   1.0632006618e+02   4.2665104745e+01    0.3213672    0.1665412  48.10  0.001382695    1.662    0.398
       298  -8.7494    240.2417    144.9958   4.9670485969e+01   8.9017154765e+00    0.1704943    0.1225378 -17.11  0.000475322    1.153    0.133
       299 -10.8782    242.9896    141.9516   4.8684798682e+01   8.8718006406e+00    0.6844428    0.1700403 -36.34  0.002668153    3.744    0.733
       300  -8.7597    247.0692    143.6580   4.8434302989e+01   8.0889396220e+00    0.2126584    0.1352343 -17.56  0.000316492    1.309    0.236
       301  -8.1541    250.4840    140.5121   4.7357977992e+01   7.9773005594e+00    0.1531461    0.0966787  24.93 0.0009593845    1.598    0.374
       302  -8.7527    165.5736    143.8386   6.2897275924e+01   2.1366030910e+01    0.2359522    0.2098337  61.66 0.0007708472    1.462    0.316
       303  -9.8205    124.9722    142.4101   7.2398887361e+01   2.8974449328e+01    0.4514296    0.3367136  86.67  0.001416138    2.127    0.530
       304  -7.5691    194.3075    143.6629   5.7036632314e+01   1.6336280401e+01    0.1182576    0.1075969 -72.57 0.0003653659    1.677    0.404
       305 -10.6364     69.6689    140.8775   8.8232857543e+01   3.8140833729e+01    0.6142094    0.3735916  70.83  0.002641488    2.117    0.528
       306  -9.8806     69.6941    133.9981   8.7205733881e+01   3.9769174041e+01    0.4790587    0.2649172   8.20   0.00184462    2.794    0.642
       307  -9.3435      2.9108    141.7393   1.0931885195e+02   4.4306708788e+01    0.3547736    0.1585325  54.94  0.001205037    1.934    0.483
       308  -8.5801    242.9890    154.6936   5.1104894445e+01   7.3609910242e+00    0.1642248    0.1364787 -12.48  0.000391202    1.220    0.180
       309  -8.5655    182.0539    141.4874   5.8963052184e+01   1.8803142017e+01    0.2349847    0.1838146 -47.11 0.0006034402    1.571    0.364
       310  -8.5365     40.0082    140.9930   9.7663190446e+01   4.1596958637e+01     0.218133    0.1541664 -32.25  0.001118096    1.801    0.445
       311  -9.2850    139.3876    137.4696   6.7693711965e+01   2.7329221958e+01    0.4207154    0.2547751  -3.26  0.001565765    3.091    0.676
       312  -9.8133     23.4421    137.7788   1.0270272980e+02   4.3855719492e+01    0.5634097    0.1965171  57.34   0.00203786    3.024    0.669
       313  -8.7862    172.3219    137.9797   6.0225210855e+01   2.1126571499e+01    0.3019597    0.2214104 -62.70   0.00091852    2.144    0.534
       314  -7.8947    218.5386    138.4715   5.1730730988e+01   1.3043706730e+01    0.1246939    0.1057512  -5.79 0.0001612408    1.062    0.059
       315  -8.3977    207.8702    137.9377   5.3412874899e+01   1.4870791299e+01    0.1791569    0.1604709 -65.89 0.0009176771    1.700    0.412
       316  -8.9159    150.1393    136.3374   6.4838466949e+01   2.5535740552e+01     0.469706    0.2636996  14.66  0.001749238    2.950    0.661
       317 -10.4369     83.3138    133.1288   8.2723593198e+01   3.7995847448e+01    0.5506541    0.3936664 -64.77  0.001389043    1.527    0.345
       318  -8.7908    250.7853    129.8824   4.5250985107e+01   9.1768693795e+00    0.3996797   0.08934668 -28.15  0.001392571    4.358    0.771
       319  -8.9482    248.3892    134.7097   4.6520751684e+01   8.9548820750e+00    0.2338599    0.1490947 -31.89 0.0009471123    1.449    0.310
       320  -8.6314    247.0252    130.0215   4.5782960580e+01   9.7104399333e+00    0.2117691     0.137957 -25.76 0.0007618864    1.292    0.226
       321  -9.3385     39.0971    135.8361   9.7449054650e+01   4.2936975658e+01    0.3000147    0.1852139  57.68 0.0008084286    1.586    0.370
       322  -8.0834    187.8650    135.3669   5.6530651200e+01   1.8726257455e+01    0.1803335    0.1617067 -23.42 0.0005236423    1.185    0.156
       323  -8.2084    237.4986    133.4448   4.7800618090e+01   1.0721179691e+01     0.202311   0.09427038 -38.42 0.0009414947    2.167    0.539
       324  -7.9946    231.5072    133.9375   4.8782308880e+01   1.1581137220e+01    0.1801024    0.1039766 -26.46 0.0004726763    1.518    0.341
       325  -8.6640    179.4736    133.8180   5.7856755947e+01   2.0496759525e+01    0.2319854    0.2176788 -74.93 0.0008124056    1.454    0.312
       326  -9.0493    112.8426    133.0651   7.3863411326e+01   3.3084979349e+01     0.356728    0.2675795  72.96 0.0009873483    1.812    0.448
       327 -10.3301    132.4187    130.6364   6.8021855611e+01   2.9978358249e+01     0.647088    0.4796656 -71.33  0.001641702    1.936    0.484
       328 -10.2631     98.0763    129.8037   7.7549155383e+01   3.6377176031e+01    0.6601763    0.3447534 -57.19  0.002172908    2.110    0.526
       329  -8.6836    197.4979    137.1799   5.5101904035e+01   1.6750405581e+01    0.2650829    0.1939848 -51.68 0.0008910747    1.881    0.468
       330  -8.2530    192.9137    129.9326   5.4402573771e+01   1.8652228150e+01    0.1889847    0.1671345 -68.73 0.0005273154    1.633    0.388
       331  -9.7247    167.9356    129.1523   5.9242972327e+01   2.3438625752e+01    0.3524165    0.2570291  59.04   0.00101559    1.775    0.437
       332  -9.6403    153.0213    128.0269   6.2344935902e+01   2.6515386498e+01     0.659432    0.2819797 -42.66  0.002043966    2.463    0.594
       333  -9.7427     73.2793    128.7951   8.5207380702e+01   4.0512208425e+01    0.4702682      0.29334 -86.67  0.001704073    2.120    0.528
       334 -10.0932     12.7663    128.3550   1.0558786532e+02   4.6915232504e+01     0.584874    0.2431147  70.51  0.002223809    2.492    0.599
       335  -7.9477      1.7941    129.8642   1.0925766209e+02   4.7183008310e+01    0.1829816    0.1203566  55.23 0.0006958279    1.344    0.256
       336  -7.6573    220.5006    129.5616   4.9578702174e+01   1.3919123666e+01    0.1258678    0.1063045  -5.43   0.00013711    1.021    0.021
       337  -8.2529    211.7070    129.1859   5.0927716845e+01   1.5449640937e+01    0.1919647    0.1493439 -41.96 0.0007003543    1.488    0.328
       338  -7.8709    186.3900    129.2040   5.5482875018e+01   1.9957725312e+01    0.1894193    0.1218889 -43.64 0.0008280439    1.731    0.422
       339 -10.5234     59.6685    124.4988   8.9091110197e+01   4.3407875278e+01    0.8134165     0.414229  66.97  0.003039743    2.901    0.655
       340  -9.0207     58.8142    115.2597   8.7918935344e+01   4.5814934986e+01    0.2805886    0.1890625 -45.46  0.001249054    1.623    0.384
       341 -10.7533     45.0768    123.5073   9.4021872664e+01   4.5370132651e+01     1.160587    0.4669539  63.98  0.003692811    4.091    0.756
       342  -9.8323    117.9792    124.8637   7.0686063775e+01   3.3898209830e+01    0.5431142    0.3880101  81.06   0.00175507    2.255    0.556
       343  -7.7275    228.5146    125.0370   4.7401769152e+01   1.3201453331e+01    0.1672095   0.09352473 -47.64 0.0008088962    2.452    0.592
       344  -9.1345    179.2946    124.5111   5.5837690035e+01   2.2041994509e+01     0.255571     0.231416 -63.38  0.000731532    1.442    0.306
       345 -10.3143     28.5430    122.0866   9.9689897322e+01   4.7307500443e+01    0.8479908    0.3049799  61.31  0.002899258    3.637    0.725
       346  -8.3860    162.7601    136.1544   6.1903904582e+01   2.3205652733e+01    0.2001896    0.1925963  67.19 0.0006948857    1.303    0.233
       347  -7.8772    188.5937    123.7952   5.3861208667e+01   2.0394843093e+01    0.1823061     0.122466 -42.90 0.0004269247    1.625    0.385
       348  -9.8386    158.9672    121.6624   5.9523087370e+01   2.6501521635e+01    0.4083011     0.291373 -76.72  0.001642819    2.629    0.620
       349  -8.6480     84.5418    122.6077   8.0409176255e+01   4.0277364315e+01    0.2968279    0.1951177 -25.42  0.001160357    2.141    0.533
       350  -7.9249    202.9996    121.9530   5.0840046010e+01   1.8015557156e+01    0.1638508    0.1342752 -18.09 0.0004534209    1.111    0.100
       351  -7.7905    195.2068    121.9558   5.2221971343e+01   1.9443686284e+01    0.1744279    0.1007754 -33.07 0.0005512279    1.658    0.397
       352  -9.6958    171.4938    119.8078   5.6361253408e+01   2.4339267177e+01    0.5231071    0.2477521 -41.76  0.001704622    2.195    0.544
       353 -10.0397    130.9463    118.5328   6.5688103918e+01   3.2704881824e+01    0.4654624    0.3317664  83.53    0.0019423    2.457    0.593
       354  -9.3129    143.0651    131.3324   6.5471665269e+01   2.7815042884e+01    0.3146785    0.2698917 -68.27 0.0008473775    1.499    0.333
       355  -9.6909     71.0415    119.1790   8.4292240249e+01   4.3165823452e+01     0.381094    0.2664851  89.91  0.001181665    1.753    0.430
       356  -9.6227      2.8641    117.1303   1.0839313444e+02   5.0231973582e+01    0.5096359     0.175654  63.66  0.002022105    2.894    0.654
       357  -8.1291    231.5226    117.4682   4.5370110453e+01   1.3686043014e+01    0.1234723    0.1041404 -14.65 0.0008088601    1.051    0.049
       358  -8.1948    185.9779    115.9791   5.2575191896e+01   2.2122515074e+01    0.2007899    0.1714374 -70.90  0.000492488    1.637    0.389
       359  -9.9906    109.4473    114.1328   7.0756259337e+01   3.7839801825e+01    0.4717235    0.3462801 -83.87  0.001501013    1.979    0.495
       360  -8.2995    193.1245    114.9137   5.1000601939e+01   2.0907628542e+01    0.1964432    0.1790205 -50.43 0.0004506901    1.321    0.243
       361  -9.9240     78.9069    112.2160   8.0232995795e+01   4.3665069482e+01    0.5811678     0.373983  79.09  0.001741237    2.337    0.572
       362 -10.1669     76.2035    105.5520   7.9780641708e+01   4.5715071153e+01    0.4415037    0.2857424  25.89 0.0005250997    1.609    0.378
       363  -8.1232    250.0415    114.5635   4.2272469541e+01   1.1099098902e+01    0.1574643    0.1128836  41.69  0.001026324    1.596    0.373
       364 -10.1146    141.6800    117.7125   6.2717404826e+01   3.0712625023e+01    0.6255728    0.3370405 -49.93  0.001611269    2.132    0.531
       365 -10.2716     92.5473    112.0063   7.5587856852e+01   4.1426740106e+01    0.6761254     0.395698 -70.45  0.001589328    2.347    0.574
       366  -8.5475     94.7210    103.7029   7.2939348875e+01   4.2966153596e+01    0.3928883     0.217165  18.75  0.001390055    2.765    0.638
       367 -10.5023    133.5723    109.2022   6.2732075120e+01   3.4052964249e+01    0.6660014    0.3534598 -46.06  0.001968086    2.003    0.501
       368 -10.0797    122.1399    112.3715   6.6636172478e+01   3.5736739394e+01    0.4219142    0.3131828  80.68 0.0006823799    2.036    0.509
       369 -10.1172    119.1452    105.8400   6.5876106071e+01   3.7721840849e+01    0.4925794    0.3215144 -59.74  0.002130453    1.888    0.470
       370 -10.6567    108.7781     98.5551   6.7103835059e+01   4.1403349478e+01    0.8968555    0.4998046  64.40     0.001547    3.225    0.690
       371  -8.5538    174.7734    111.7057   5.3767967064e+01   2.5042567813e+01    0.2641259    0.1857731 -44.90 0.0007099477    1.545    0.353
       372  -9.0228    159.2111    111.5224   5.7050243638e+01   2.8268698877e+01    0.2604375     0.224792 -66.58 0.0006250184    1.463    0.316
       373 -10.0427     66.5356    110.4057   8.4259288575e+01   4.5977510227e+01    0.4606367    0.3018239  75.49  0.001508566    2.006    0.502
       374  -9.2768     66.7866    105.3778   8.3183021032e+01   4.7192344660e+01    0.2491617    0.2216489   9.33 0.0008973712    1.208    0.172
       375  -9.9142     14.3269    110.9243   1.0389116079e+02   5.1159762280e+01    0.4487178    0.2249137  58.45   0.00155066    1.987    0.497
       376  -9.9169    248.7696    107.5034   4.0975635588e+01   1.2137701446e+01    0.3248341    0.2429844 -45.36  0.002113453    1.546    0.353
       377 -10.4417    249.2543    102.1866   3.9805191037e+01   1.2694622116e+01    0.4376572    0.2305127 -33.45  0.002457379    1.601    0.375
       378  -7.7999    182.7440    109.3551   5.1629290132e+01   2.3816012086e+01    0.1345659    0.1081659 -59.67 0.0002709223    1.610    0.379
       379  -8.2118    189.3625    108.0949   5.0087640599e+01   2.2691502398e+01    0.1934744    0.1190527 -42.68 0.0006419083    1.705    0.413
       380  -9.0879    109.2691    107.2691   6.9170102396e+01   3.9388713379e+01    0.3637811     0.233677   9.42  0.001352599    2.508    0.601
       381  -7.9988     43.9956    109.0000   9.2426785838e+01   4.9157891570e+01    0.2341296   0.07868998  23.88 0.0008085693    2.985    0.665
       382  -8.4945      5.4605    109.0000   1.0705930759e+02   5.2131536245e+01    0.2653898   0.07281832  12.53 0.0009365058    3.949    0.747
       383  -9.0481    107.4325     92.6544   6.5934383077e+01   4.2969250036e+01    0.8097951    0.3617391  27.23  0.002344117    3.920    0.745
       384  -9.5780    140.0412    104.0224   5.9739199016e+01   3.3710240079e+01    0.5341636    0.3198746 -57.89  0.001631178    2.277    0.561
       385 -10.5074     45.7194    102.0954   9.0676252707e+01   5.0738000213e+01    0.8860973    0.4043589  61.29  0.003098272    3.235    0.691
       386  -9.2746     45.8423     92.4836   8.8935326588e+01   5.3195355703e+01    0.5082917    0.2844262 -16.38  0.001941463    2.892    0.654
       387 -10.7860     22.8631    102.2846   9.9820960972e+01   5.2795800905e+01    0.8263435     0.350294  64.30  0.002606333    2.900    0.655
       388  -9.6225    150.4818    102.8653   5.6883441145e+01   3.1687607737e+01    0.5090628    0.2915981 -55.58  0.001348409    2.383    0.580
       389  -8.7997    150.8321     95.5053   5.4860646390e+01   3.2961104262e+01    0.3706854    0.2206023 -23.38  0.001522646    2.089    0.521
       390  -8.5585    166.7411    103.9072   5.3512977517e+01   2.8025018565e+01    0.2568488    0.1918042 -52.18 0.0006454753    1.564    0.361
       391 -10.0078    128.4812    101.9270   6.2239495249e+01   3.6590362075e+01    0.3727047    0.2928172 -72.47 0.0008047225    1.680    0.405
       392  -8.6596    130.7240     97.0227   6.0323798142e+01   3.7097212628e+01    0.3868333    0.1870198  33.46  0.001376114    2.478    0.596
       393  -9.4243      6.4217    102.2414   1.0629837471e+02   5.3791472968e+01    0.3505836    0.1705488  69.34  0.001068953    2.055    0.513
       394  -8.0336    175.5923    101.7977   5.1169808487e+01   2.6511800195e+01    0.1993633    0.1293825 -44.16 0.0009410428    1.631    0.387
       395  -8.4357    159.7751    100.7106   5.4202526961e+01   3.0070925480e+01    0.2435476    0.2031653 -38.67 0.0005819765    1.229    0.186
       396  -9.3136     82.2424    100.0252   7.6361720633e+01   4.6055459926e+01    0.3865243    0.2794322 -86.85 0.0009625206    1.839    0.456
       397  -9.0984     95.0522     96.9231   7.1130551838e+01   4.4468754719e+01    0.3279552    0.2492228 -71.05 0.0006655857    1.585    0.369
       398 -10.1316     63.9186     95.5753   8.2215676300e+01   5.0057434768e+01    0.5918278    0.3612262  81.51  0.001599979    2.552    0.608
       399  -9.0002     65.1926     87.2354   7.9771828551e+01   5.1946057234e+01    0.4467138    0.2676435 -17.78  0.001650573    2.869    0.651
       400 -10.0528    247.3166     93.3371   3.8157555935e+01   1.4063469167e+01    0.2682205    0.1781305   8.44  0.001557401    1.809    0.447
       401  -8.3616    164.9450     93.7845   5.1275404123e+01   3.0143068669e+01    0.2570538     0.178793 -48.44 0.0005387672    1.583    0.368
       402  -7.9118    188.5905     92.8147   4.6478461651e+01   2.5201574923e+01    0.1977079    0.1226312 -41.70 0.0009424844    1.623    0.384
       403  -8.2743    176.6241     93.1084   4.8752774980e+01   2.7705313931e+01     0.224952    0.1682594 -48.92  0.000593073    1.471    0.320
       404  -9.1959    139.1055     92.2134   5.6812541357e+01   3.6187048379e+01    0.3684296    0.2892306 -86.27  0.000648584    1.793    0.442
       405 -10.1725    123.8593     90.8305   6.0506037682e+01   3.9845487706e+01    0.5903631    0.4832289  26.84  0.001191128    1.268    0.211
       406  -9.6798      5.4861     91.8893   1.0599300811e+02   5.6471509333e+01    0.3758289    0.1805567  58.62  0.001154841    2.123    0.529
       407  -8.1443    157.8217     91.7353   5.2257382215e+01   3.2077741039e+01    0.1967088    0.1764389 -77.05   0.00049594    1.330    0.248
       408  -9.4130     34.8954     89.8166   9.3139657347e+01   5.5026473706e+01    0.4625679    0.2496527  75.17  0.001707059    2.439    0.590
       409  -8.2199     34.6256     83.5575   9.2192736754e+01   5.6675529633e+01    0.3798755     0.109251 -54.05  0.001296536    3.033    0.670
       410  -9.2131     22.8964     89.8063   9.8354018977e+01   5.6023866037e+01    0.3340353    0.2424794 -38.12  0.001046444    1.480    0.324
       411  -7.8761    151.1697     89.1342   5.3041489404e+01   3.4036377139e+01    0.2027336    0.1775642 -66.06 0.0004727871    1.329    0.248
       412 -10.1832     86.4763     85.8670   7.1175963732e+01   4.8646212266e+01    0.6360157    0.4320829 -68.70  0.001699073    1.841    0.457
       413  -7.7492    164.3506     87.1781   4.9623035348e+01   3.1391971624e+01    0.2077918    0.1295824 -44.82 0.0005278289    1.683    0.406
       414  -9.7523     48.6830     84.1856   8.6044662958e+01   5.4986969374e+01    0.5757164    0.3043875  58.42  0.001986706    2.554    0.608
       415  -9.8854    104.8025     82.8395   6.3961853621e+01   4.5648436185e+01    0.4805347    0.3421978 -80.80 0.0009095876    2.170    0.539
       416  -8.2160    158.0832     83.8652   5.0029117248e+01   3.3379978219e+01    0.2174276    0.1981257 -66.84 0.0004428654    1.233    0.189
       417  -8.9771    141.0843     82.5691   5.3569436266e+01   3.7542725856e+01    0.3989146    0.2311046 -53.27  0.001005079    2.123    0.529
       418  -7.4165    170.6510     83.3132   4.7302596626e+01   3.0605391370e+01    0.1480161    0.1146314 -73.15 0.0007046442    1.720    0.419
       419  -9.6120      9.8114     81.0271   1.0320528791e+02   5.9075167302e+01    0.4119453    0.1894708  56.70  0.001356944    2.383    0.580
       420  -7.8227     64.2989     82.6637   7.8993135277e+01   5.3213170358e+01    0.1539207    0.1145231  69.76 0.0005921756    1.656    0.396
       421  -9.7468     24.8454     80.5654   9.6191063976e+01   5.8283761932e+01    0.4873315    0.2632922  66.84  0.001346641    2.252    0.556
       422  -8.5865    150.3373     80.0445   5.0648271730e+01   3.5837307680e+01    0.3171193     0.219909 -55.42 0.0008832266    1.710    0.415
       423  -8.7274    119.4435     79.8182   5.8537391788e+01   4.3055033059e+01    0.4169105       0.2493 -51.86  0.001460131    1.899    0.473
       424  -8.8049     74.8316     80.3152   7.4062405074e+01   5.2059616922e+01    0.3289515     0.220387 -74.21  0.001172691    1.954    0.488
       425  -8.1660    249.6866     80.6324   3.5151423897e+01   1.5162724418e+01    0.1224742    0.0832426   5.45 0.0004049512    1.770    0.435
       426  -8.2710    166.9065     79.3774   4.6949012983e+01   3.2095716449e+01     0.239632    0.1911805 -43.28 0.0004683688    1.276    0.216
       427  -7.9856    184.2040     78.0068   4.3392120414e+01   2.8388649296e+01    0.1921704    0.1079475 -31.67 0.0006003572    1.711    0.416
       428  -7.9788    174.6349     77.8036   4.5036273459e+01   3.0574380158e+01    0.2081366    0.1251892 -42.52 0.0006629469    1.674    0.403
       429  -8.2421     92.6356     78.7023   6.6858769417e+01   4.9078497254e+01    0.1605848    0.1224722   2.05 0.0007032652    1.720    0.419
       430  -8.4024     49.5362     78.0070   8.4261869725e+01   5.6451375327e+01    0.3998224     0.201005   1.86  0.001287766    3.870    0.742
       431  -7.8913    157.3838     76.2323   4.7997047738e+01   3.4832509004e+01    0.2064764    0.1348476 -45.04 0.0003328385    1.596    0.373
       432  -9.3966    128.1661     75.1209   5.4642861763e+01   4.1953502407e+01    0.3499273    0.2534631 -59.31 0.0006399658    1.666    0.400
       433  -8.4779    140.3530     75.0083   5.1490747249e+01   3.9086833119e+01    0.2167521    0.1922953 -39.16  0.000436721    1.155    0.134
       434  -9.9836     63.0985     73.1486   7.6925682173e+01   5.5728669914e+01    0.5291324     0.313018 -68.22  0.001281192    2.034    0.508
       435  -9.7184     82.4915     72.2408   6.8627194541e+01   5.2534620549e+01    0.4901497    0.3190752 -70.35  0.001106039    2.158    0.537
       436  -8.3929    163.4571     72.7781   4.5752013702e+01   3.3963584465e+01    0.2795208    0.1345936 -39.27  0.001111806    2.042    0.510
       437  -8.8371    115.6712     72.1554   5.7240822210e+01   4.5442275589e+01    0.4282952    0.1884325 -41.32  0.001122279    2.353    0.575
       438  -8.2585     42.7333     72.6276   8.6158127571e+01   5.8638889880e+01    0.2399193    0.1720097  83.27 0.0007055874    1.692    0.409
       439  -7.9054    175.5238     72.4751   4.3396221182e+01   3.1190063444e+01    0.1419421    0.1374543  -9.29 0.0008096394    1.014    0.014
       440  -9.3049     95.1878     70.8926   6.3484882916e+01   5.0257911515e+01    0.4058668    0.2647001 -60.48   0.00109054    1.892    0.471
       441  -9.3759     29.7360     69.7198   9.1920100583e+01   6.0696900827e+01    0.4912153    0.2212491 -18.83  0.001639158    3.901    0.744
       442  -9.7421    106.0042     70.7711   5.9789318893e+01   4.7921813083e+01    0.5236051    0.2515571 -47.40  0.001476408    2.226    0.551
       443  -9.4277     16.5715     68.5198   9.8409857514e+01   6.1961392751e+01    0.6372256    0.2008057 -73.38  0.002336396    2.848    0.649
       444  -7.6253    157.2956     69.6887   4.6087097813e+01   3.5930397002e+01    0.1496478     0.115853 -69.37 0.0003695916    1.595    0.373
       445  -8.8595    147.1040     67.8801   4.7723194417e+01   3.8696891094e+01    0.3189459    0.2100973 -46.17 0.0007112196    1.600    0.375
       446  -9.0227    121.6999     65.5383   5.3322546424e+01   4.5288096895e+01    0.4157656    0.2346067 -47.97  0.001204872    1.948    0.487
       447  -7.5194    203.2653     66.6384   3.7462757102e+01   2.5816921450e+01    0.1402286   0.09392208 -53.38 0.0005585854    1.641    0.391
       448  -8.7811    138.7506     65.9407   4.9043733890e+01   4.1068712912e+01    0.2862821    0.2018462 -55.12 0.0007645285    1.635    0.388
       449  -8.9176     37.2758     63.8623   8.6748045883e+01   6.1462899294e+01    0.3184875    0.2149203  79.84  0.001210559    1.921    0.479
       450  -8.9939    110.0638     63.1490   5.5929071225e+01   4.8505434788e+01    0.3352259    0.2227197 -50.47 0.0007282515    1.660    0.397
       451  -9.4240     51.6121     69.4795   8.1124656036e+01   5.8315687334e+01    0.5014901    0.2956186 -87.47  0.001490095    2.742    0.635
       452  -8.7082     65.5309     62.4586   7.2545119960e+01   5.7869524964e+01    0.5255142    0.3056646   1.77  0.001714472    3.714    0.731
       453  -8.0772     86.3458     63.3187   6.4172040564e+01   5.3733423261e+01    0.1603916    0.1217868   1.81 0.0007049027    1.726    0.421
       454  -8.2038    158.2925     61.8946   4.3528368965e+01   3.6925136074e+01    0.2056261    0.1874488 -32.77 0.0004959995    1.100    0.091
       455  -9.3427     97.5990     60.3455   5.9018555937e+01   5.1921349626e+01    0.3371373    0.2479222  61.12 0.0008404931    1.519    0.342
       456  -9.6313     73.4461     59.4228   6.8021354538e+01   5.7136513582e+01    0.4334326    0.2876472 -66.14  0.001171427    1.959    0.490
       457  -7.9535    147.1475     59.1143   4.4945110448e+01   4.0123375248e+01    0.2087308    0.1780376 -70.15 0.0004972643    1.310    0.236
       458  -8.3704     88.8900     59.1543   6.1725343447e+01   5.4075716267e+01    0.2310525    0.2106214 -83.12 0.0005832623    1.258    0.205
       459  -8.2653    130.9490     57.8950   4.8292309875e+01   4.4377621278e+01    0.2425697    0.1866836 -74.95 0.0007661685    1.650    0.394
       460  -8.0293     38.9615     58.6802   8.4495722188e+01   6.2574984645e+01    0.2342438    0.1121967  -4.49 0.0007044395    4.431    0.774
       461 -10.0020     23.4880     56.2662   9.2435461360e+01   6.4644960311e+01    0.5008047    0.2827811  71.00  0.001953516    2.442    0.590
       462  -9.4088      7.4434     56.8000   1.0164263271e+02   6.5410668828e+01    0.3731972    0.1971466  72.63  0.001239849    2.184    0.542
       463  -7.8784    216.6937     55.9845   3.3063305976e+01   2.4329354257e+01     0.178386    0.1511969 -32.52 0.0003427373    1.057    0.054
       464  -8.3557    140.0284     56.0147   4.5499309384e+01   4.2408148067e+01    0.2393691    0.1809127 -68.53 0.0005127585    1.618    0.382
       465  -9.3929    119.1277     55.1384   5.0439804992e+01   4.7795118034e+01    0.4470983    0.2488535 -50.13  0.001340876    2.093    0.522
       466  -9.0912     62.9024     54.4831   7.0992070227e+01   6.0145549188e+01    0.3376886    0.2222258 -64.34 0.0007967165    1.844    0.458
       467  -8.8792     43.9912     55.0170   8.0724249592e+01   6.2867287448e+01    0.3671681    0.2060185 -68.91  0.001255091    2.070    0.517
       468  -8.9443     54.1664     53.7960   7.5020592757e+01   6.1725670510e+01    0.3829933    0.2386225 -73.30    0.0012198    2.253    0.556
       469  -8.5593    105.7839     52.8959   5.3566990761e+01   5.1451636690e+01    0.2744738    0.2107955 -60.79 0.0005913504    1.551    0.355
       470  -9.5653     92.6197     50.4305   5.7057070666e+01   5.4993074557e+01    0.4475966     0.290168 -57.94 0.0009336789    1.961    0.490
       471  -8.3025    144.5947     48.9642   4.2141904024e+01   4.2344232735e+01     0.223843    0.1473571 -30.03  0.000551301    1.574    0.365
       472  -8.0751    129.9552     48.9845   4.5429005336e+01   4.6097374892e+01    0.2388106    0.1807158 -67.20 0.0005205135    1.600    0.375
       473  -8.6737    120.8710     46.9633   4.6981898217e+01   4.8742621758e+01     0.268818    0.2062378 -41.00 0.0008802504    1.356    0.263
       474  -8.6017    112.4207     46.7806   4.9239407268e+01   5.0904847925e+01    0.2753628    0.1450516 -40.99   0.00069263    1.975    0.494
       475  -9.0740     82.2603     46.3376   5.9339044273e+01   5.8086115382e+01    0.3208937     0.250745 -63.17 0.0006436085    1.567    0.362
       476  -8.6149     45.0113     44.4241   7.6532224633e+01   6.5234937187e+01    0.2554184    0.2010542 -78.11 0.0006453076    1.574    0.365
       477  -8.9463     16.9145     44.5063   9.3715317576e+01   6.8055736565e+01    0.2510413     0.179588  83.05 0.0007520817    1.614    0.380
       478  -8.3486    132.5495     43.0167   4.2676591580e+01   4.6350971440e+01     0.222254    0.1497082 -33.18 0.0004291219    1.532    0.347
       479  -9.5704     69.6513     41.3360   6.2609470327e+01   6.1699138959e+01    0.4603237    0.3019045 -62.98  0.001177702    2.121    0.528
       480  -8.9866     58.2800     42.3022   6.8523994206e+01   6.3624470790e+01    0.3438788    0.2541997 -71.70  0.001130991    1.835    0.455
       481  -9.6238      5.3099     41.6839   1.0067995656e+02   6.9304511252e+01    0.4080645     0.203553  79.95  0.001756696    2.404    0.584
       482  -8.5809    105.9983     41.2144   4.8938869615e+01   5.3440667896e+01    0.2715129    0.2069926 -62.71 0.0006414867    1.596    0.374
       483  -8.7487     92.8753     42.2174   5.3637905010e+01   5.6454948671e+01    0.2169355     0.178771  15.90 0.0005269001    1.357    0.263
       484  -7.2233    140.3176     41.2758   4.0376864067e+01   4.4579672339e+01    0.1532064     0.111743  32.30 0.0002464078    1.570    0.363
       485  -8.5442     36.9371     40.4471   7.9812466576e+01   6.7207257595e+01    0.2480991    0.1970181 -81.14 0.0006998215    1.541    0.351
       486  -8.7285     95.6257     37.7624   5.0801591263e+01   5.6570080913e+01    0.2564044    0.1913476 -46.16  0.000630083    1.453    0.312
       487  -8.1947     80.7631     36.7398   5.5808805658e+01   6.0219793480e+01    0.2533849    0.1852813 -34.63 0.0005240948    1.425    0.298
       488  -7.6893    133.6809     36.2911   3.9968973875e+01   4.7027940702e+01      0.15418    0.1142561 -71.18 0.0003460007    1.602    0.376
       489  -9.3137     26.2488     35.2363   8.4842351428e+01   6.9584059651e+01    0.3296899    0.2314613 -82.42  0.000909448    1.768    0.434
       490  -8.5447    125.9438     35.3237   4.1319753425e+01   4.9206333483e+01    0.2144472    0.1902493  58.73 0.0004174387    1.070    0.065
       491  -8.5212    111.8338     34.3626   4.4467020293e+01   5.3036719634e+01     0.255403    0.2037199 -48.92 0.0005744324    1.357    0.263
       492  -7.9832     88.5685     34.4907   5.1822634274e+01   5.8812990483e+01    0.1500975    0.1429231  34.06 0.0001551047    1.012    0.011
       493  -8.9955     48.6651     32.9074   6.9633868425e+01   6.7223640050e+01    0.2691956    0.2382186 -57.36 0.0006731629    1.262    0.208
       494  -8.2170    119.3961     33.1810   4.2038335958e+01   5.1236206779e+01    0.2151799    0.1351118 -43.76 0.0004989388    1.696    0.411
       495  -8.8565     60.9139     32.4731   6.2775752905e+01   6.5150809350e+01    0.2578063    0.2038632 -59.69 0.0006248332    1.532    0.347
       496  -9.0367     72.2069     31.1029   5.6771929260e+01   6.3108562984e+01    0.2807032     0.234268 -59.47 0.0007084908    1.437    0.304
       497  -8.8286     12.9720     29.9603   9.2658827846e+01   7.1852151266e+01     0.342695    0.1887078 -82.13  0.001384036    2.112    0.526
       498  -8.2207    101.4942     29.0208   4.5121432770e+01   5.6487704595e+01    0.2203399    0.1495035 -33.91 0.0007160849    1.549    0.354
       499  -7.6794     42.2921     29.6820   7.1976617769e+01   6.8886532598e+01    0.1330298    0.1124549  74.09 0.0003071012    1.602    0.376
       500  -8.8811     81.6250     27.2278   5.1007050211e+01   6.1645219195e+01    0.3178302     0.240808 -66.15 0.0008576004    1.773    0.436
       501  -9.0093      3.2957     26.7653   9.9289441762e+01   7.3034570581e+01    0.3192283    0.1838058  82.58   0.00158628    2.053    0.513
       502  -7.8322    110.0000     26.9991   4.1862029253e+01   5.4572902738e+01    0.2375553   0.08745192 -29.06 0.0006608607    2.894    0.654
       503  -8.8267     91.8671     26.2289   4.6869754112e+01   5.9325736772e+01    0.3062213    0.1979348 -47.27  0.000549545    1.764    0.433
       504  -7.7693    145.7704     25.9902   3.3925967501e+01   4.5146300474e+01    0.1851356    0.1227835 -26.60   0.00040384    1.580    0.367
       505  -7.7281    158.7301     23.6603   3.1117469156e+01   4.1984024464e+01    0.1437683    0.1070324  29.67 0.0003035415    1.604    0.376
       506  -8.1587    104.7380     22.7766   4.1410068188e+01   5.6523622022e+01    0.2358826    0.1224154  73.02 0.0007328456    2.384    0.581
       507  -8.9334     63.6838     21.0048   5.5512534107e+01   6.6665422469e+01    0.3225588    0.2248645 -60.64 0.0009193675    2.056    0.514
       508  -8.7481     48.5014     21.4728   6.3969204175e+01   6.9524642097e+01    0.2367736    0.2241532 -13.22 0.0005569156    1.088    0.081
       509  -7.5592     34.3491     22.6823   7.3863106510e+01   7.1476881404e+01    0.1343444    0.1079157  64.65 0.0007048053    1.732    0.423
       510  -8.1313    120.9966     20.9755   3.6705570419e+01   5.2420680380e+01    0.2427935    0.1694575 -64.29 0.0006669015    1.694    0.410
       511  -8.9256     74.0641     19.0848   4.9837739896e+01   6.4671504193e+01    0.3219721    0.1992416 -43.24  0.000718534    1.801    0.445
       512  -7.9223     38.6785     18.1883   6.8445646899e+01   7.1766597552e+01    0.1897255    0.1166203 -37.16 0.0003848924    1.607    0.378
       513  -8.2301     87.8628     17.1888   4.3769362384e+01   6.1602761558e+01    0.2181465    0.1975949 -74.87 0.0005891349    1.264    0.209
       514  -7.7392    112.9804     16.5037   3.6570858152e+01   5.5113028399e+01    0.1972818    0.1231807 -80.14 0.0004172117    2.176    0.541
       515  -8.0439     30.0504     15.9750   7.3498384967e+01   7.3425013054e+01     0.195489    0.1666199  71.37 0.0007733727    1.658    0.397
       516  -8.2689     97.4392     15.0000   3.9783417929e+01   5.9423678329e+01    0.2142389    0.1453148 -28.77 0.0005766209    1.571    0.364
       517  -7.9346     17.4483     13.9355   8.2908111057e+01   7.5223626850e+01    0.1627117    0.1135877  82.61 0.0004814228    2.290    0.563
       518  -9.1468    232.8831    247.2950   6.7412708889e+01  -1.1633489070e+00    0.2368218    0.1595606 -32.03  0.001703357    2.122    0.529
       519  -7.9275    191.5330    249.4956   7.4580806330e+01   3.0665706189e+00    0.1075359   0.07417219  18.21 0.0008085712    1.077    0.072
       520  -9.1335    175.7401    247.5437   7.7177722941e+01   5.0878562728e+00    0.2408897    0.1845243  47.92  0.001248951    2.044    0.511
       521  -8.3955    113.2792    248.6503   8.9382285256e+01   1.2342719015e+01    0.1617021    0.1313967  85.81  0.001212795    1.873    0.466
       522  -9.2546    103.9054    246.7823   9.1123793709e+01   1.3695579273e+01     0.331314    0.2051236  82.38  0.001916019    3.011    0.668
       523  -8.4260     93.8857    248.8723   9.3336570088e+01   1.4543949533e+01    0.1959713    0.1113883  56.77  0.001089993    2.069    0.517
       524  -8.6919    218.6331    247.1337   6.9677946823e+01   3.3335455317e-01    0.2587165    0.1140783 -34.17  0.001448163    2.667    0.625
       525  -8.7937    156.1082    247.6563   8.0858401474e+01   7.3875188841e+00     0.156426    0.1336936  23.35 0.0005456405    1.331    0.249
