#   1 NUMBER                 Running object number                                     
#   2 MAG_AUTO               Kron-like elliptical aperture magnitude                    [mag]
#   3 X_IMAGE                Object position along x                                    [pixel]
#   4 Y_IMAGE                Object position along y                                    [pixel]
#   5 X_WORLD                Barycenter position along world x axis                     [deg]
#   6 Y_WORLD                Barycenter position along world y axis                     [deg]
#   7 A_WORLD                Profile RMS along major axis (world units)                 [deg]
#   8 B_WORLD                Profile RMS along minor axis (world units)                 [deg]
#   9 THETA_WORLD            Position angle (CCW/world-x)                               [deg]
#  10 FWHM_WORLD             FWHM assuming a gaussian core                              [deg]
#  11 ELONGATION             A_IMAGE/B_IMAGE                                           
#  12 ELLIPTICITY            1 - B_IMAGE/A_IMAGE                                       
         1  -8.7413    218.4570     34.0743   6.5418205104e+01   2.6794590939e+01    0.1921164    0.1248152 -39.47 0.0004978357    1.558    0.358
         2  -9.8040    141.8200     19.3276   7.2594567958e+01   4.7022352144e+01    0.4292907    0.2781177  -6.57  0.002214376    1.990    0.498
         3  -7.7975    229.3039      9.3275   5.8837415013e+01   2.7276839221e+01      0.11474   0.09099779  47.80 0.0007034193    1.647    0.393
         4  -9.3581    211.3489      8.8704   6.0408723035e+01   3.1449654217e+01    0.1984696    0.1332783 -58.91 0.0005367647    1.414    0.293
         5  -8.4533    139.5251      5.9828   6.8885992692e+01   4.8799744673e+01    0.1683397    0.1283412 -12.39  0.001011339    1.552    0.356
         6  -8.2722    171.5328      5.5399   6.4074540733e+01   4.1256042360e+01     0.129398    0.1089623  80.02 0.0001311956    1.035    0.034
         7  -8.4598    109.1373      3.1060   7.3652477823e+01   5.5814952005e+01     0.156607    0.1428139  80.77 0.0008297381    1.297    0.229
         8  -8.9088    146.3263    242.4858   1.2493104006e+02   3.4855194413e+00    0.2043511    0.1216251 -53.09  0.001078768    1.966    0.491
         9  -9.0370    232.0796    237.8986   1.0786872459e+02  -1.0253211349e+01    0.2332329    0.1919074  77.04  0.001370107    2.296    0.565
        10  -8.9003    204.0825    235.7137   1.1269950641e+02  -5.4095516127e+00     0.318245    0.2068246 -67.96  0.001436254    3.325    0.699
        11  -8.4206     49.1762    235.8558   1.4252702260e+02   1.9883717000e+01    0.1451592    0.1282411  86.13 0.0006191929    1.316    0.240
        12  -8.6149    248.4786    234.9453   1.0442226602e+02  -1.2323485426e+01    0.1730617    0.1379715  -6.13  0.000633459    1.104    0.094
        13  -9.6302    248.2220    230.4550   1.0366844796e+02  -1.1685760871e+01    0.2775325    0.2199861  30.83  0.001820104    1.286    0.222
        14  -9.5456    216.2877    233.9954   1.1010408393e+02  -7.1830553672e+00    0.2967514    0.2655247  70.78  0.001566595    1.609    0.378
        15  -8.0712    226.3286    231.6854   1.0783645627e+02  -8.4757675293e+00    0.1131886    0.1010244  68.67 0.0007044458    1.674    0.403
        16  -8.8312    186.0800    230.2649   1.1526341918e+02  -1.4392781617e+00    0.2311457    0.1776871 -86.09  0.001227281    2.090    0.521
        17  -8.7837    157.2864    230.9980   1.2108769822e+02   3.5730587743e+00    0.1791151    0.1725494  66.77 0.0009509875    1.119    0.107
        18  -8.5411    223.1797    227.1980   1.0762525851e+02  -7.3089983263e+00    0.1577432    0.1564761 -67.69  0.001067111    1.378    0.274
        19  -9.1440    236.5783    229.5920   1.0559329833e+02  -9.7968038210e+00    0.2078648    0.1783004  85.62  0.001250078    2.127    0.530
        20  -8.7016    199.6007    224.7205   1.1167645893e+02  -2.9155105064e+00    0.1673774    0.1270955 -49.36 0.0009448712    1.578    0.366
        21  -8.2819    181.6824    225.3312   1.1530493659e+02   1.7174570816e-01    0.1311022    0.1037507  73.24 0.0007047383    1.687    0.407
        22  -8.7929    217.0478    224.2166   1.0824238100e+02  -5.8392235203e+00    0.2510926    0.2093497  68.44  0.001475072    1.761    0.432
        23  -9.6221    239.2502    221.4312   1.0363187953e+02  -9.0490133983e+00    0.3127057     0.243212 -26.40  0.001553249    1.273    0.215
        24  -9.9787    226.3301    220.4191   1.0581437543e+02  -6.8096966683e+00    0.3666579    0.3392356 -52.77  0.002381773    1.442    0.307
        25  -8.8133    191.9910    220.3560   1.1240351673e+02  -8.3962240116e-01     0.222106    0.1835561 -16.72  0.001297761    1.314    0.239
        26 -10.3277    248.6246    216.2600   1.0099877809e+02  -9.7636752280e+00     0.473239    0.3519323 -56.74  0.002673997    2.160    0.537
        27  -8.7886    210.9481    219.7251   1.0859490708e+02  -4.0920620569e+00    0.2397652    0.1882512 -33.01  0.001412171    1.341    0.255
        28  -8.2941    168.5134    216.5082   1.1646560087e+02   4.1478616198e+00    0.1380888    0.1248713  44.57 -5.904601e-05    1.029    0.028
        29  -9.0682    233.2171    214.4648   1.0343819304e+02  -7.0404174304e+00     0.245419    0.1710564 -30.41  0.001402623    1.414    0.293
        30  -9.0726    240.4715    214.0477   1.0203934999e+02  -8.1562582541e+00    0.1920086    0.1166972 -31.76  0.001032843    1.600    0.375
        31  -9.3622    185.5297    213.1911   1.1242229882e+02   1.5847223945e+00    0.3217587    0.2234131 -54.72  0.001359398    1.733    0.423
        32 -10.7667    215.1600    209.7397   1.0594091943e+02  -3.2080180299e+00    0.4787172    0.3898582 -37.33  0.002805243    1.308    0.235
        33  -8.3754    131.6806    211.6400   1.2334827656e+02   1.1911427129e+01    0.1353757    0.1113778  -6.15 0.0007043353    1.766    0.434
        34  -8.6982    191.5784    209.1826   1.1047463210e+02   1.1734728722e+00    0.2503767    0.1348398 -46.50  0.001135627    2.044    0.511
        35  -9.4662    236.4501    207.5668   1.0153917619e+02  -6.5124399667e+00     0.374936    0.2137758 -45.90   0.00185659    2.051    0.512
        36 -11.0655    225.4701    195.4648   1.0121380428e+02  -2.6605483224e+00    0.5489962    0.3919049 -69.23  0.002590557    2.493    0.599
        37 -10.1523    249.9731    179.6393   9.3581529214e+01  -4.3143069654e+00    0.8713629    0.2207646 -37.35  0.002881273    3.692    0.729
        38 -11.6921    245.7448    203.8246   9.9143796868e+01  -7.4586431255e+00    0.9877117    0.5809743  55.23  0.004682874    2.624    0.619
        39 -11.7709    238.1029    189.4025   9.7667010983e+01  -3.8772435997e+00     1.287772    0.4578974 -29.36  0.004285697    3.845    0.740
        40 -11.3881    247.3226    192.4707   9.6635022163e+01  -5.9436505842e+00    0.6912829    0.4459461 -40.83  0.003503011    1.564    0.361
        41 -10.3762    246.1206    184.8258   9.5309959429e+01  -4.5069848157e+00    0.6544043    0.3220273 -53.62  0.002516082    3.403    0.706
        42 -10.6705    236.8831    196.8438   9.9373607932e+01  -4.8842058022e+00     0.380518    0.2653649  -8.23  0.001629872    1.576    0.365
        43 -10.6643    232.1763    195.1698   9.9905151996e+01  -3.7966759376e+00    0.3588487     0.293473 -61.96  0.002016826    1.697    0.411
        44  -9.8250    197.3129    205.3779   1.0861544924e+02   7.8050198844e-01    0.4153995    0.2226276  57.60  0.001672005    2.703    0.630
        45  -9.2626    211.0396    201.2125   1.0510766977e+02  -1.0285448263e+00    0.2392753    0.1966971 -29.97  0.001169379    1.225    0.184
        46  -8.5395    178.3531    199.6736   1.1141133791e+02   5.4405931529e+00    0.1455752    0.1125072  78.15 0.0007047199    1.766    0.434
        47  -8.9567    148.6148    196.7828   1.1722115312e+02   1.1798461741e+01    0.2005399    0.1374816 -63.48 0.0009261823    1.667    0.400
        48 -10.3793    216.7851    194.8423   1.0274393355e+02  -9.8018959685e-01    0.3163587    0.2999781  -5.75  0.001689723    1.086    0.079
        49  -9.2594    208.8492    194.4120   1.0420317139e+02   5.6972102151e-01    0.4351282    0.3009627 -85.55  0.001748594    3.296    0.697
        50  -8.8841    210.6710    190.1524   1.0299425245e+02   9.8778185907e-01    0.2154506     0.174307 -53.50 0.0007617153    1.438    0.304
        51 -10.7301    231.7984    186.9753   9.8328020356e+01  -2.3565921123e+00    0.3854784     0.346516 -26.80  0.002333801    1.115    0.103
        52 -10.0731    236.0833    181.8643   9.6498692411e+01  -2.2552013272e+00     0.272252    0.2393728 -65.56  0.001202506    1.489    0.329
        53  -8.2351     80.3234    181.6929   1.3007876798e+02   2.7266085411e+01    0.1449369   0.09601092  74.62 0.0003060727    1.645    0.392
        54 -10.4329    224.4924    191.4896   1.0060417220e+02  -1.8092594557e+00    0.3076341    0.2629805 -48.98  0.001778739    1.349    0.259
        55  -8.2153      9.7661    166.4108   1.4397301080e+02   3.9162673906e+01    0.1294056    0.1168259  -8.53 0.0006838071    1.652    0.395
        56  -8.5178    229.6896    153.4555   9.1605074719e+01   4.0038880785e+00    0.1843744    0.1367907  31.78 0.0009274765    1.485    0.327
        57  -8.2171     39.6968    153.3279   1.3558206739e+02   3.9308606887e+01    0.1332601   0.08720166  78.22 0.0005936917    1.647    0.393
        58  -9.2641    241.1260    149.4089   8.8707872581e+01   2.5026079503e+00     0.266348    0.2132265 -52.39 0.0008086312    1.312    0.238
        59 -10.1519    248.6098    143.2307   8.6110190559e+01   2.1696637163e+00    0.2575448    0.1914915 -20.31  0.001356879    1.420    0.296
        60  -8.9246    236.1816    146.5647   8.8934728944e+01   3.9800294788e+00    0.2620399    0.1429197  52.95 0.0009945767    2.105    0.525
        61  -8.0403    241.6580    137.7164   8.6044695815e+01   4.5002905755e+00    0.1401732     0.108943   4.44  0.000219013    1.636    0.389
        62  -8.8821    235.9527    130.1576   8.5304762128e+01   7.0238532202e+00    0.2163724    0.1861316 -71.07 0.0005695469    1.296    0.229
        63  -7.8211    231.4333    129.6961   8.5964274245e+01   8.0454816817e+00    0.3004612    0.1819239  44.76 0.0009610931    1.815    0.449
        64  -8.5874    186.6948    128.5344   9.4152381427e+01   1.8172051156e+01    0.2874773    0.1392449 -41.90  0.001072425    2.015    0.504
        65  -9.1522    200.9768    125.7165   9.0589731880e+01   1.5476328897e+01    0.3282068    0.1916818 -41.48   0.00138145    1.645    0.392
        66  -8.6237    212.4831    123.5384   8.7888341696e+01   1.3309095384e+01    0.1498206    0.1430115 -31.30 6.493567e-05    1.063    0.059
        67  -8.8941    232.2767    121.0448   8.3841243952e+01   9.4621053337e+00    0.2123062    0.1710479 -42.62 0.0005291781    1.136    0.119
        68  -9.1834    192.6015    118.5480   9.0486559772e+01   1.8829088035e+01    0.3763498    0.2468558 -87.06  0.001134427    2.574    0.612
        69  -8.5023    106.1482    116.8560   1.1070616841e+02   3.8248996090e+01    0.1956011    0.1705726 -21.03            0    1.270    0.212
        70  -8.5587    209.4754    114.0513   8.6158532632e+01   1.5809156881e+01    0.2298151    0.1432673 -41.07 0.0005062832    1.524    0.344
        71  -8.8854    153.3183    114.0082   9.7873702370e+01   2.8929929475e+01    0.2607706    0.1193387 -60.63 0.0006613907    4.174    0.760
        72  -8.4815    241.5093    112.4656   8.0404619196e+01   9.0674098104e+00    0.1431528     0.128261 -49.59 0.0002235618    1.005    0.005
        73  -9.0330     25.5670    111.3804   1.3275616838e+02   5.0431809542e+01    0.1943358    0.1561861  12.22  0.001195294    1.570    0.363
        74  -8.7641    237.0300    107.4958   7.9965645720e+01   1.0900184455e+01     0.206722    0.1424765  54.70  0.001026072    1.580    0.367
        75  -8.6112    197.3414    106.9802   8.6672653708e+01   1.9984901133e+01    0.2224272    0.1872521 -40.89 0.0006894935    1.164    0.141
        76  -8.6321    214.2079    104.7973   8.3070467993e+01   1.6465306687e+01    0.1933136    0.1768722   5.92 0.0004840682    1.296    0.228
        77  -8.4325    205.5049    105.5263   8.4792836861e+01   1.8345349709e+01    0.1506937     0.144437 -56.93 9.029829e-05    1.031    0.030
        78  -9.4655    246.7096    102.7839   7.7448120969e+01   9.6822584166e+00    0.2965866    0.2292097 -30.57  0.001236374    1.333    0.250
        79  -9.3649    228.7204    104.1704   8.0504013751e+01   1.3305178399e+01    0.2470066    0.1933564  76.45 0.0007326272    1.430    0.301
        80  -8.9363    205.6368     98.5212   8.3031165585e+01   1.9621659429e+01    0.3052481     0.239318 -26.61  0.001498372    1.419    0.295
        81  -8.3166    172.2809     96.6598   8.9012639399e+01   2.7973673169e+01    0.1599365    0.1195518 -72.51 0.0003899747    1.626    0.385
        82  -8.7691    150.8192     92.8695   9.2734466131e+01   3.3822698569e+01     0.226328    0.2126815   8.03   0.00048472    1.152    0.132
        83  -7.8061    174.2980     89.2998   8.6612429980e+01   2.8879315522e+01    0.1508254    0.1226439  15.62 0.0001966525    1.577    0.366
        84  -8.4862    227.4210     88.2894   7.6970362416e+01   1.6398791019e+01    0.2070183    0.1237086 -48.50 0.0009449823    1.560    0.359
        85  -8.8602    172.0437     84.0453   8.5643588277e+01   3.0392865596e+01    0.2529337     0.184698 -75.31  0.001130345    1.715    0.417
        86  -8.7252    196.5425     82.7302   8.0642253066e+01   2.4646764901e+01    0.2105937    0.1333178 -51.07 0.0009313455    1.590    0.371
        87  -8.2363    175.6741     79.3023   8.3619834265e+01   3.0352039693e+01    0.1567519    0.1162156 -77.22 0.0007031235    1.640    0.390
        88  -8.3846    240.2237     76.6885   7.2473662428e+01   1.5478639119e+01    0.2335556    0.1746976 -17.50  0.001120815    1.804    0.446
        89  -8.8667    157.9296     76.3956   8.6465016413e+01   3.5186781080e+01    0.2617676    0.2106057 -52.34  0.001305236    1.292    0.226
        90  -8.1607    208.2839     74.3360   7.6548695375e+01   2.3244883246e+01    0.1398608    0.1169425  15.11 0.0003778306    1.623    0.384
        91  -8.2918    196.6795     73.3440   7.8197481436e+01   2.6220616687e+01    0.1588307    0.1086103 -70.93 0.0007049809    1.726    0.421
        92  -9.9541    230.6342     71.5664   7.2591071626e+01   1.8459521767e+01    0.2737806    0.1587295 -43.63 0.0007784867    1.581    0.368
        93  -7.9586    107.3096     71.6732   9.7602679772e+01   4.7343993653e+01    0.1399211    0.1156622 -79.49  0.000703952    1.659    0.397
        94  -9.0744    215.0936     69.0957   7.4213485289e+01   2.2477347027e+01    0.2377636     0.158874 -70.06  0.001118842    1.673    0.402
        95  -8.3587    188.4471     69.4803   7.8603259446e+01   2.8879497782e+01    0.1486154    0.1373843 -81.60 0.0001854757    1.028    0.027
        96  -8.9530    239.3849     68.0530   7.0634865436e+01   1.7048325440e+01    0.1966082    0.1537302 -49.54 0.0004826009    1.161    0.139
        97  -9.4493     43.8388     68.1626   1.1688326897e+02   5.7885904734e+01    0.1854224    0.1305868 -23.07  0.001094147    1.376    0.273
        98  -8.2795    176.7766     67.4064   8.0150774155e+01   3.2097680792e+01    0.2025933    0.1325544  48.60 0.0003684189    1.544    0.353
        99  -8.6534    245.3172     65.9624   6.9433237150e+01   1.6068201293e+01    0.1948254     0.156352 -53.31 0.0005892356    1.106    0.096
       100  -8.6286    234.5425     66.4978   7.0903944686e+01   1.8378782920e+01    0.1393362     0.121985 -67.63 7.813348e-05    1.010    0.009
       101  -9.0353    203.1668     61.9206   7.4232107019e+01   2.6483199479e+01    0.3979883    0.1711074  59.39  0.001576865    2.237    0.553
       102  -8.3764    214.4837     61.9565   7.2564717420e+01   2.3752329800e+01    0.2068478     0.133331 -40.60 0.0004679625    1.513    0.339
       103  -8.5330    174.2237     59.4083   7.8414386106e+01   3.3997531512e+01     0.204291    0.1360829  73.66 0.0009361419    1.614    0.380
       104  -8.7831    225.3141     58.3382   7.0221277344e+01   2.1756618897e+01    0.1321492    0.1099041  25.11 0.0003436178    1.696    0.410
       105  -8.3382    147.3692     57.7986   8.3285117634e+01   4.0790559153e+01    0.2031856    0.1402578 -20.09 0.0009516029    1.715    0.417
       106  -8.8898    155.9420     54.2842   8.0451068818e+01   3.9258920978e+01    0.4600983    0.2425756  84.00   0.00142345    4.270    0.766
       107  -8.5573    140.3812     54.8212   8.3911767046e+01   4.2894750140e+01    0.2044353    0.1387192 -18.17 0.0009566477    1.766    0.434
       108  -8.8192    238.3223     54.3212   6.7691933703e+01   1.9385280455e+01    0.1250601    0.1065736  28.30 0.0004206799    1.675    0.403
       109  -8.7081    233.6639     53.7003   6.8107409171e+01   2.0529640085e+01    0.1270833    0.1058208  33.81 0.0007034149    1.657    0.397
       110  -8.2969    149.5105     52.5269   8.1243335070e+01   4.1070178866e+01    0.1435795    0.1346041  50.94 0.0003647444    1.021    0.020
       111  -8.2505    105.4933     52.4753   9.1857238222e+01   5.0906829490e+01    0.1378346    0.1262059  13.64 0.0008101347    1.003    0.003
       112  -8.7632    195.2104     50.3928   7.2505194751e+01   3.0159892220e+01    0.1980794    0.1279187  78.59 0.0005997262    1.616    0.381
       113  -8.9068    220.7022     45.0468   6.7702036430e+01   2.4779054855e+01    0.1890339    0.1656314 -66.97 0.0006154238    1.067    0.063
       114  -9.5695    105.8079     41.7336   8.8098965876e+01   5.2395373125e+01    0.4100348    0.1544821 -43.59  0.001520382    3.326    0.699
       115  -8.9050      4.8511     41.3096   1.2374192690e+02   6.6112040586e+01    0.1467894    0.1364283  13.24  0.001191934    1.458    0.314
       116  -8.9524    174.2227     40.3628   7.3138046202e+01   3.6722311318e+01    0.2625419    0.1780398  75.44  0.001307645    1.475    0.322
       117  -8.4408    165.4706     39.5182   7.4379400318e+01   3.8986004290e+01     0.140093    0.1281043  73.04 0.0001602525    1.011    0.011
       118  -8.6678    248.6273     37.9332   6.3045244471e+01   1.9435295844e+01     0.182509    0.1401724 -58.78 0.0005300722    1.121    0.108
       119  -8.4327    242.7808     37.7760   6.3597288361e+01   2.0738295611e+01    0.1809328    0.1250251 -67.22 0.0004029505    1.294    0.227
       120  -9.2373     95.5101     38.5030   8.9810940800e+01   5.4882351798e+01    0.1320935    0.1171591  15.71 0.0001509961    1.009    0.009
       121  -8.6257    229.5568     37.1727   6.4867650477e+01   2.3802260295e+01    0.2080739    0.1429216  67.62 0.0006909154    1.411    0.291
       122  -9.0494    111.7722     35.1765   8.4280203588e+01   5.2007882415e+01    0.2200634    0.1458572 -70.64 0.0009611378    2.876    0.652
       123  -8.6688    189.5734     44.4752   7.1822526573e+01   3.2381128727e+01     0.247616    0.1119993  53.19 0.0007333745    2.136    0.532
       124 -10.0024    242.9121    247.1339   1.0751114573e+02  -1.3087446895e+01    0.3241343    0.2465319 -34.00  0.001663308    1.541    0.351
       125  -9.2122    164.3004     32.4531   7.2565828824e+01   4.0159912748e+01    0.2271954    0.1873877 -34.57  0.000634797    1.329    0.247
       126  -8.6039    139.3236     32.3048   7.7115683179e+01   4.6176630466e+01     0.142654   0.09586039  32.02 0.0007032486    1.641    0.390
       127  -8.4622    170.5405     29.5059   7.0726165689e+01   3.8986131247e+01    0.1368553    0.1224418  75.37 0.0001288104    1.007    0.007
       128  -8.5154     91.3177     24.6421   8.5920175841e+01   5.7400838525e+01    0.1189676    0.1007396 -66.71 0.0007044485    1.756    0.430
       129  -8.4707    160.4668     34.0434   7.3677232218e+01   4.0901362632e+01    0.1878517    0.1382566 -30.15 0.0004968991    1.500    0.333
       130  -8.8478    220.8999     24.0000   6.2846905956e+01   2.7494043075e+01     0.212912   0.06660248  69.21 0.0008022194    2.941    0.660
       131  -8.7803    206.2091     20.5081   6.3645774338e+01   3.1370761367e+01    0.2074939    0.1766631 -53.53 0.0006096419    1.210    0.173
       132  -9.9037    241.5826    240.2467   1.0656861454e+02  -1.2006089514e+01    0.3064779    0.2440997 -12.83   0.00164886    1.190    0.160
       133  -8.8877    240.8759     18.3850   5.9708273282e+01   2.3644982119e+01    0.2034764     0.142894 -61.16 0.0005335134    1.226    0.184
       134  -8.2425    113.3119     16.3062   7.7363713136e+01   5.3767779708e+01    0.1349864   0.08434843  30.83  0.000272338    1.618    0.382
       135  -8.8450    106.7960     15.4227   7.8550518749e+01   5.5240324620e+01    0.1986024   0.09452872  45.34 0.0009569147    1.796    0.443
       136  -8.3424     87.3404     15.3120   8.3484985643e+01   5.9151194884e+01     0.133341   0.07956226  24.43 0.0007046097    1.696    0.410
       137  -8.7141     63.3013     15.6675   9.0984460282e+01   6.3335388329e+01    0.1025357   0.09467994 -49.65 0.0004554074    1.653    0.395
       138  -8.3891    175.6288     12.9144   6.5492840299e+01   3.9561366635e+01    0.1778854    0.1097219 -45.38 0.0009347796    1.732    0.423
       139  -8.9616    202.7864     11.3949   6.1872055408e+01   3.3196522115e+01    0.1887536   0.09913981  61.50 0.0009478563    1.719    0.418
       140  -8.1244    160.5167     10.5387   6.6948645375e+01   4.3434142742e+01    0.1310767    0.1121049  68.18 0.0002541943    1.009    0.008
       141  -9.1595    234.1106    247.6178   1.0915657082e+02  -1.1855991947e+01    0.3307971    0.1795424  45.37  0.001785291    2.024    0.506
       142  -9.2118    224.9882    245.9770   1.1052906915e+02  -1.0254119587e+01    0.2477469    0.1745807 -41.66  0.001114874    1.739    0.425
       143  -9.8612      4.8054    244.1217   1.5048146375e+02   2.3411777480e+01    0.2553466    0.1149813 -84.85  0.001579973    1.793    0.442
       144 -10.0435    249.0618    242.3009   1.0560489309e+02  -1.3360491492e+01    0.3618797    0.2465626 -43.08  0.001899653    1.939    0.484
