#   1 NUMBER                 Running object number                                     
#   2 MAG_AUTO               Kron-like elliptical aperture magnitude                    [mag]
#   3 X_IMAGE                Object position along x                                    [pixel]
#   4 Y_IMAGE                Object position along y                                    [pixel]
#   5 X_WORLD                Barycenter position along world x axis                     [deg]
#   6 Y_WORLD                Barycenter position along world y axis                     [deg]
#   7 A_WORLD                Profile RMS along major axis (world units)                 [deg]
#   8 B_WORLD                Profile RMS along minor axis (world units)                 [deg]
#   9 THETA_WORLD            Position angle (CCW/world-x)                               [deg]
#  10 FWHM_WORLD             FWHM assuming a gaussian core                              [deg]
#  11 ELONGATION             A_IMAGE/B_IMAGE                                           
#  12 ELLIPTICITY            1 - B_IMAGE/A_IMAGE                                       
         1 -14.9498      7.0312    147.0395   1.4486727327e+02   4.3906291071e+01     10.93942     4.083025  69.36   0.04687906    3.302    0.697
         2 -11.6185      2.7208     47.9206   1.3239329226e+02   6.6177604467e+01    0.4620974    0.1407157 -61.86  0.002166146    2.397    0.583
         3 -13.3880    211.3377      9.3297   6.1014373393e+01   3.0943546640e+01     1.217268    0.9409331  42.66  0.006927555    1.562    0.360
         4 -13.3424    195.7303     29.5354   6.8211129699e+01   3.2617641447e+01     1.484957     1.440585  23.71  0.007707205    1.191    0.160
         5 -12.0606      2.2744     10.6580   1.2067325721e+02   7.3216480545e+01    0.7025236    0.2221134 -51.99  0.003504064    2.538    0.606
         6 -10.3190    106.6618    248.2958   1.3360457944e+02   1.1241073534e+01    0.2790008     0.152058  65.99  0.001546538    2.012    0.503
         7 -11.7787    246.7403    248.0538   1.0869708320e+02  -1.0268902735e+01     0.456715    0.2750248  32.35  0.003056922    1.345    0.256
         8 -11.2280    123.6248    250.0142   1.3070885725e+02   8.3922443220e+00    0.4991227    0.1270246  42.45  0.002031204    2.948    0.661
         9 -10.3029    112.7256    250.3578   1.3271220514e+02   1.0002161738e+01    0.2902895    0.1211975  36.99 0.0009967068    2.235    0.553
        10 -10.6410     98.3159    248.3249   1.3510909324e+02   1.2470294890e+01    0.2247092     0.211716 -52.83  0.001661233    1.531    0.347
        11 -10.8274    100.9859    245.9853   1.3441102890e+02   1.2460729014e+01    0.2413909    0.1898342 -65.06 0.0006611968    1.565    0.361
        12 -10.5604     46.3202    249.2301   1.4421101351e+02   1.9281966223e+01    0.2585822    0.1576805  78.56  0.001491955    1.395    0.283
        13 -10.6417     29.3079    248.7633   1.4698312613e+02   2.1333276821e+01    0.4005538    0.1671797 -64.38  0.002386253    2.792    0.642
        14 -11.5927     34.2884    245.9821   1.4602459773e+02   2.1250028986e+01    0.5219852     0.325592 -78.31  0.003809236    1.617    0.381
        15 -11.1246      3.0364    248.1450   1.5109780030e+02   2.4173027031e+01    0.4095726    0.2430142  65.44  0.003227636    1.121    0.108
        16 -12.4122     11.7186    240.4727   1.4943687017e+02   2.4634368399e+01    0.6033127    0.2633827  86.14  0.003802167    1.967    0.492
        17 -11.1809    198.4927    245.5210   1.1657941424e+02  -2.8552545755e+00    0.2873721    0.2134064  71.30  0.001692816    2.427    0.588
        18 -11.0794     21.0714    243.8990   1.4808146967e+02   2.3067415040e+01    0.4117874    0.1147716  57.60  0.002096424    2.700    0.630
        19  -9.9845    183.2022    238.8115   1.1838141073e+02   4.6259666402e-01    0.1682281    0.1229032  21.31 0.0003432999    1.340    0.254
        20  -9.9797     22.2758    236.8380   1.4754326467e+02   2.4181443544e+01    0.1969009    0.1388933 -53.34  0.001391024    2.288    0.563
        21 -11.6708    139.6525    248.6043   1.2763888009e+02   6.1004775403e+00     0.416137    0.2993965  66.56  0.002698256    1.521    0.343
        22  -9.4677    218.3226    249.6518   1.1371259686e+02  -6.3724736227e+00    0.1030876   0.08537699  55.52 0.0007049249    1.743    0.426
        23  -8.7914     60.0429    227.0379   1.4027604891e+02   2.1519121706e+01     0.196872    0.1026407  66.13   0.00111996    1.730    0.422
        24  -9.8779    173.9552    222.6730   1.1775366942e+02   4.3391369352e+00    0.3129292    0.1293727  45.77  0.001401426    2.114    0.527
        25 -12.5184      9.2881    207.0127   1.4828619697e+02   3.1073736598e+01    0.6947396    0.4824323  38.42  0.004107515    1.649    0.394
        26 -12.5967     33.9652    232.9057   1.4534662277e+02   2.3604291548e+01    0.2754374    0.2258528 -86.05 0.0007710711    1.371    0.270
        27  -8.5399    152.4730    213.0093   1.2051994540e+02   9.6477471795e+00    0.1611812    0.1321026 -51.64  0.000343617    1.440    0.305
        28 -11.4763     60.7398    198.8450   1.3768910600e+02   2.6964056551e+01    0.2550538    0.2230425 -63.09 0.0005534209    1.429    0.300
        29 -11.3210     15.9052    197.5027   1.4652289315e+02   3.2334501161e+01    0.2949438    0.1628324  59.52  0.001888846    1.473    0.321
        30 -11.5969      5.9780    189.0013   1.4793410742e+02   3.4981270297e+01    0.3268698    0.2644221 -76.86  0.002520617    1.356    0.262
        31  -9.3368    191.9438    192.9354   1.0929571852e+02   5.8153796359e+00    0.2791857    0.1871238 -66.76  0.001286291    2.616    0.618
        32 -14.0902     39.3116    225.5296   1.4394940068e+02   2.4350947118e+01     1.033802    0.9363655 -54.36  0.005769052    1.719    0.418
        33 -11.7268     66.9899    190.5282   1.3552455226e+02   2.7870934713e+01    0.2605426    0.2221503 -79.91 0.0004488975    1.208    0.172
        34 -10.0313     54.3739    229.3027   1.4148751005e+02   2.1823788023e+01    0.2568197    0.1532885  71.12 0.0009948333    1.424    0.298
        35 -10.1384     55.8334    223.6539   1.4079353825e+02   2.2693107811e+01    0.3124876    0.2179192 -38.65  0.001425682    2.760    0.638
        36 -13.0385     63.8805    175.8676   1.3456030338e+02   3.1470033089e+01    0.4754587    0.2739952 -47.40  0.001532923    2.265    0.559
        37 -10.7130     77.1983    177.6637   1.3174573815e+02   2.9214715373e+01    0.2450204    0.2029487  64.59 0.0004087385    1.075    0.070
        38  -9.9486     97.9349    174.6984   1.2655521680e+02   2.6655648233e+01    0.2717201    0.1874211 -74.05  0.001424459    1.503    0.335
        39 -11.6398     84.8144    168.4691   1.2871692995e+02   3.0119688787e+01    0.6054553    0.5852183  53.02  0.003849847    1.229    0.186
        40  -9.8410     97.4129    152.4473   1.2306929486e+02   3.1735118448e+01    0.2923869    0.2593183 -54.63 0.0008760812    1.209    0.173
        41  -8.8785    100.4021    148.3434   1.2157483300e+02   3.2168643387e+01     0.196149    0.1665032 -23.88 0.0004880245    1.537    0.349
        42 -11.9052     86.0640    151.6739   1.2580118769e+02   3.3759775562e+01    0.2893943    0.2473784 -48.29 0.0005045399    1.317    0.241
        43 -12.1825     67.3337    143.8478   1.2935695630e+02   3.8343569263e+01    0.7166004    0.4771142  74.25  0.003413577    1.657    0.396
        44 -10.8561      5.0486    241.3876   1.5053487143e+02   2.5135808400e+01    0.2955868    0.1710636  32.20  0.001493183    2.228    0.551
        45  -9.5107    109.1867    137.5773   1.1720834131e+02   3.3080074155e+01    0.3880928    0.2599968 -22.20  0.001599409    2.507    0.601
        46 -10.2983     96.4717    134.6770   1.1997374553e+02   3.6015012624e+01    0.2558122    0.2324352 -26.83 0.0003743122    1.308    0.236
        47 -10.4871     32.8025    132.2514   1.3685085400e+02   4.5098836730e+01    0.2937422     0.158489  55.21  0.001517421    2.004    0.501
        48  -9.3666     89.2778    130.0269   1.2098813954e+02   3.8311880952e+01    0.2621364    0.1812131  61.17   0.00118085    1.599    0.374
        49 -10.2829     81.8880    249.1393   1.3809839900e+02   1.4678248420e+01    0.1889395    0.1195803  61.92  0.001251309    1.269    0.212
        50 -11.3659     22.1111    126.5442   1.3901710240e+02   4.7388404245e+01    0.4106139    0.1918689  53.78  0.001379014    2.402    0.584
        51  -8.8716    106.3989    124.0199   1.1501875872e+02   3.6719637443e+01    0.1988904    0.1723664 -58.46 0.0007276646    1.123    0.109
        52  -9.5993    167.8166    112.9614   9.6884359254e+01   2.5907029737e+01    0.3342315    0.2621439  88.90   0.00127204    1.639    0.390
        53  -9.0216    203.2181    111.5776   8.9281419342e+01   1.7842251005e+01    0.2091965    0.1392736  39.88 0.0004994661    1.607    0.378
        54  -8.6128     38.4853     94.5786   1.2911563267e+02   5.3373118357e+01    0.1277459     0.110118 -66.21 0.0001352067    1.035    0.033
        55  -9.5266    157.5167     76.0789   8.8835334087e+01   3.5484275637e+01    0.2401697    0.1532153 -37.93 0.0007689784    1.578    0.366
        56  -9.5342     43.2316     67.5857   1.2108254876e+02   5.8925206248e+01    0.2992022    0.1832164  51.80  0.001515591    2.288    0.563
        57 -11.5978      1.9843     59.0525   1.3513668833e+02   6.3890884216e+01    0.5420553    0.1845285 -72.47  0.002369972    2.905    0.656
        58  -8.8586     32.2694     62.4142   1.2389704102e+02   6.1112333905e+01    0.1518473     0.115298  38.09 0.0009379692    1.596    0.373
        59 -11.0922     14.1661     55.1714   1.2932524915e+02   6.4036839483e+01    0.2924647    0.1797863  39.30  0.001137113    2.097    0.523
        60 -10.2134    172.2974    248.2744   1.2165767228e+02   9.3913239248e-01    0.2034545    0.1479217 -83.22  0.001191009    2.486    0.598
        61  -9.4412    161.6665    249.6840   1.2376248404e+02   2.4430768195e+00    0.1171916   0.08199752  18.90 0.0007047167    1.689    0.408
        62 -10.6769    151.8110    247.5142   1.2528891367e+02   4.3251674656e+00      0.30366    0.1801598 -58.06  0.001780524    2.289    0.563
