#   1 NUMBER                 Running object number                                     
#   2 MAG_AUTO               Kron-like elliptical aperture magnitude                    [mag]
#   3 X_IMAGE                Object position along x                                    [pixel]
#   4 Y_IMAGE                Object position along y                                    [pixel]
#   5 X_WORLD                Barycenter position along world x axis                     [deg]
#   6 Y_WORLD                Barycenter position along world y axis                     [deg]
#   7 A_WORLD                Profile RMS along major axis (world units)                 [deg]
#   8 B_WORLD                Profile RMS along minor axis (world units)                 [deg]
#   9 THETA_WORLD            Position angle (CCW/world-x)                               [deg]
#  10 FWHM_WORLD             FWHM assuming a gaussian core                              [deg]
#  11 ELONGATION             A_IMAGE/B_IMAGE                                           
#  12 ELLIPTICITY            1 - B_IMAGE/A_IMAGE                                       
         1 -14.6300    164.3639    136.5999   6.2819868165e+01   2.2693341563e+01     1.527228     1.005058  69.90  0.006497335    2.823    0.646
         2 -14.9077    183.7836     99.4080   5.0315494810e+01   2.5065241886e+01     1.039036     1.002998  23.09  0.006296699    1.073    0.068
         3  -8.8553    130.4856    102.5064   6.2767626457e+01   3.5992254698e+01    0.1504446    0.1458781  30.06 0.0003761252    1.015    0.015
         4 -11.2410     16.0048    249.2456   1.0926328218e+02   2.2512216022e+01    0.2214627    0.1441282 -89.23  0.001712406    1.774    0.436
         5 -11.9669     17.2457    243.6777   1.0888951681e+02   2.3290983636e+01     0.227116    0.1806516 -41.18  0.001780087    1.992    0.498
         6 -12.0354     11.0787    239.3806   1.1000353422e+02   2.4521415195e+01    0.2708524    0.1716838  -2.46   0.00170369    2.692    0.628
         7 -12.8548      2.8419    235.4939   1.1155902829e+02   2.5844801946e+01    0.6102816    0.2263087 -85.50  0.003529732    2.952    0.661
         8 -11.1126     27.0041    243.5190   1.0696105114e+02   2.2441001003e+01    0.1850602    0.1131522 -55.83  0.001261044    2.408    0.585
         9 -10.2845     42.4214    239.2693   1.0369659968e+02   2.1653505056e+01     0.170366   0.09880751 -72.88  0.001143142    2.148    0.534
        10 -10.4332     59.6128    233.9904   9.9866005276e+01   2.0733562565e+01    0.2300135    0.1366975 -78.77   0.00150094    2.107    0.525
        11  -9.8633     36.3864    230.8044   1.0457914210e+02   2.3657330199e+01    0.1304542   0.09696195 -68.07 0.0009500301    1.739    0.425
        12 -11.0658     19.4497    229.5459   1.0806472492e+02   2.5451052909e+01    0.2091318     0.148591 -27.50  0.001392481    2.401    0.583
        13 -11.9488      4.3736    248.7018   1.1146792713e+02   2.3576151298e+01     0.452774    0.1983318  22.67  0.002772378    2.187    0.543
        14  -9.7652     50.5553    224.6817   1.0126023036e+02   2.3271486815e+01    0.1778178    0.1056792 -71.11  0.001132596    2.046    0.511
        15  -8.9623     37.6648    223.6829   1.0399496459e+02   2.4763299088e+01   0.09922948   0.08322604  -9.07  0.000600454    1.696    0.410
        16 -10.5444    123.9963    206.0050   8.3378287531e+01   1.7349415054e+01    0.1782856    0.1423523  30.67  0.001172222    1.003    0.003
        17 -11.2293    122.9854    182.2711   8.0436618949e+01   2.1564946336e+01    0.3338821    0.1445175 -36.63  0.001313791    3.519    0.716
        18  -9.5350    101.0070    175.8529   8.4845544964e+01   2.6088128536e+01    0.1925171    0.1476444  48.36            0    1.204    0.169
        19 -10.4628    148.4849    169.4953   7.2607567688e+01   1.9773440080e+01    0.1337637     0.115687  23.03 0.0008104851    1.002    0.002
        20 -12.1607    139.3828    165.6916   7.4008329839e+01   2.1945648484e+01    0.3040606    0.2602709  50.08  0.001696031    1.256    0.204
        21 -11.3564    154.1232    162.8804   7.0204427280e+01   1.9970431950e+01     0.202522    0.1817312  47.93 0.0009025756    1.259    0.205
        22  -9.0740    114.3036    159.6582   7.9064227095e+01   2.7247304550e+01    0.1403636    0.1026408  65.42 0.0007033039    1.680    0.405
        23 -10.1037    124.4759    161.9887   7.6915771657e+01   2.5113020977e+01    0.1957179    0.1379511 -50.48   0.00103502    1.600    0.375
        24 -11.3095    159.0118    155.7028   6.7813240462e+01   2.0363004265e+01    0.2006575    0.1638173  29.93 0.0009483741    1.109    0.099
        25 -12.1246    147.8075    150.1909   6.9244476147e+01   2.3304650297e+01    0.4923629    0.2257275 -28.15  0.001717004    3.724    0.731
        26 -13.1499    148.5163    144.0108   6.7862598537e+01   2.4306017529e+01    0.6057439    0.4513105 -85.97  0.002874844    2.307    0.566
        27 -13.6543    151.5097    138.6956   6.6089346143e+01   2.4727079166e+01     1.021429    0.6637032  81.74  0.003591207    4.241    0.764
        28 -10.1719    122.6350    151.0001   7.5455245660e+01   2.7582815433e+01     0.295251    0.1363037 -51.33  0.001212368    2.398    0.583
        29  -9.2890    117.6484    152.6704   7.7022410444e+01   2.8100095089e+01    0.1446819    0.1078046  -2.61 0.0007047527    1.771    0.435
        30 -14.8975    157.2380    120.8810   6.0871531093e+01   2.6870666905e+01     1.548491    0.7089282 -36.27  0.006181441    2.318    0.569
        31  -9.4161    117.5367    145.7564   7.5803834985e+01   2.9533362013e+01    0.2652904    0.1362824 -46.09  0.001140872    2.133    0.531
        32 -15.1050    172.0291    122.4439   5.8098043106e+01   2.3653523364e+01     2.108763       1.0224  53.23  0.008655466    2.424    0.587
        33 -11.0435     32.7874    248.3110   1.0598015491e+02   2.1140588518e+01    0.1735529    0.1411354 -75.90  0.001431334    1.631    0.387
        34 -13.2868    171.4646    129.2727   5.9748505561e+01   2.2605394007e+01    0.7056655    0.4909947  72.83  0.003201693    2.486    0.598
        35 -10.3026    134.9757    116.0007   6.4983492258e+01   3.2327287656e+01    0.2389943    0.1833011   0.33  0.001042306    1.684    0.406
        36 -10.7292     21.2519    248.9059   1.0824453074e+02   2.2104373930e+01    0.1754016    0.1246563  -0.17  0.001244349    2.143    0.533
        37  -9.9351    144.3763     90.8320   5.6161797845e+01   3.5205139092e+01    0.2191018    0.1424123 -26.93 0.0009463353    1.767    0.434
        38  -9.4388    133.6698    108.4922   6.3477788093e+01   3.4106585270e+01    0.2617775    0.1399208 -43.47  0.001071031    1.928    0.481
        39 -13.5919    147.0401    129.0624   6.5050966537e+01   2.7373117727e+01    0.9237495    0.3360969 -42.23  0.003331063    2.878    0.653
        40 -12.0920    138.3613    144.1905   7.0282142598e+01   2.6125196582e+01    0.3124667    0.2763032  25.79  0.001309292    1.049    0.047
