#   1 NUMBER                 Running object number                                     
#   2 MAG_AUTO               Kron-like elliptical aperture magnitude                    [mag]
#   3 X_IMAGE                Object position along x                                    [pixel]
#   4 Y_IMAGE                Object position along y                                    [pixel]
#   5 X_WORLD                Barycenter position along world x axis                     [deg]
#   6 Y_WORLD                Barycenter position along world y axis                     [deg]
#   7 A_WORLD                Profile RMS along major axis (world units)                 [deg]
#   8 B_WORLD                Profile RMS along minor axis (world units)                 [deg]
#   9 THETA_WORLD            Position angle (CCW/world-x)                               [deg]
#  10 FWHM_WORLD             FWHM assuming a gaussian core                              [deg]
#  11 ELONGATION             A_IMAGE/B_IMAGE                                           
#  12 ELLIPTICITY            1 - B_IMAGE/A_IMAGE                                       
         1 -13.6006    242.6252     49.4492   1.3958424160e+01   2.2991917252e+01    0.8812301    0.7512956  64.69  0.007048992    1.574    0.365
         2 -13.5286      2.6553      7.3098   6.6800770364e+01   7.7334239268e+01     1.070042    0.9960089  54.29  0.007745772    1.418    0.295
         3  -9.5471    236.3287    249.6603   4.7425523417e+01  -3.9968943856e+00   0.08084763   0.07518979  -1.63 0.0004990627    1.737    0.424
         4  -9.8638     61.2018    250.1898   8.2563003696e+01   1.3815127295e+01    0.1802935    0.1177824  45.31  0.000820987    1.338    0.253
         5 -12.2620     34.6212    164.9987   8.2783813280e+01   3.6226671934e+01    0.5998641    0.4433201 -14.99  0.000605895    1.678    0.404
         6 -11.8609     43.0354    160.0217   7.9508462791e+01   3.6622057179e+01    0.3721668    0.3065666  -7.58 0.0004438885    1.414    0.293
         7 -16.5440      8.6350    174.6036   9.1732044471e+01   3.6051846700e+01     11.61577     3.826326 -89.17   0.04116934    3.326    0.699
         8 -11.5810     76.8726    222.6813   7.6404300242e+01   1.7600122694e+01     0.364408    0.2321785 -77.45  0.001590144    1.948    0.487
         9 -11.7845     41.9364    228.6212   8.5780113454e+01   2.0201536143e+01    0.3985341    0.2070469  75.82  0.001455821    2.347    0.574
        10 -11.0081     58.3522    194.5925   7.8552596318e+01   2.6133212786e+01    0.3772057    0.2104015 -85.89  0.001669439    2.209    0.547
        11  -8.7298     99.3515    181.2720   6.5419863586e+01   2.3807251169e+01    0.1445333    0.1087026  -9.09 0.0006998398    1.633    0.387
        12 -13.8592      3.6204    218.8572   9.5036819464e+01   2.5834736811e+01     1.432383    0.8219008  78.98  0.006065829    1.718    0.418
        13 -11.3942    245.5539    161.1113   3.3151292883e+01   6.9626278736e+00    0.2115577      0.13665 -35.12  0.001473936    1.212    0.175
        14 -13.6116     67.6547    145.2758   6.9305108180e+01   3.7310278474e+01     1.310147    0.9596233  82.87  0.003703819    1.583    0.368
        15 -12.2016    235.4559    157.2052   3.3841206724e+01   8.7188404943e+00    0.4710181    0.1880606 -47.83  0.002368724    2.412    0.585
        16 -11.8839     56.9116    151.0789   7.3759621165e+01   3.7278381503e+01    0.6042613    0.3797784 -70.27  0.000865819    1.661    0.398
        17 -13.1493     41.2706    147.5015   7.8615166303e+01   4.0131726645e+01    0.6308688    0.3940085  -1.67  0.001447016    2.111    0.526
        18 -11.1912    242.8832    143.1577   3.0537970773e+01   9.8782510199e+00    0.1681665    0.1319385 -49.82  0.001234764    1.252    0.201
        19 -10.6424    249.5329    142.9996   2.9703713254e+01   9.0890299263e+00    0.1742418    0.0835177 -40.22  0.001038189    1.612    0.380
        20 -10.8173     85.2384    136.7240   6.2090442611e+01   3.6758241338e+01    0.3169414    0.3008737  63.29 0.0008360096    1.029    0.028
        21  -9.3690     89.6504    134.0336   6.0184055096e+01   3.6684644388e+01    0.2092526    0.1927734 -60.62 0.0004310073    1.122    0.108
        22 -12.0192     72.0990    133.6824   6.5821589627e+01   3.9630182202e+01    0.3581023     0.332704   2.68 0.0004016401    1.176    0.149
        23 -11.4171    243.5679    132.6978   2.8688613608e+01   1.1318446539e+01    0.2329816    0.1388565  43.51  0.001516014    2.139    0.533
        24  -9.7349    101.6547    127.6685   5.5236319826e+01   3.6106694361e+01    0.3884755    0.2509246  17.99  0.001265939    2.119    0.528
        25 -10.0418    105.7037    130.8042   5.4714125662e+01   3.4632743536e+01      0.36396    0.2845988 -70.68  0.001352153    1.400    0.286
        26 -10.3124     87.4968    122.7437   5.8563110817e+01   3.9826820050e+01    0.2840338    0.2614813  23.80 0.0005722126    1.141    0.123
        27 -12.1521     51.6372    109.9592   6.8798314846e+01   4.8780790740e+01    0.7443028    0.3466428 -73.59  0.002683132    2.685    0.628
        28  -9.5434    101.0445    116.8567   5.3054496015e+01   3.8759378409e+01    0.2197895    0.2085999  57.49 0.0003367639    1.016    0.016
        29  -9.9260    231.3354    114.0774   2.6885263308e+01   1.5756434773e+01    0.1869312    0.1668324 -86.94 0.0007832768    1.313    0.238
        30 -10.5905    139.9650    249.4350   6.4729477752e+01   5.2517426135e+00    0.2531689    0.1225651  38.32  0.001324855    2.041    0.510
        31 -10.5402    245.5017    104.5051   2.3594340232e+01   1.5125952616e+01    0.1109437    0.0856244 -46.26 -0.0001664171    1.006    0.006
        32  -8.9906    204.5508    110.8713   2.9772134301e+01   2.0435748579e+01    0.2589368    0.1388835  36.37  0.001249794    2.785    0.641
        33 -10.6094     52.9629     90.5142   6.4003920499e+01   5.3496285105e+01     0.291379    0.1990253 -42.70 0.0009163329    1.589    0.370
        34  -9.1494    184.5380     77.4714   2.5648582318e+01   2.9483830949e+01    0.1282117     0.111128 -64.78  3.22945e-05    1.020    0.020
        35 -13.2326    224.1767     61.8124   1.7814175242e+01   2.4457045042e+01    0.9425803    0.7423579  85.75  0.006812357    1.336    0.251
        36  -9.9071    249.4937    249.5234   4.5482983294e+01  -4.9931507242e+00    0.1622077   0.07334442  10.61  0.001037497    2.340    0.573
        37 -11.3254     13.2006     60.1984   7.6716426854e+01   6.5478652235e+01      0.33252     0.249508 -56.38 0.0008259778    1.303    0.233
        38  -9.9968     22.4153     62.9550   7.2052164208e+01   6.4003821446e+01    0.2629829    0.1721474  40.47 0.0007750671    1.574    0.365
        39 -13.3059      9.4808    207.4959   9.3080023075e+01   2.7954268209e+01    0.8994148    0.6159077   5.74  0.003610012    1.678    0.404
