#   1 NUMBER                 Running object number                                     
#   2 MAG_AUTO               Kron-like elliptical aperture magnitude                    [mag]
#   3 X_IMAGE                Object position along x                                    [pixel]
#   4 Y_IMAGE                Object position along y                                    [pixel]
#   5 X_WORLD                Barycenter position along world x axis                     [deg]
#   6 Y_WORLD                Barycenter position along world y axis                     [deg]
#   7 A_WORLD                Profile RMS along major axis (world units)                 [deg]
#   8 B_WORLD                Profile RMS along minor axis (world units)                 [deg]
#   9 THETA_WORLD            Position angle (CCW/world-x)                               [deg]
#  10 FWHM_WORLD             FWHM assuming a gaussian core                              [deg]
#  11 ELONGATION             A_IMAGE/B_IMAGE                                           
#  12 ELLIPTICITY            1 - B_IMAGE/A_IMAGE                                       
         1 -16.3295    100.0288    155.1286   8.6382474786e+01   2.9656114089e+01      5.45645     3.706274  14.80   0.02310873    1.829    0.453
         2 -16.3856     95.5619    127.4434   8.1532029889e+01   3.7474520180e+01     3.255579     2.546328 -16.82   0.01509152    1.483    0.326
         3 -14.2973     98.3460      4.1281   4.1085735890e+01   5.7922352967e+01      1.08401    0.7106244  67.79  0.006372287    1.396    0.284
         4 -13.6343    185.6977      4.9410   2.9150257430e+01   3.7978793803e+01     1.398255    0.5021835  83.43  0.005922981    2.989    0.665
         5 -10.6226     25.3963      4.2222   6.6322130002e+01   7.1664491095e+01    0.4063247    0.1992461  22.57  0.001906068    1.909    0.476
         6 -12.1539    126.7980      2.5222   3.5426853390e+01   5.1584608961e+01     0.484447      0.19957  67.84   0.00229353    1.989    0.497
         7 -10.5017      6.3616     12.6083   8.1689727945e+01   7.2795671210e+01    0.3694339    0.1814487  13.56  0.002106593    1.889    0.471
         8 -10.7686     41.0884      2.5468   5.7955790142e+01   6.9428819783e+01     0.412947    0.1577426  36.02  0.002003745    2.210    0.548
         9 -10.3614     10.1361      1.5781   7.3619728841e+01   7.3876391930e+01    0.4248182    0.1045375  31.80  0.001795899    3.641    0.725
        10  -9.4040    245.2595    244.6015   7.0214616971e+01  -1.0957258051e+01    0.2144901    0.1098526 -19.66  0.001136903    1.784    0.440
        11  -8.9815    250.6693    250.3089   7.0211041871e+01  -1.2299051498e+01   0.09465025   0.08635132  -4.96 0.0007040919    1.666    0.400
        12  -9.3917    233.9970    251.0000   7.3280578984e+01  -1.0640348403e+01    0.1803182   0.05815124  29.31 0.0008060999    2.968    0.663
        13 -10.5351    151.7760    249.6618   8.9676639856e+01   9.6157591663e-02    0.2664755    0.1834087  35.53 0.0009888755    1.338    0.253
        14 -11.0391    127.3582    249.1081   9.4992624786e+01   3.6973523300e+00    0.3912854    0.2725064  66.51  0.002024805    2.075    0.518
        15 -10.9598     72.2408    248.6726   1.0721849553e+02   1.1445249240e+01    0.7106867    0.2174436  46.65  0.002720003    3.003    0.667
        16 -10.9671     64.7285    249.0856   1.0889453252e+02   1.2326993096e+01    0.4143322    0.2275819  50.04  0.002179397    1.618    0.382
        17 -11.2352     35.7279    249.0721   1.1503253067e+02   1.5798094199e+01    0.5694475    0.2146043  48.63  0.002692672    2.205    0.546
        18 -10.9353     28.5265    241.2528   1.1598978131e+02   1.8231641619e+01    0.4874806    0.2850271  69.95  0.002758954    1.598    0.374
        19 -10.2919     19.5218    249.6540   1.1834405902e+02   1.7417585832e+01    0.3229187    0.1522033  46.32  0.001565569    1.709    0.415
        20 -10.5143     63.7537    240.1446   1.0827649222e+02   1.4326301572e+01    0.4236444    0.2206451  46.64  0.002120247    1.689    0.408
        21 -11.0849     43.3839    237.2723   1.1252328758e+02   1.7430793685e+01    0.4833486    0.1817599  40.46  0.002195477    2.188    0.543
        22 -12.1402     56.3108    242.0826   1.1010186799e+02   1.4846263709e+01    0.5776979    0.3143257  50.83  0.001981106    1.644    0.392
        23 -11.1290     51.7607    236.5017   1.1061345482e+02   1.6605319690e+01    0.3702938    0.1855875  63.52  0.001717489    2.213    0.548
        24 -10.1898    236.1883    243.8792   7.1710782336e+01  -9.8713880677e+00     0.254423    0.1471359  16.33  0.001518228    1.603    0.376
        25 -11.3675     15.4191    240.7241   1.1865019924e+02   1.9698032164e+01    0.5840075    0.2422401  44.50  0.003029279    1.956    0.489
        26 -10.4557      2.7956    243.3070   1.2128712864e+02   2.0363093854e+01     0.329703    0.1637946  55.92   0.00190656    1.639    0.390
        27 -10.5748     72.9528    240.5100   1.0624866795e+02   1.3054278059e+01     0.435196    0.2681102  39.37  0.001974824    1.415    0.293
        28  -9.8624    129.4585    241.2306   9.3443575477e+01   4.8963149192e+00    0.1688828    0.1344431 -74.93 0.0009440045    1.657    0.397
        29 -10.3560     37.5306    240.6107   1.1404559877e+02   1.7378932032e+01    0.3001555    0.1558663  43.60  0.001601685    1.631    0.387
        30  -9.6679    139.6554    240.3341   9.1006197940e+01   3.5648960185e+00    0.1360904    0.1001771  58.28 0.0007049901    1.764    0.433
        31 -10.1381    120.8654    239.7651   9.5201902551e+01   6.4500828011e+00    0.2568468    0.1669636  46.81  0.001179599    1.542    0.352
        32 -11.2825     94.1605    236.8347   1.0098693405e+02   1.0925485619e+01     0.625399    0.3654436  73.45  0.002718929    2.660    0.624
        33 -10.8242     87.6306    232.1027   1.0194062228e+02   1.2860473263e+01    0.3381569    0.2187972  50.58   0.00130606    1.489    0.328
        34  -9.4313    248.8639    237.8738   6.8462337640e+01  -1.0391504251e+01    0.1914787    0.1247705  -9.67  0.001236856    1.251    0.201
        35 -10.9013     82.3338    237.2430   1.0376360046e+02   1.2488169441e+01     0.254106    0.2347835  62.36  0.001614288    1.064    0.060
        36  -9.8719    143.3061    236.6517   8.9633996846e+01   3.7275867717e+00    0.1327243    0.1039253  61.68 0.0007042424    1.701    0.412
        37  -9.1589    131.6412    235.8322   9.2174023516e+01   5.6308374477e+00    0.1755341    0.1324806 -68.00 0.0009390319    1.701    0.412
        38  -9.8404      5.5523    235.3324   1.2034280479e+02   2.1795290070e+01    0.2537264    0.1864085 -30.40   0.00156475    2.169    0.539
        39 -11.0485     58.7108    232.9882   1.0872832121e+02   1.6520407152e+01    0.5663615     0.282222  36.65  0.002756796    1.778    0.438
        40 -10.4815     47.8260    230.4433   1.1095945013e+02   1.8415503185e+01    0.4359266    0.1791063  42.40  0.001980514    2.079    0.519
        41 -10.6580    232.8808    233.7277   7.0598623620e+01  -7.9981700935e+00    0.3007248    0.1671852  14.78  0.001663829    1.805    0.446
        42 -10.5866     13.7678    232.2103   1.1848746473e+02   2.1695653048e+01    0.3314098    0.2301302  65.67  0.001530868    1.200    0.166
        43 -11.3527     73.7023    229.8028   1.0494027470e+02   1.5280391967e+01      0.52765    0.3431817  65.83  0.002705834    1.682    0.405
        44 -10.6054    116.2382    244.9733   9.6948043052e+01   6.0962652374e+00    0.3463196    0.2142289  52.79  0.001319933    1.805    0.446
        45 -11.2930    117.7600    230.4753   9.4632816549e+01   8.8062421052e+00    0.3107375    0.2396108  50.60  0.001697669    1.340    0.254
        46 -11.2223     81.6424    229.6748   1.0306153843e+02   1.4226848658e+01    0.3491585    0.2329867  62.24  0.001161715    1.616    0.381
        47 -10.3128     37.0691    231.2701   1.1342774374e+02   1.9471808206e+01    0.4207532    0.1699456  32.42  0.001926356    2.289    0.563
        48 -10.4179     25.9783    229.2052   1.1569745646e+02   2.1131723131e+01    0.4074044    0.1826472 -88.07  0.001889074    2.357    0.576
        49  -9.9948      3.1260    227.5966   1.2042596605e+02   2.3697710261e+01    0.3310043    0.2036234 -69.21  0.001674812    1.598    0.374
        50 -10.0748     95.3805    228.4974   9.9665099857e+01   1.2540565659e+01    0.2539949    0.1739377 -68.14  0.001265173    1.637    0.389
        51 -10.8933    111.0053    224.9828   9.5458707065e+01   1.0992011866e+01    0.2580998    0.1994503  84.28  0.001346808    1.660    0.397
        52 -10.0242     10.2222    225.8514   1.1884956805e+02   2.3437892928e+01    0.2692468    0.1265099  47.13  0.001419929    1.824    0.452
        53 -10.9926     52.4109    223.3124   1.0924762835e+02   1.9480192864e+01    0.3261658    0.2979193 -35.82  0.002054701    1.349    0.259
        54  -9.9551    100.4944    222.9806   9.7711141311e+01   1.3005182692e+01    0.2015994    0.1397267 -62.15 0.0009957199    1.570    0.363
        55 -10.9802     77.5148    223.4943   1.0331838805e+02   1.6179693160e+01      0.40377    0.1586118  46.27   0.00158781    2.463    0.594
        56 -12.0921     70.9683    221.4070   1.0464808008e+02   1.7544628869e+01     0.467516     0.352862  81.12  0.002573821    1.402    0.287
        57 -12.2924     66.6525    214.6603   1.0492177013e+02   1.9690797693e+01    0.5121989    0.2850795  50.52  0.002397751    1.762    0.433
        58 -11.9889     34.0400    219.0284   1.1311529572e+02   2.2590970673e+01    0.7178714    0.3358916  58.37  0.003291091    2.171    0.539
        59 -10.4373     42.3780    221.5695   1.1141501968e+02   2.1069579954e+01    0.3684609     0.193883  44.80  0.001579765    1.701    0.412
        60 -11.2038     62.4602    221.2946   1.0667198020e+02   1.8687052184e+01    0.2679749     0.234174  58.88  0.001039991    1.030    0.030
        61 -10.4503     18.0612    221.0455   1.1685527474e+02   2.3774505707e+01    0.3340206    0.1793149  62.49  0.001414383    1.728    0.421
        62 -11.4714     12.5097    216.8753   1.1779519139e+02   2.5259301484e+01    0.6203162    0.2402478  43.86  0.002759251    2.223    0.550
        63 -12.4370     55.5910    213.3128   1.0747446517e+02   2.1427363705e+01    0.7522581    0.2560044  35.22  0.002950752    2.585    0.613
        64 -11.1328     49.8390    207.3153   1.0824803344e+02   2.3570466035e+01    0.3812875    0.2156169  63.47  0.001766286    1.933    0.483
        65 -11.2094    101.1307    212.2453   9.6043322115e+01   1.5337344082e+01    0.2748727    0.1853885  78.27  0.001234695    2.078    0.519
        66 -10.7162     27.8781    212.3924   1.1399072802e+02   2.4800530583e+01    0.3236388    0.1821622  47.33   0.00166591    1.626    0.385
        67 -10.1332     20.3097    211.9321   1.1569937767e+02   2.5668663443e+01    0.2981941    0.1382234  47.28  0.001452122    1.952    0.488
        68  -9.4594      1.3868    211.7986   1.1991262940e+02   2.7410346510e+01    0.1739397   0.09331178 -69.20 0.0009447822    1.707    0.414
        69 -11.7215     81.3939    208.8774   1.0053262247e+02   1.9042105052e+01    0.3193014    0.2261817 -82.01  0.001593321    1.583    0.368
        70  -9.5741    128.5097    206.9933   8.8408202098e+01   1.2203609213e+01    0.2113449    0.1461339 -54.14 0.0005444201    1.541    0.351
        71 -10.3766     41.3091    206.3805   1.1024860950e+02   2.4790441184e+01      0.27638    0.1746504  50.26  0.001161481    1.493    0.330
        72  -9.9321      3.5551    206.3692   1.1910741566e+02   2.8493407881e+01    0.3603365    0.1180361 -69.62  0.001564705    2.554    0.609
        73 -11.0118     11.4220    204.4839   1.1719684306e+02   2.8262292243e+01    0.5181316    0.2375311  37.24  0.002585172    2.051    0.512
        74 -11.5193     73.0056    203.5793   1.0196869009e+02   2.1496563846e+01    0.2910396    0.2184386 -69.95  0.001523874    1.343    0.255
        75 -11.4464     58.8020    203.5794   1.0558988229e+02   2.3376424650e+01    0.2941882    0.1850946  58.18  0.001424136    1.641    0.391
        76 -10.5630     36.4288    201.9745   1.1101789944e+02   2.6406249946e+01    0.2687592    0.1578174  48.02 0.0009939261    1.618    0.382
        77  -9.8287     30.7599    202.4608   1.1245176634e+02   2.6889286643e+01    0.2383899    0.1134574  35.25  0.001113284    2.008    0.502
        78 -11.3165     15.8169    196.7778   1.1558577573e+02   2.9729437493e+01    0.4411808    0.2240314  46.83  0.001547105    1.867    0.464
        79 -10.9859     28.0480    192.8254   1.1223229769e+02   2.9545090721e+01    0.3380862    0.2007282  40.24   0.00123206    1.650    0.394
        80 -13.1046     37.6622    194.1452   1.0992635547e+02   2.8213554414e+01     1.531769    0.3519944  41.51  0.005109377    3.707    0.730
        81 -10.1679     22.6482    198.0801   1.1404024330e+02   2.8773522683e+01    0.2634293    0.1496425  48.64   0.00125765    1.676    0.403
        82 -10.6493      3.7252    197.3370   1.1848474562e+02   3.0626422627e+01     0.482024    0.2250064  42.77  0.002444729    2.007    0.502
        83  -9.2603      7.6343    194.2970   1.1735474401e+02   3.1042525764e+01    0.1387721   0.07724991  61.06  0.000703158    1.722    0.419
        84  -9.1339     11.1367    191.1671   1.1627755633e+02   3.1515655655e+01    0.1844261    0.1286321  63.72  0.001058713    1.336    0.252
        85 -11.3616    145.0658    248.1596   9.0931782441e+01   1.3233125221e+00    0.3258589     0.257181  39.04  0.001480823    1.261    0.207
        86  -9.2223      2.0823    153.4882   1.1544003763e+02   4.1703582411e+01    0.1691276    0.1326201  18.87 0.0008078712    1.539    0.350
        87  -9.4799     23.2293    187.1989   1.1292515910e+02   3.1423416907e+01    0.1911892    0.1375703  66.75  0.001060167    1.332    0.249
        88 -13.1785     60.1276    119.5972   9.1444312212e+01   4.5054796815e+01    0.5293597    0.3431536 -46.15  0.002188198    1.428    0.300
        89 -11.6873     49.0888    121.6990   9.5756471570e+01   4.5907916299e+01    0.3387863    0.2591916 -13.48  0.001566086    1.471    0.320
        90 -10.0164      3.5803    188.8480   1.1793277094e+02   3.2698624008e+01    0.3131421    0.1486411  36.26  0.001573314    2.083    0.520
        91 -15.7187    125.5767    103.0460   6.6236814775e+01   3.7194254662e+01     2.162934     1.481354  51.33   0.00967192    1.530    0.347
        92 -13.1140     70.7664     95.2619   8.1484340465e+01   4.9414814319e+01    0.4986464    0.4046418  47.85  0.002556591    1.421    0.296
        93 -12.1173     48.4843     91.3291   8.8855512318e+01   5.3472510874e+01    0.4675406    0.3704637 -78.54  0.002427332    1.646    0.393
        94 -10.0679     10.0391    183.4221   1.1593265694e+02   3.3528278881e+01    0.2695684    0.2086752  37.90   0.00108059    1.390    0.281
        95 -11.5287    108.4604    243.4053   9.8513274426e+01   7.5288120373e+00     0.680854    0.4413839  83.32  0.003232394    2.454    0.593
        96  -9.3665      1.3777    177.2099   1.1762030484e+02   3.5741494596e+01    0.1882834    0.1025753  89.66  0.000946411    1.648    0.393
        97 -10.0771      8.1070    155.0694   1.1388842938e+02   4.0897020813e+01     0.254728    0.1869321  32.10 0.0009457435    1.539    0.350
        98  -9.2702     11.6020     39.1853   8.9732039367e+01   6.8005574136e+01    0.1787798   0.08681159 -38.89 0.0009419494    1.689    0.408
        99  -9.4093     11.0809     25.9850   8.4881414903e+01   7.0323618024e+01     0.202628    0.1105801 -16.40  0.001124314    1.740    0.425
       100  -9.6119     10.1636    248.9060   1.2013693372e+02   1.8507799273e+01     0.190125    0.1196187  62.76  0.001027697    1.284    0.221
       101  -9.8057     19.2750     14.8489   7.5107317172e+01   7.1148038533e+01    0.2707639    0.1282102  17.81  0.001402342    2.108    0.526
       102 -10.9501     84.4643    245.7578   1.0421268406e+02   1.0414840968e+01    0.2991344    0.2326638  79.14   0.00177307    1.419    0.295
       103 -10.0128     77.1626    246.9243   1.0596087922e+02   1.1156402052e+01    0.2094682    0.1513674  58.86 0.0008255391    1.330    0.248
       104 -11.1185     44.4577    245.0336   1.1290805397e+02   1.5643983310e+01    0.4639429     0.224177  50.81  0.001940274    1.807    0.447
       105  -9.8478    214.4390    246.5199   7.6212633361e+01  -7.7362258161e+00    0.2305175    0.1006387  18.73  0.001045846    2.514    0.602
       106  -9.9084     98.1408    245.2727   1.0108095453e+02   8.6211513642e+00    0.2480561    0.1602736  70.73  0.001230867    2.067    0.516
