#   1 NUMBER                 Running object number                                     
#   2 MAG_AUTO               Kron-like elliptical aperture magnitude                    [mag]
#   3 X_IMAGE                Object position along x                                    [pixel]
#   4 Y_IMAGE                Object position along y                                    [pixel]
#   5 X_WORLD                Barycenter position along world x axis                     [deg]
#   6 Y_WORLD                Barycenter position along world y axis                     [deg]
#   7 A_WORLD                Profile RMS along major axis (world units)                 [deg]
#   8 B_WORLD                Profile RMS along minor axis (world units)                 [deg]
#   9 THETA_WORLD            Position angle (CCW/world-x)                               [deg]
#  10 FWHM_WORLD             FWHM assuming a gaussian core                              [deg]
#  11 ELONGATION             A_IMAGE/B_IMAGE                                           
#  12 ELLIPTICITY            1 - B_IMAGE/A_IMAGE                                       
         1 -10.4979     33.0176     63.8773   1.1145053828e+02   6.0035025822e+01     1.313713     0.568118 -21.48  0.004763334    4.208    0.762
         2 -10.6749     37.3503      9.8515   8.9954001450e+01   6.7357732583e+01    0.7283716     0.334175 -38.57  0.002524653    2.776    0.640
         3 -10.1207     27.4455     11.3136   9.4673357262e+01   6.8476256185e+01    0.6815967    0.4076325  26.55  0.004585498    1.457    0.314
         4 -10.2663     18.0712      5.6048   9.6330591029e+01   7.0187661497e+01    0.5267305    0.4175954 -29.16  0.003507331    1.632    0.387
         5 -11.0528     23.6223     32.6311   1.0488144288e+02   6.6155996168e+01      1.26441    0.4746997 -31.48  0.003967729    2.628    0.620
         6 -10.2228      5.0795     42.4296   1.1638787113e+02   6.6179518683e+01    0.6204442    0.3129956 -52.86  0.002033199    1.928    0.481
         7 -10.7299      6.6744     29.8979   1.1147084762e+02   6.8070427683e+01    0.5575489    0.3706844 -39.53  0.002457968    1.378    0.274
         8 -10.4240      5.2773      4.6178   1.0200867711e+02   7.1586141406e+01     0.444059    0.3051889   6.41  0.001641261    1.166    0.142
         9  -9.8897     60.7360     31.9887   9.0084171652e+01   6.1397675853e+01    0.7590436    0.3394315 -23.88  0.003567607    2.603    0.616
        10  -9.9332     63.8440      3.0662   7.7883211198e+01   6.3858181627e+01    0.4000024    0.2471414 -31.21  0.002554842    1.940    0.484
        11 -10.0854     51.7761     14.4146   8.6419893256e+01   6.4797236148e+01     1.935478    0.9095395   7.75  0.007747917    4.246    0.764
        12 -10.0381     46.3121     29.7844   9.4518749017e+01   6.3816776913e+01    0.4349147    0.2911621 -32.65 0.0009596262    1.534    0.348
        13  -9.6263     63.0028     21.0182   8.5158276499e+01   6.2313275630e+01    0.4174638     0.240441 -42.20  0.001659381    2.349    0.574
        14  -9.6813     64.5873     13.3694   8.1689107454e+01   6.2825158431e+01    0.2781486    0.2321905   2.07  0.000240929    1.171    0.146
        15  -8.2869     71.7591      8.5645   7.7663780417e+01   6.2007826050e+01    0.2122293    0.1445927 -10.33 0.0008701505    1.565    0.361
        16 -10.3372     73.6983     17.1751   8.0332355320e+01   6.0865857341e+01     1.125056    0.3501965 -21.76  0.004038106    4.498    0.778
        17  -9.2285     78.2160      4.0671   7.4187155869e+01   6.1195305281e+01     0.399886    0.2232152  -3.38  0.001468775    2.185    0.542
        18 -10.0721     69.5330     40.5813   9.0219527916e+01   5.8848067120e+01     0.855426    0.3720556 -30.03  0.003408366    2.456    0.593
        19 -10.7998    134.0812     30.9458   7.0333210782e+01   4.7061836573e+01    0.4269228     0.272021  -9.19            0    2.231    0.552
        20  -8.7259    104.3200     15.6613   7.1837900579e+01   5.5065718419e+01    0.2806024    0.1479863  10.40  0.001247006    3.205    0.688
        21  -9.1025    102.9876     21.1881   7.3959001804e+01   5.4812330851e+01    0.3374064    0.1708295 -32.88 0.0006739957    2.225    0.551
        22  -9.5278      2.3284     14.3766   1.0763407424e+02   7.0616346086e+01     0.388846    0.2023424 -50.53  0.002108849    2.763    0.638
        23  -7.9882    128.9074     24.5669   6.9473004333e+01   4.8910728816e+01    0.5420431    0.3161428  -8.29  0.001794946    2.562    0.610
        24  -8.9762    115.4347      3.9343   6.5839706263e+01   5.3718211396e+01    0.2848193    0.2003449 -56.94 0.0009958155    1.857    0.461
        25  -8.6217    125.1738     13.1738   6.6816394821e+01   5.0840995599e+01    0.2042992    0.1753804  79.54 0.0005623406    1.192    0.161
        26  -9.9805    124.8199      6.5071   6.4916869243e+01   5.1491379676e+01    0.5251093    0.4049572  68.53  0.003458732    1.150    0.131
        27  -9.7079    118.9858     21.5427   7.0543883232e+01   5.1394402623e+01    0.2694563    0.2524078   1.03 0.0006495944    1.205    0.170
        28  -8.7821    120.4186     15.4861   6.8408977198e+01   5.1665994190e+01    0.3335319    0.1757323  30.38  0.001604971    2.444    0.591
        29  -8.7259    112.2840     15.4522   7.0042042203e+01   5.3414768239e+01      0.21915    0.1944296 -51.97 0.0005802217    1.366    0.268
        30  -9.0587    114.1418     10.0598   6.7976792297e+01   5.3495844577e+01    0.3155624    0.1713937  39.56            0    1.785    0.440
        31  -9.8957     10.1601     18.8401   1.0565106476e+02   6.9365150232e+01    0.6667398    0.2859527  -3.82  0.002751865    4.431    0.774
        32  -9.0242     96.2769     14.8954   7.3454623849e+01   5.6777014067e+01    0.5154606    0.2232639 -13.38  0.002096487    3.415    0.707
        33  -9.5017     85.4153     13.1665   7.5585051718e+01   5.9067506336e+01    0.3483855    0.2422296 -59.93  0.001559761    2.431    0.589
        34  -7.7447     80.5267     12.5418   7.6671103188e+01   6.0050321070e+01     0.209056    0.1577946 -45.85  0.001337466    1.820    0.451
        35  -8.5498    141.8514     12.6464   6.3817325060e+01   4.7191113894e+01    0.2142387    0.1736584 -46.95 0.0007705493    1.412    0.292
        36  -8.6737    134.0208     12.2244   6.4982270010e+01   4.8976453333e+01    0.2726471    0.1396865 -47.11  0.001379416    2.392    0.582
        37  -8.7475    101.9761      7.7779   6.9770937148e+01   5.6232156526e+01    0.2652175    0.1725482 -23.14 0.0009295387    1.793    0.442
        38  -8.1221    104.5291      1.9885   6.7348238294e+01   5.6156499767e+01    0.4425934    0.1307358  56.59  0.001956392    2.470    0.595
        39  -8.5180    110.2762      7.6742   6.8001299501e+01   5.4513442721e+01    0.1941342    0.1651382 -78.58 0.0007051529    1.445    0.308
        40  -8.6509    110.5545      4.5052   6.6948527468e+01   5.4707551792e+01     0.237022    0.1999568 -47.60  0.001231845    1.464    0.317
        41  -8.8953    143.9300      6.0211   6.1711229924e+01   4.7314732589e+01    0.3762409    0.1860079 -69.69  0.001332561    3.467    0.712
        42  -9.4034    131.9794      5.9134   6.3536174858e+01   4.9973072377e+01     0.388594    0.1953059  55.99  0.001208492    1.597    0.374
        43  -8.2352    135.6115      1.7006   6.1787288825e+01   4.9513390246e+01    0.2837921    0.1113707  59.04  0.001388459    1.946    0.486
        44  -8.3204     97.6874      5.6874   7.0020441677e+01   5.7274274148e+01    0.2724872    0.1628263  26.03 0.0009515709    1.821    0.451
        45  -8.3991     95.6315      2.8312   6.9516361017e+01   5.7908780124e+01    0.1870932     0.158271 -55.99  0.000609222    1.568    0.362
        46  -8.4277     86.0228      4.8066   7.2454960305e+01   5.9653469016e+01    0.3441337     0.211289   8.22  0.002033923    1.928    0.481
        47  -8.4125     89.1216      2.8406   7.1012671437e+01   5.9200913923e+01    0.2051357    0.1631538 -27.81 0.0008300097    1.517    0.341
        48  -7.7722    151.5013      2.4899   5.9724700884e+01   4.5923906554e+01    0.1893977   0.09687677 -43.54  0.001019533    2.202    0.546
        49  -9.6722     98.3725    128.5966   1.0701713643e+02   3.6881576195e+01    0.5882742     0.396253  81.66  0.002126581    2.464    0.594
        50  -9.6262    230.9978    250.3941   1.0096593600e+02  -1.2403219124e+01    0.2597219     0.146702  28.80 0.0003882454    1.655    0.396
        51 -10.1449    187.6869    249.5698   1.0923028426e+02  -6.0387753178e+00    0.3531125    0.2365133  40.60  0.001955676    1.456    0.313
        52 -10.8047    199.4668    249.6294   1.0688886122e+02  -7.8349374119e+00     0.575578    0.2396908  33.08  0.002591507    2.241    0.554
        53  -7.8779    161.5370    129.9905   9.1027458217e+01   2.3650796587e+01    0.2481112    0.1504339 -45.84  0.001033005    1.599    0.374
        54 -10.0961     58.2701    124.4898   1.1802019533e+02   4.4098743361e+01    0.6201538    0.3972467  82.59  0.002618836    2.587    0.613
        55  -8.2334     30.3516    125.6716   1.2676928624e+02   4.6926915875e+01    0.2295616    0.1585691  59.19 0.0009670172    1.824    0.452
        56  -9.6142     26.6865    122.3067   1.2728512933e+02   4.8065131158e+01    0.4472152    0.2514543 -87.34  0.001628097    2.484    0.597
        57  -9.6509     41.5765    122.1764   1.2268604983e+02   4.6635222407e+01    0.5371472    0.2785249 -78.42  0.001748029    2.776    0.640
        58  -8.4463    158.0200    122.0180   8.9889979982e+01   2.6161361860e+01    0.2457551    0.1898258 -83.00  0.000643956    1.615    0.381
        59  -9.0393    243.2264    120.5172   7.3733697458e+01   8.5817449461e+00    0.2190538    0.1440345 -40.89 0.0008148031    1.360    0.265
        60 -10.1414    140.7491    118.3811   9.3097585404e+01   3.0740811053e+01    0.5909594    0.4041258 -80.10   0.00168266    2.230    0.552
        61  -9.3683    141.6587    112.6771   9.1417164655e+01   3.1777140190e+01    0.5304509    0.3693709   7.69  0.002106038    2.416    0.586
        62  -9.1882    152.2962    115.7805   8.9660916965e+01   2.8768200383e+01    0.3642291    0.2808477 -23.01   0.00115084    1.570    0.363
        63 -10.1449     91.9655    113.0723   1.0507163501e+02   4.1638595572e+01    0.6080062    0.4377662 -78.02  0.001654805    1.936    0.483
        64  -8.9440     92.2673    103.5878   1.0250540490e+02   4.3694492794e+01    0.4422268    0.3248802  -1.89  0.001922589    1.784    0.440
        65  -8.2861      1.4248    116.5615   1.3399078357e+02   5.1265948686e+01    0.2597506   0.09854902 -68.45 0.0008879208    2.127    0.530
        66 -10.2623     78.1287    112.9534   1.0923743734e+02   4.3969051737e+01    0.5576232    0.3662121 -75.10  0.001771752    2.188    0.543
        67  -8.2111     77.7135    105.6713   1.0752766103e+02   4.5682370815e+01     0.340452    0.2243069 -11.56  0.001319505    2.191    0.544
        68  -7.4825     21.3075    115.6562   1.2775919880e+02   5.0089715043e+01    0.1267425   0.09379629  78.58  0.000429147    1.694    0.410
        69  -8.1569    167.2212    114.2047   8.5909130100e+01   2.5764949587e+01    0.2214862    0.1782476 -74.64  0.000744273    1.388    0.280
        70 -10.5873     63.0312     95.8568   1.0969769715e+02   5.0018955321e+01    0.9665961    0.5808326 -76.27  0.002793464    3.332    0.700
        71  -9.4038     64.7099     86.0620   1.0646431835e+02   5.1829684880e+01     0.695465    0.4233994 -26.24  0.002963706    1.857    0.461
        72  -9.2354     59.8882    109.8117   1.1421672370e+02   4.7341836516e+01    0.5311972    0.3796437  85.31  0.001621921    2.158    0.537
        73 -10.0403     20.2078     84.0335   1.2163282937e+02   5.7209790515e+01    0.8533037    0.2489357 -56.06  0.003490826    2.701    0.630
        74 -10.4555     26.0212     78.3248   1.1810830416e+02   5.7900361537e+01    0.6384321    0.4424147  78.86  0.002644299    2.867    0.651
        75  -8.7444    220.9924    250.0000   1.0277741382e+02  -1.0989395433e+01    0.1961868   0.06320201  35.27 0.0008002548    2.927    0.658
        76  -8.5958     43.7655     53.5482   1.0403240436e+02   6.0633965858e+01    0.2719827    0.2016578 -46.88 0.0008171365    1.525    0.344
        77  -8.7694     39.9741     51.9777   1.0497458425e+02   6.1351828302e+01    0.4181392    0.1686195 -35.14  0.001880146    2.386    0.581
        78  -9.9775     14.2400    110.1464   1.2899910514e+02   5.1906443963e+01    0.7854294    0.2662139 -66.43  0.003206437    2.628    0.620
        79 -10.8229     20.9288    101.0293   1.2509063237e+02   5.3467373825e+01    0.9969648    0.5604152  88.13  0.003870633    3.470    0.712
        80 -10.2494     37.6058     80.8336   1.1452231313e+02   5.6271613530e+01    0.8173893    0.4042443 -10.60  0.002924735    3.806    0.737
        81  -9.6410     35.7819    111.4630   1.2235527628e+02   4.9759546220e+01     0.292666    0.2296333  79.13  0.001095941    1.640    0.390
        82  -9.8599     34.4652     90.6751   1.1814554750e+02   5.4535461649e+01    0.4843289    0.2738495 -72.42  0.001664451    2.552    0.608
        83  -7.7092    168.3234    110.3169   8.4709791584e+01   2.6315891302e+01    0.1518214    0.1239446   5.47 0.0007043383    1.667    0.400
        84  -8.7924    150.1357    110.2005   8.8748611276e+01   3.0427032675e+01     0.293766    0.1957672 -68.67 0.0006866336    1.984    0.496
        85 -10.9100     44.8727    102.4572   1.1739355787e+02   5.0853262300e+01    0.8329849    0.5153759  80.28  0.003044954    3.632    0.725
        86  -8.9927     40.0243    107.0156   1.2002938018e+02   5.0348850955e+01    0.1999125    0.1769019 -60.78 0.0005194574    1.133    0.118
        87  -8.5774    141.1791     99.2137   8.8006444813e+01   3.4673769377e+01    0.3868771    0.2481414 -13.76  0.001396989    2.743    0.635
        88  -9.2871    140.4563     81.9730   8.3498008680e+01   3.8120972586e+01    0.5841709    0.3020751 -35.01  0.001732211    2.125    0.530
        89  -8.5981    139.9366     75.8643   8.1923444369e+01   3.9316043979e+01    0.3236736    0.2398155 -70.69 0.0005645236    1.699    0.411
        90  -9.3896    138.6355     92.4715   8.6805580598e+01   3.6567241361e+01    0.5421956    0.4117807 -86.88  0.001620735    1.744    0.427
        91  -8.5558    139.2953     88.0123   8.5431331592e+01   3.7270007604e+01    0.4613209    0.2792152  25.11  0.001778321    2.615    0.618
        92  -9.4304      6.3868    103.7685   1.3038666924e+02   5.3878966299e+01    0.3748913    0.2479467  81.13  0.001497823    2.051    0.512
        93  -9.6385    149.3983    103.1161   8.7090153938e+01   3.2050020072e+01    0.4079154    0.2784521 -55.88 0.0008678475    1.563    0.360
        94  -9.2945    150.0333     96.8623   8.5305226876e+01   3.3152268818e+01    0.6289274    0.3339678  29.21  0.002101271    3.360    0.702
        95  -9.2388    150.5195     89.0497   8.3124705382e+01   3.4537442292e+01    0.4122997    0.2341348 -28.17  0.001646125    2.294    0.564
        96  -9.7928    139.4493    104.6081   8.9857112477e+01   3.3958689394e+01    0.5537022    0.2856753 -53.56  0.002114879    2.183    0.542
        97  -8.5309    166.0097    104.0076   8.3625131002e+01   2.8110611024e+01    0.2846118    0.2083623 -47.00 0.0005180254    1.338    0.252
        98  -8.2442     73.8482    102.6635   1.0796874968e+02   4.6951344190e+01    0.3320054     0.172489 -50.52  0.000686168    1.813    0.449
        99  -9.1382    159.1290    100.9368   8.4329645308e+01   3.0285056005e+01     0.479842    0.2499701 -53.67  0.001104696    2.141    0.533
       100  -9.1752    168.0238     98.2333   8.1746368705e+01   2.8783348328e+01    0.3161977    0.2523254  24.56 0.0003105575    1.607    0.378
       101  -9.3353    164.1118     94.6834   8.1657823861e+01   3.0360486743e+01    0.4588062    0.2915247  40.93   0.00187694    1.759    0.431
       102  -9.6473     81.6516     99.1838   1.0458133355e+02   4.6465596749e+01    0.7278285    0.3093776 -46.28  0.001228462    2.217    0.549
       103 -10.4907    244.1143     95.3989   6.8486343428e+01   1.2887386302e+01    0.4273488    0.2356552 -34.05  0.002025639    2.045    0.511
       104 -10.1732      4.4637     89.8669   1.2845811028e+02   5.7049057255e+01    0.6271736    0.3626526 -89.93  0.001690169    2.759    0.638
       105  -9.5529      5.6971     79.1147   1.2579334121e+02   5.9239959065e+01    0.6999739    0.2226191 -36.14  0.002915976    3.145    0.682
       106  -9.5478     94.3411     97.2293   1.0015235833e+02   4.4679294086e+01    0.3318472    0.2831788 -70.90 0.0005680621    1.397    0.284
       107  -9.7202    224.4547     91.0652   7.0271411956e+01   1.7589749337e+01    0.2445142     0.208318  71.17 4.726001e-05    1.235    0.190
       108  -9.0998    157.8180     90.5814   8.1931161344e+01   3.2580196774e+01    0.4484059    0.2095721 -35.74  0.001479521    2.383    0.580
       109  -7.7520     78.1332     89.7516   1.0309170167e+02   4.9018943144e+01    0.2676321    0.1591579 -58.61 0.0009904747    2.064    0.515
       110 -10.1452     47.7691     84.2837   1.1181767369e+02   5.4426824964e+01    0.5108753    0.3690486 -83.56  0.001498247    2.342    0.573
       111  -9.0460     49.4875     76.9927   1.0917015180e+02   5.5679431362e+01    0.6098034    0.4033886  -5.60  0.003211791    1.767    0.434
       112 -10.3153     85.2998     86.5398   9.9900363436e+01   4.8463951565e+01    0.5178117    0.3991977  72.98 0.0009352891    1.940    0.485
       113  -9.4857     87.5371     78.7164   9.6895441407e+01   4.9580169500e+01      0.57249    0.3382126  24.53  0.002107335    2.028    0.507
       114  -9.8242     81.5706     72.3888   9.6846902395e+01   5.1785352490e+01    0.3916143    0.3085462 -69.18 0.0009955812    1.833    0.454
       115  -9.1288     83.0120     64.9958   9.4067916749e+01   5.2823713297e+01    0.5395389    0.3245462  -6.02  0.002280836    2.680    0.627
       116  -8.3533    158.8794    111.9549   8.7187259570e+01   2.8104476479e+01     0.233068    0.2203922 -65.45 0.0004358314    1.027    0.026
       117  -9.2845    229.5657     86.9010   6.8669977141e+01   1.7250762432e+01    0.3118484    0.1900289  54.66 0.0008268175    1.821    0.451
       118  -8.1906    163.2921     87.0132   7.9853709640e+01   3.1979869747e+01    0.2109279    0.1804534 -52.42  0.000478087    1.162    0.140
       119  -8.9730     96.0156     91.0005   9.7903418837e+01   4.5652107926e+01    0.5426337    0.3450252  -4.27  0.002141934    2.719    0.632
       120 -10.3792    104.0089     82.6521   9.3146783349e+01   4.5753179256e+01    0.4922813    0.3615737 -60.87 0.0009239883    1.696    0.410
       121  -9.4375    104.9725     71.5700   8.9564995841e+01   4.7563658113e+01    0.7170547    0.3869855 -26.91  0.002666708    2.306    0.566
       122  -8.8076    157.8265     83.6437   8.0109062230e+01   3.3851445011e+01    0.3149286    0.2039398 -51.27 0.0009297495    1.605    0.377
       123  -9.3075    157.2945     77.3679   7.8561248187e+01   3.5079002515e+01    0.5685046    0.3319201 -66.56  0.001625288    2.556    0.609
       124  -9.4169    150.0172     79.7356   8.0735722861e+01   3.6343844605e+01     0.569226    0.2593613 -34.48  0.001263474    2.492    0.599
       125  -8.8201    119.0245     80.5403   8.8400990557e+01   4.3076648123e+01    0.3486634    0.2446288 -51.05 0.0009354364    1.557    0.358
       126  -8.2376    119.3902     76.3039   8.7073331748e+01   4.3758767456e+01    0.2858395    0.1983514  28.50 0.0006684523    1.648    0.393
       127  -9.1827     74.1973     79.3675   1.0135854571e+02   5.1710411688e+01    0.5854816    0.2316253 -47.46  0.001945295    2.537    0.606
       128  -8.1693    233.6418     81.2908   6.6956462785e+01   1.7361485695e+01    0.1403641   0.09002248 -73.81 0.0004945733    1.689    0.408
       129  -7.7390    226.3030     80.5263   6.7763700713e+01   1.9005157246e+01    0.1769994    0.1238054  52.04 0.0009493775    1.663    0.399
       130 -10.1151     65.7894    110.8867   1.1259229593e+02   4.6286612085e+01    0.7673965    0.5002252 -82.16  0.002495287    2.477    0.596
       131  -8.1002    184.3475     78.2443   7.3664863859e+01   2.8663110849e+01    0.2265748    0.2190591 -11.29   0.00063044    1.252    0.201
       132  -8.4327    166.1148     78.9400   7.7201526191e+01   3.2762579410e+01    0.2188859    0.2083247  88.20  0.000638807    1.027    0.026
       133  -9.3924    127.3827     75.2626   8.4742001420e+01   4.2215820871e+01     0.377611    0.2849249 -73.01  0.001057126    1.759    0.431
       134  -8.9727    129.5961     68.8895   8.2363352234e+01   4.2806448191e+01    0.4955039    0.2632394  29.55  0.001850094    2.936    0.659
       135  -8.4557    130.4903     64.9820   8.1019071914e+01   4.3240788580e+01    0.2920737     0.215777 -37.02 0.0007614036    1.431    0.301
       136  -9.7992     15.9327     70.5451   1.1991143533e+02   6.0278064411e+01    0.4513084    0.1972197 -49.19  0.001361987    1.792    0.442
       137  -9.5185     17.0737     62.0315   1.1717852171e+02   6.1823467839e+01    0.4971552    0.3107992 -41.22  0.002424606    1.285    0.222
       138  -8.4359    250.4894     73.9819   6.3462514384e+01   1.5205359658e+01    0.1899413     0.107696 -45.23 0.0005040487    1.536    0.349
       139  -8.3871    162.8665     73.2377   7.6356387358e+01   3.4487267942e+01    0.2527816    0.1843386 -68.41 0.0006582147    1.563    0.360
       140  -8.9445    115.2399     72.9124   8.7164802848e+01   4.5226876393e+01    0.3070309    0.2430387 -44.01  0.000465521    1.328    0.247
       141  -7.4231    116.6589     68.6564   8.5524102424e+01   4.5648605294e+01    0.3074929    0.1592072  32.40  0.001214581    2.472    0.596
       142 -10.5848     54.9973     70.8369   1.0537626910e+02   5.6144692436e+01    0.6698825    0.4898581  67.15  0.001304856    2.533    0.605
       143  -8.8931     55.5603     63.2866   1.0282188433e+02   5.7433360630e+01    0.5375705    0.2318477  29.46   0.00238777    2.455    0.593
       144  -9.9893     61.8756     60.8917   9.9799491077e+01   5.6945400697e+01    0.6233864    0.2243148  36.32 0.0005688384    2.783    0.641
       145  -7.1918    175.5211     72.4806   7.3795947099e+01   3.1671170256e+01    0.1450193    0.1284096 -84.00 0.0008089073    1.074    0.069
       146  -8.6971    169.1301     71.2743   7.4655509916e+01   3.3355494730e+01    0.3362999    0.2175873 -28.78  0.001125616    1.866    0.464
       147  -9.3666    147.0013     69.2546   7.8528653144e+01   3.8815718514e+01    0.4013372    0.2558133 -62.75  0.000821834    2.027    0.507
       148  -8.7902    147.3891     63.6036   7.6890632452e+01   3.9629220165e+01    0.4179512    0.1991778  37.10  0.001541196    2.962    0.662
       149  -9.7499     94.8912     68.2119   9.1443832433e+01   5.0105360711e+01    0.4245757    0.2522334 -46.62   0.00085374    1.855    0.461
       150  -9.6389     97.0092     58.7223   8.7831560895e+01   5.1244414025e+01    0.7137725    0.4533705 -14.31  0.003404088    2.041    0.510
       151  -7.6996     23.2452     69.2134   1.1674841854e+02   5.9948246572e+01    0.1437259    0.1366098 -52.78 0.0003437693    1.327    0.247
       152  -8.4001    142.9888     44.4785   7.2455876132e+01   4.3388275833e+01    0.1984933    0.1631509  58.00 0.0007801797    1.098    0.089
       153  -8.5641    141.9473     48.3671   7.3755802691e+01   4.3105927000e+01    0.2612384    0.1952749 -37.82 0.0006260561    1.454    0.312
       154  -9.4737    138.9612     56.3143   7.6626402609e+01   4.2661276503e+01    0.7011909    0.2567204 -40.53  0.001599438    2.854    0.650
       155  -9.4743    138.2105     66.3369   7.9636828003e+01   4.1292408322e+01    0.3441424    0.2654537 -60.76 0.0006561319    1.481    0.325
       156  -9.1558    121.4233     66.1565   8.3563213192e+01   4.5039831357e+01    0.3610993    0.2634922 -54.35  0.001034932    1.598    0.374
       157  -8.1599    122.0453     61.4871   8.2018542537e+01   4.5645716095e+01    0.6006935    0.3013851  25.13  0.001878929    4.551    0.780
       158  -9.4691    109.9219     63.8841   8.5858497632e+01   4.7837559117e+01    0.3909076    0.2656994 -49.61 0.0006978349    1.698    0.411
       159  -9.1072    110.6012     58.2168   8.3931484287e+01   4.8582812177e+01    0.3894269    0.2566097  28.49  0.001416075    1.701    0.412
       160  -8.4092    170.6840     65.1066   7.2797510555e+01   3.3985385813e+01    0.2408708    0.1859768  78.12 0.0005811828    1.292    0.226
       161  -8.5924    157.9240     63.4391   7.4733295618e+01   3.7217226923e+01    0.2640541    0.1814086 -59.43 0.0008375333    1.630    0.387
       162 -10.0668     72.9874     58.8566   9.5328700776e+01   5.5547535958e+01    0.5426736    0.2504043 -47.06  0.001123396    2.531    0.605
       163 -10.3790     89.7652     38.3485   8.3186502396e+01   5.5514471283e+01    0.8899304    0.2848518  37.48    0.0031041    3.720    0.731
       164 -10.2610     85.1102     48.0555   8.7853296580e+01   5.5082981199e+01    0.3916681    0.3069408 -68.72 0.0009185763    2.039    0.510
       165  -9.0539     80.1217     46.3613   8.8817490276e+01   5.6224828896e+01    0.3278763    0.1797899 -35.40 0.0005649237    1.895    0.472
       166  -8.1040    164.6163     60.2211   7.2633049452e+01   3.6153588116e+01    0.1787999    0.1360878 -26.69 0.0009383137    1.564    0.361
       167  -8.7508    156.6033     70.2035   7.6796285273e+01   3.6443684140e+01    0.1816319    0.1397044 -27.36 0.0004320806    1.505    0.336
       168  -8.5125    149.9763     47.8823   7.2056112053e+01   4.1328156214e+01    0.2551922    0.1970466 -31.68 0.0005203066    1.457    0.314
       169  -8.5504    146.4953     59.0081   7.5805448085e+01   4.0538602719e+01    0.2787061    0.2072921 -60.93 0.0007486878    1.527    0.345
       170  -9.2771    147.5030     53.9782   7.4210736625e+01   4.1045855867e+01    0.4106289    0.2660604 -22.21  0.001947645    1.973    0.493
       171 -10.6374    179.4691    247.1826   1.1051278324e+02  -4.3522410033e+00    0.5675608    0.3178033 -26.99  0.002666001    2.322    0.569
       172  -9.9466    173.7326    247.4195   1.1172627818e+02  -3.4822832652e+00    0.2694454    0.1751323  36.98   0.00145552    1.390    0.281
       173  -8.9859    156.5070    248.5007   1.1546072401e+02  -8.9616924455e-01    0.1322599    0.1174775  33.30 -6.880122e-05    1.015    0.015
       174  -9.1228    164.6469    249.3080   1.1389455989e+02  -2.3580499567e+00    0.2061035    0.1587278  68.88  0.001135502    1.779    0.438
       175 -10.7850     22.0247     53.7064   1.1272222429e+02   6.2916674311e+01    0.6993712    0.4709424 -78.24  0.003283066    3.533    0.717
       176 -10.1038     13.1520     45.4968   1.1385440926e+02   6.5072590391e+01    0.6647502    0.3123313  -8.47  0.002697183    2.837    0.647
       177  -7.3571      7.5750    248.4563   1.4507333750e+02   2.0430291431e+01    0.1109217   0.08673055  84.67 7.470584e-05    1.146    0.127
       178  -8.4248    150.4934    245.5136   1.1626954045e+02   6.3767388550e-01    0.1335156    0.1195107  32.73 0.0008104549    1.015    0.015
       179  -9.0783    248.8389    241.2085   9.6148423160e+01  -1.3361085334e+01    0.2001625    0.1768913 -14.65 0.0003353239    1.272    0.214
       180  -8.4356      9.8004     60.0275   1.1954065081e+02   6.2734366746e+01    0.1678971    0.1499668 -47.96   0.00123401    1.301    0.231
       181  -9.2736    129.9602     56.6263   7.8704606139e+01   4.4640891254e+01    0.5496868     0.205965 -37.17  0.001343893    2.812    0.644
       182  -9.7175    130.4426     46.2557   7.5550318338e+01   4.5990916830e+01    0.7161944    0.3191162 -22.79  0.001990211    3.343    0.701
       183  -8.7443     87.5355     58.5608   9.0590027247e+01   5.3061022865e+01    0.3022983    0.2261745 -48.99 0.0007270667    1.589    0.371
       184  -9.1363     75.7381     50.3234   9.1567707294e+01   5.6415288488e+01    0.4642683    0.2638445  25.12   0.00208663    1.945    0.486
       185  -9.9919     50.2122     54.7540   1.0199790610e+02   5.9609107200e+01    0.5443016    0.3998539 -49.21  0.002662465    1.621    0.383
       186  -9.9674     55.7341     43.7782   9.6170589004e+01   6.0551621567e+01    0.9341557    0.4614181   6.11  0.003086989    5.329    0.812
       187  -9.5442    118.2369     54.4680   8.0837114954e+01   4.7524665398e+01    0.5386202     0.310933 -41.63  0.001431438    1.883    0.469
       188  -9.1555    121.1205     46.7833   7.7805117362e+01   4.7976993531e+01    0.3321206    0.2201714 -30.52 0.0005767728    1.662    0.398
       189  -8.2862    122.8462     40.7714   7.5585041482e+01   4.8382966873e+01    0.3399254    0.2073521  21.76  0.001565907    2.369    0.578
       190  -9.1266    162.5603     54.0619   7.1398133959e+01   3.7543494980e+01    0.2631939    0.1838268  82.80 0.0008753428    1.567    0.362
       191  -9.0328    105.5403     51.9394   8.3302750226e+01   5.0555991338e+01    0.4899311    0.2375134 -32.70  0.001782549    2.233    0.552
       192  -7.5902    152.7950     53.7878   7.3127628923e+01   3.9851101208e+01    0.1857859     0.151296 -79.95 0.0004308496    1.332    0.249
       193  -8.3165    157.5055     49.0259   7.0976497049e+01   3.9428861745e+01    0.1929158    0.1328613 -39.94 0.0005288991    1.552    0.356
       194  -8.5560    111.9296     46.7903   8.0026153754e+01   4.9946488875e+01    0.2576295    0.2105721 -37.28 0.0006169985    1.344    0.256
       195  -8.3285    113.3339     42.2947   7.8270032938e+01   5.0242488150e+01    0.2674437    0.1830205  21.88 0.0009775638    1.743    0.426
       196  -7.0326    162.4798     46.4477   6.9426732012e+01   3.8625680468e+01    0.1356501    0.1195533  81.20 0.0001878704    1.037    0.036
       197 -10.1959    188.2338    233.3072   1.0640720915e+02  -3.3144743075e+00    0.3583444    0.2730618 -32.40  0.001587208    1.336    0.252
       198 -10.1432    142.9502    228.4149   1.1524195939e+02   5.2538869304e+00    0.2407858    0.2174164 -50.89 0.0001149187    1.190    0.160
       199  -7.2916    175.2849    228.3155   1.0824637758e+02  -2.5793630408e-01    0.1370393    0.1026933  -5.36 0.0002073644    1.582    0.368
       200  -7.5328     15.6037    219.1907   1.4158102465e+02   2.5863071798e+01     0.160404   0.09308371 -68.25 0.0001507996    1.558    0.358
       201  -8.6267     42.2806     28.0569   9.5415017417e+01   6.4587175623e+01    0.2237182     0.137172 -12.96 0.0001772383    1.621    0.383
       202  -7.3031    145.1656    214.1032   1.1237794165e+02   7.8665440613e+00    0.1837858    0.1618222  82.29            0    1.279    0.218
       203 -10.1344      9.5444    207.4534   1.4186988087e+02   2.9127505189e+01     0.524335    0.2990577  28.29  0.002968975    2.199    0.545
       204 -10.4718     35.9071     37.9686   1.0170072520e+02   6.4022447705e+01    0.4338154    0.2471934  -7.93 0.0003588665    2.034    0.508
       205  -9.6127    220.5881     42.5598   6.0505174505e+01   2.6009915096e+01    0.3052717     0.209909 -44.24  0.001156441    1.462    0.316
       206  -8.3873    194.5543    199.0540   9.8806058778e+01   2.1163216607e+00    0.3512438    0.2206175 -66.29  0.001457069    2.583    0.613
       207  -7.8711    192.2934    194.6564   9.8413980154e+01   3.4026200071e+00    0.2338335    0.1766924 -59.46  0.001047556    1.552    0.356
       208  -8.3725    190.3999    191.2321   9.8131066245e+01   4.4442938275e+00    0.3905724    0.2171108 -59.49  0.001551915    2.458    0.593
       209  -7.5592    250.8329    198.6951   8.8067222167e+01  -6.8770148329e+00    0.1917728   0.08159401 -46.52 0.0006424754    2.353    0.575
       210 -10.0904     76.2537     31.9914   8.4982453757e+01   5.8791156269e+01    0.4529145    0.3384939  71.41  0.001098155    2.169    0.539
       211  -9.7662     79.6684     23.9247   8.1045557615e+01   5.9089759280e+01    0.5470993    0.2349733  32.52  0.001611872    2.581    0.613
       212  -9.0143     84.6830     21.9201   7.8898771772e+01   5.8363738395e+01    0.2231697    0.2129566  21.13 0.0006536717    1.206    0.171
       213 -10.0240    153.3496     40.9957   6.9572166086e+01   4.1457350944e+01    0.6418948    0.3532793  47.92  0.002685271    1.791    0.442
       214  -8.6359    153.3509     34.9627   6.7954952798e+01   4.2205301207e+01    0.1994962    0.1670017 -85.67 0.0005021963    1.209    0.173
       215  -9.1675    110.3328     33.4454   7.6191807229e+01   5.1960847487e+01    0.2786784    0.2495471 -69.49 0.0007702862    1.371    0.271
       216  -8.7756    104.9803     41.2538   8.0024841641e+01   5.2122711989e+01    0.2897648    0.2048594 -53.61  0.001013751    1.859    0.462
       217  -8.7455    106.0937     36.1613   7.8096112870e+01   5.2525515662e+01    0.3102323    0.1971201  31.19 0.0008062805    1.647    0.393
       218  -8.9374    139.3076     39.9229   7.1889546820e+01   4.4811441177e+01    0.3379767    0.2203946 -42.50  0.001571233    1.685    0.407
       219  -8.4561     53.4459     39.2457   9.5376504344e+01   6.1533369750e+01    0.2468489    0.1098834 -37.39 0.0009460871    2.240    0.554
       220  -8.8227     54.5496     35.3678   9.3546415663e+01   6.1904150564e+01    0.2919292    0.1855033  -9.44  0.001673485    1.668    0.400
       221  -7.0675    160.2917     39.6410   6.8022137182e+01   4.0024641421e+01    0.1373284   0.09436801 -71.89  0.000388075    1.693    0.409
       222  -9.3053    144.8847     37.1180   7.0042106579e+01   4.3887025406e+01    0.4461539    0.2638193 -77.28  0.001612918    2.734    0.634
       223  -8.7989    133.0854     35.8842   7.1961684329e+01   4.6710544389e+01    0.2634072    0.1827845 -41.47 0.0005981819    1.606    0.377
       224  -9.3521    249.3783    180.2540   8.4771110703e+01  -3.4456357382e+00    0.3098256    0.2348513 -66.22 0.0009573642    1.838    0.456
       225  -8.7833    118.9076     34.6393   7.4590803289e+01   4.9987970980e+01    0.2674984    0.1758204 -33.34 0.0009570314    1.694    0.410
       226  -7.7130    194.1708     34.9151   6.1966244925e+01   3.2843204672e+01    0.1526476    0.1434794  66.40 0.0003230768    1.270    0.213
       227  -7.7340     20.2499    177.7360   1.3675219055e+02   3.5131712697e+01    0.1710791    0.1327936 -54.63  0.001041799    1.352    0.260
       228  -9.2680    101.0551     31.9915   7.8001147177e+01   5.4050545273e+01    0.3732551    0.2113512 -31.27  0.001473408    1.943    0.485
       229  -8.9288    237.6760    175.4312   8.5820484932e+01  -7.1471134489e-01    0.2548879     0.233125  54.58  0.001006607    1.340    0.254
       230  -7.4576     50.3240     35.2897   9.5079464505e+01   6.2525937097e+01    0.1239023   0.08001718   4.10 0.0002532522    1.610    0.379
       231  -9.0013    238.2030    170.7252   8.4787069445e+01   7.4870658132e-02    0.2397236    0.1822023 -36.44  0.000292737    1.142    0.124
       232  -7.7030    101.3160     26.3409   7.6064952250e+01   5.4623836583e+01    0.2128813    0.1132745  26.11 0.0007932612    2.443    0.591
       233  -9.3628    151.9315     30.7908   6.7078646522e+01   4.3022817015e+01    0.2965026    0.2104496  12.11  0.001411314    2.117    0.528
       234  -8.9126    151.2708     25.8681   6.5872014070e+01   4.3726553490e+01    0.3771574    0.1931165  82.33   0.00163757    2.564    0.610
       235  -8.6074    156.4739     27.7146   6.5525880734e+01   4.2330719964e+01    0.2199939    0.1183247 -39.22 0.0007514493    2.014    0.504
       236  -8.7070     92.0671     20.9612   7.6582649208e+01   5.7034519146e+01    0.2741401     0.191489  26.08  0.001103652    1.396    0.284
       237  -8.0217    110.3944     26.7485   7.4040741798e+01   5.2694589000e+01    0.1675433    0.1184968  -4.22 0.0009482785    1.729    0.421
       238  -9.1019    144.2711     25.6944   6.6994237754e+01   4.5339971224e+01    0.2181753    0.1803221 -83.28 0.0007144728    1.278    0.218
       239  -9.1372     93.0151    168.2945   1.1687062229e+02   2.7978216173e+01     0.247688    0.2005219 -54.33  0.000293687    1.195    0.163
       240  -8.3838    159.2603    166.8537   9.9967165440e+01   1.5786305389e+01     0.220799    0.2064488 -72.09  0.000464721    1.105    0.095
       241  -8.6555    238.6826    165.9149   8.3736650594e+01   8.9503014731e-01    0.2269403    0.1841756  32.67 0.0008462048    1.408    0.290
       242 -10.3509    206.4899    163.3545   8.9090615952e+01   7.1771286575e+00    0.2605239    0.2479614 -68.22 0.0002188629    1.135    0.119
       243  -8.7604    132.7787     17.1827   6.6610007922e+01   4.8790941194e+01    0.2770871    0.1978353  61.45 0.0009933319    1.182    0.154
       244  -8.1711    129.0021     16.0527   6.6961641540e+01   4.9734902566e+01    0.1910932    0.1627559  58.33 0.0005392313    1.013    0.013
       245  -7.7235    123.4870     26.4952   7.1126201944e+01   4.9902156318e+01    0.1283678    0.1104344  51.69 0.0008104948    1.014    0.013
       246  -9.1546     91.2830     25.9873   7.8523511603e+01   5.6666253823e+01    0.3219567    0.2180238 -51.58  0.001603454    2.118    0.528
       247  -8.3097    248.1977    165.4213   8.2049028177e+01  -5.7936713430e-01    0.1548334    0.1309278  62.56 0.0004592529    1.527    0.345
       248  -8.6123     92.0628    153.0561   1.1416688485e+02   3.1968196913e+01     0.215772    0.2063938 -71.87 0.0003093764    1.022    0.021
       249  -8.7782     40.9524     21.0053   9.3149844587e+01   6.5635950347e+01    0.2541052    0.1400758 -24.38 0.0006182301    1.751    0.429
       250  -8.1345    139.7897     18.0222   6.5634960238e+01   4.7142366868e+01    0.2236473    0.1014027 -36.71 0.0007788336    2.442    0.590
       251  -8.1158    111.6026     21.0354   7.1952644913e+01   5.3026958490e+01     0.271383    0.1543677 -16.15  0.001414896    2.216    0.549
       252  -8.0899    134.9297    148.8465   1.0188991523e+02   2.4960434592e+01    0.3259925     0.241045  34.27  0.001332175    1.459    0.315
       253  -8.4399    133.5216    144.5198   1.0125782815e+02   2.6275369726e+01    0.4804168    0.1552522 -51.02  0.001433952    3.116    0.679
       254  -9.4420     66.9604    144.6724   1.1953205391e+02   3.7957398237e+01    0.5435273    0.3680102  68.90  0.002503539    1.921    0.480
       255  -8.9886    226.0088    146.0197   8.1808775292e+01   6.9611089311e+00    0.2094964    0.1851849 -45.84            0    1.012    0.011
       256  -8.1490    211.6508    144.9725   8.4154377356e+01   9.9249179388e+00    0.2145377    0.1739747 -44.52 0.0006647102    1.121    0.108
       257 -10.4492     71.1734    125.8796   1.1439830305e+02   4.1980298797e+01     1.120786    0.4987373 -44.35  0.001358481    2.211    0.548
       258  -9.9034     67.5032    128.5153   1.1608064261e+02   4.1871817299e+01     0.734576    0.4178201 -33.76  0.003099217    2.144    0.534
       259  -8.3823    112.1334    133.9852   1.0444417991e+02   3.3037182508e+01    0.2770151    0.2278811  67.97  0.001053044    1.389    0.280
       260  -8.0299    155.3278     17.7041   6.3097174032e+01   4.3659059574e+01    0.1269488   0.08673231 -78.32 0.0002795865    1.631    0.387
       261 -10.1888    117.3403    124.8251   1.0080593418e+02   3.4173227704e+01    0.9593728    0.6061082 -69.04  0.002110219    2.163    0.538
       262 -10.8243    123.8956     90.5795   8.9980535547e+01   4.0151118088e+01     1.149505    0.7373763 -34.86  0.002791904    1.656    0.396
       263  -9.6421    111.3945     89.7229   9.3103963972e+01   4.2920025717e+01    0.9715134    0.4344413  31.97   0.00330581    3.146    0.682
       264  -9.8184    133.7369    131.5982   9.8145233887e+01   2.9257794544e+01    0.5812601    0.5066672  41.14  0.002918879    1.184    0.156
       265  -9.8826     37.9529     42.2405   1.0241609609e+02   6.3139714075e+01    0.3240226    0.2863435 -75.92  0.001408935    2.026    0.507
       266 -10.3768    109.0322    112.8298   1.0006129881e+02   3.8534830587e+01     1.167085     0.535805 -48.03  0.001980418    2.126    0.530
       267 -11.1079    121.3718    109.3298   9.5749824125e+01   3.6826720170e+01     1.329415    0.6733637 -48.37  0.003325725    1.974    0.493
       268 -10.5537    109.0043    100.0718   9.6664079574e+01   4.1299968836e+01     1.013093    0.6163632  62.48  0.004076371    2.368    0.578
       269  -9.7826    127.9171    102.5838   9.2226091492e+01   3.6880164982e+01    0.4915977    0.4020644 -45.65  0.001927241    1.218    0.179
       270 -10.5123    131.5891    119.6387   9.5729962923e+01   3.2424410497e+01    0.9368642    0.5989897  82.25  0.002310399    3.037    0.671
       271  -8.1013     82.8386    131.0692   1.1208940588e+02   3.8929987350e+01    0.7047684    0.4265668  83.44  0.002400521    3.587    0.721
       272 -11.1098    133.4487    109.8250   9.2726205352e+01   3.4169709836e+01     1.532708    0.4777563 -48.60  0.004591134    3.381    0.704
