#   1 NUMBER                 Running object number                                     
#   2 MAG_AUTO               Kron-like elliptical aperture magnitude                    [mag]
#   3 X_IMAGE                Object position along x                                    [pixel]
#   4 Y_IMAGE                Object position along y                                    [pixel]
#   5 X_WORLD                Barycenter position along world x axis                     [deg]
#   6 Y_WORLD                Barycenter position along world y axis                     [deg]
#   7 A_WORLD                Profile RMS along major axis (world units)                 [deg]
#   8 B_WORLD                Profile RMS along minor axis (world units)                 [deg]
#   9 THETA_WORLD            Position angle (CCW/world-x)                               [deg]
#  10 FWHM_WORLD             FWHM assuming a gaussian core                              [deg]
#  11 ELONGATION             A_IMAGE/B_IMAGE                                           
#  12 ELLIPTICITY            1 - B_IMAGE/A_IMAGE                                       
         1 -13.6628      4.3214     88.7036   1.1111113764e+02   5.7468729132e+01     1.849968     0.540229 -64.15  0.007653672    2.466    0.594
         2 -14.0312      6.0248     66.5564   1.0606860188e+02   6.2451462800e+01     2.274582    0.6903838 -44.66  0.009472311    2.427    0.588
         3 -13.2906      4.0108     52.1384   1.0343318127e+02   6.5642749947e+01     1.158772    0.5325798 -62.43  0.005919393    1.989    0.497
         4 -12.1329     64.2507     29.6011   6.7181318822e+01   6.2772415834e+01    0.8149949    0.7405366  -0.36  0.005247169    1.185    0.156
         5 -11.2898     55.1746     28.9039   7.0532084686e+01   6.4397470491e+01    0.9886101    0.4450264 -15.72  0.003545845    4.006    0.750
         6 -13.1858    229.9084     29.5704   3.4551833594e+01   2.5121688601e+01    0.7540866    0.6489923  58.48  0.005074623    1.425    0.298
         7 -13.0216     28.5374     16.2660   7.7106564051e+01   6.9948629196e+01    0.7283519     0.445865 -27.03  0.004445562    1.455    0.313
         8 -12.2984      2.2514     12.6101   9.0446890525e+01   7.3045380304e+01     1.042383    0.2586518 -46.70   0.00459384    3.202    0.688
         9 -12.1539      3.7971     21.6991   9.3448886672e+01   7.1445084039e+01    0.6078423    0.3105892 -36.13  0.003629176    1.505    0.335
        10 -12.9036     19.9755      9.1378   7.8153242915e+01   7.1927056898e+01    0.8509789    0.4552039 -26.02  0.004840244    1.649    0.393
        11 -13.3445     13.0080     20.2553   8.7499565146e+01   7.0978560882e+01    0.9981632    0.5480654  25.90  0.005958042    1.908    0.476
        12 -12.6316     10.3222     11.5970   8.5027543703e+01   7.2553739065e+01    0.7505097    0.3803448 -38.16   0.00385493    1.714    0.417
        13 -12.0036     40.1324     14.6695   7.0564771812e+01   6.8601151014e+01    0.3357481    0.1986297  39.86  0.001922467    1.763    0.433
        14 -12.6244    179.9189      6.0702   3.3921368022e+01   3.8989562555e+01     1.080817    0.4772306  43.09  0.004564262    3.204    0.688
        15 -12.0925    210.2957      5.2883   3.0956126643e+01   3.2104373303e+01    0.6962165    0.4280869 -78.05   0.00408998    1.470    0.320
        16 -11.5324    199.0206      8.4699   3.2643664857e+01   3.4318108172e+01    0.3205007    0.1930627 -23.82  0.001764014    2.052    0.513
        17 -10.7588     41.5402      9.5003   6.7313588344e+01   6.9009846097e+01    0.2458086    0.1033905  39.92  0.001213757    2.174    0.540
        18 -12.0570     29.3624      5.7563   7.1282858517e+01   7.1193804974e+01    0.3984074    0.3147842  41.68  0.002691235    1.781    0.438
        19 -12.3272    168.7037      2.4652   3.4186957565e+01   4.1976066121e+01     0.918859    0.2441559  73.48   0.00327479    3.465    0.711
        20 -10.9861    104.7820      2.6056   4.3981314224e+01   5.7165849126e+01    0.3744116    0.1849536  59.74   0.00187131    1.665    0.399
        21 -10.3232    119.8103      2.3708   4.0999343671e+01   5.3693689669e+01    0.1990547   0.09185635  56.19 0.0009532681    1.722    0.419
        22 -11.7867     77.9617    142.2499   9.6371445119e+01   3.6585249730e+01    0.3204165    0.2642291 -50.98 0.0005828075    1.162    0.139
        23 -11.2305    244.0731    249.3237   7.7673330624e+01  -1.1668514779e+01    0.3567947    0.2131851   3.04   0.00221118    1.494    0.331
        24 -11.3500    248.7617    245.7441   7.6258311825e+01  -1.1769721962e+01    0.4139352     0.252037 -17.80  0.002659313    1.393    0.282
        25 -12.5400    176.4359    249.5488   9.0608760384e+01  -2.6588885208e+00     1.007637    0.2535507  33.54  0.003566558    3.551    0.718
        26 -12.9727     82.6473    207.5704   1.0542524709e+02   1.9864314535e+01     1.348081    0.8605736  78.78  0.005439732    1.914    0.478
        27 -13.3344     66.5510    208.3586   1.0928873429e+02   2.1931864773e+01     1.887385    0.9975123  31.45  0.009021897    1.940    0.485
        28 -11.6373     45.3278    181.4294   1.1138730966e+02   3.0958405357e+01    0.4161113    0.2627558 -51.78  0.001224374    1.689    0.408
        29 -14.4838      9.3715    129.2512   1.1517085494e+02   4.7287222832e+01     4.837139    0.6021143 -68.63   0.01427646    4.602    0.783
        30 -12.5494      3.3579    115.5837   1.1536087149e+02   5.1025764806e+01     1.084808      0.39028 -64.85  0.004873103    2.035    0.509
        31 -14.4071      7.1661    242.4092   1.2415491903e+02   2.1448525647e+01     3.812695     1.270799 -82.29     0.018793    2.794    0.642
        32 -13.5434     43.8993    194.2873   1.1310987958e+02   2.8027565958e+01     1.110684    0.8079038  79.07   0.00407216    1.276    0.216
        33 -15.1440     17.8248    204.2097   1.1985536620e+02   2.8474684905e+01     1.886591      1.58109  42.21   0.01299424    1.322    0.243
        34 -14.7516     30.4121    186.7457   1.1558632250e+02   3.1289248924e+01     3.447544     1.454238  63.54   0.01165128    2.873    0.652
        35 -12.5044     53.6162    123.0694   1.0020511891e+02   4.4814175041e+01    0.8122846    0.5076728  50.81  0.003656239    1.908    0.476
        36 -14.0692     54.8485    112.0670   9.7500950673e+01   4.7436522645e+01      2.06384     1.111356 -60.61  0.009081864    1.731    0.422
        37  -9.3022    103.3157    120.0287   8.3668271304e+01   3.7843946500e+01    0.2146694    0.1912108 -45.58 0.0003017689    1.088    0.081
        38 -13.0250     42.8330     93.0763   9.7442301295e+01   5.3454682900e+01    0.7901659     0.691233 -38.66  0.003579655    1.022    0.021
        39 -12.5092     30.5976     87.5660   1.0081584405e+02   5.5953408881e+01    0.8533971    0.6633834  76.62  0.004148771    1.743    0.426
        40 -10.5771    105.4326    131.5712   8.5858508007e+01   3.4639425761e+01    0.3782323    0.3112914  16.00  0.001250357    1.362    0.266
        41 -12.8671     17.9351     90.8589   1.0638077724e+02   5.6162211339e+01    0.8493633    0.5982986 -71.32  0.003181262    1.364    0.267
        42 -13.8308     20.3569     78.2796   1.0273793251e+02   5.8930732553e+01     1.563619    0.9526319 -13.18  0.007525844    1.857    0.462
        43 -10.2208     93.9312     89.9161   7.8316906705e+01   4.6553914520e+01    0.3844971    0.2179623  27.93  0.001548157    2.048    0.512
        44 -10.2766     89.5188     83.9867   7.7967950314e+01   4.8651042504e+01     0.286038    0.2044205  -7.86  0.001291499    1.757    0.431
        45 -12.5911     22.5561     67.2129   9.9039801344e+01   6.1237272329e+01    0.6738923    0.6499836  60.67  0.003575271    1.360    0.264
        46 -11.7671    128.1711    243.8196   9.9861539102e+01   5.5824995820e+00    0.4368778    0.1697552  35.08   0.00187507    2.205    0.547
        47 -12.4561    133.5166    239.5361   9.8151238623e+01   5.5357085339e+00    0.4246342    0.3079084 -37.61  0.002439332    1.630    0.387
        48  -9.5310     90.3354     52.6605   6.7062016558e+01   5.4403555321e+01    0.1376911     0.116448 -83.24 0.0007051301    1.754    0.430
        49 -12.1143    213.0237     44.3630   3.9589811351e+01   2.6893261356e+01      0.42992    0.3091394 -53.34  0.002466776    1.260    0.206
        50 -12.1032     98.4372     42.1641   6.0632806687e+01   5.4320121515e+01    0.6827121    0.4413865 -46.97  0.003309502    1.900    0.474
        51 -12.6377     13.8739     32.1848   9.1958141406e+01   6.8883085816e+01    0.6667188    0.4467711  19.74  0.002817835    1.585    0.369
        52 -12.1084    139.2116    237.0071   9.6575433828e+01   5.1087847607e+00    0.4583126    0.2031058  41.07  0.002056956    1.973    0.493
        53 -10.0641     62.4067    236.6416   1.1301182890e+02   1.6390591476e+01      0.26801    0.1446118  82.54  0.001328185    2.240    0.553
        54 -10.3368     46.2947     33.3115   7.6310874721e+01   6.5091290073e+01    0.2315686    0.1506879  51.07  0.001173811    2.429    0.588
        55 -11.1713    130.3887    232.2605   9.7828584322e+01   7.3715273145e+00    0.2813151    0.1715639  19.65  0.001350093    1.926    0.481
        56 -11.4751     48.0439     26.6199   7.2588302069e+01   6.5831386821e+01    0.3388262    0.2098671  20.46  0.001876582    1.533    0.348
        57  -9.7358     83.2322    229.4629   1.0785896395e+02   1.5046613763e+01    0.2789291    0.1550911 -70.33  0.001405023    2.002    0.501
        58 -11.2079    125.8733    230.1110   9.8523862838e+01   8.4928726145e+00    0.2946893    0.1909494  60.90  0.001462973    1.912    0.477
        59 -10.3910     91.0943    128.3911   8.9420360995e+01   3.7982795627e+01    0.3061999    0.2696038  17.20 0.0005618844    1.222    0.181
        60 -10.5947     74.0109    217.9818   1.0864760982e+02   1.8776093568e+01    0.4689096    0.2083284 -65.11  0.002112004    2.323    0.570
        61 -11.2534     94.3953    203.0060   1.0201498628e+02   1.9140193299e+01    0.6611266    0.4308538  62.34  0.003198368    1.712    0.416
        62 -11.5689     52.9871    174.8588   1.0863708574e+02   3.1673786596e+01    0.2764781    0.2494681 -54.27 0.0004359827    1.205    0.170
        63  -8.4873    110.6912    167.7124   9.2065121296e+01   2.4791650696e+01     0.150799    0.1199424 -14.09 0.0002700283    1.574    0.365
        64 -10.7025     65.4888    164.6186   1.0385142914e+02   3.2647097454e+01    0.2549652    0.2363959 -54.28 0.0004259103    1.130    0.115
        65 -12.9602     50.9769    161.0476   1.0733203506e+02   3.5391962214e+01    0.5486177    0.3138288 -38.05  0.001675574    2.250    0.556
        66  -9.4742    135.2681    163.2901   8.4746326855e+01   2.1308367927e+01    0.2016231    0.1788951  80.51  0.000428757    1.310    0.237
        67 -11.7689     74.3152    157.5748   1.0024589877e+02   3.3206378696e+01    0.5558584     0.491481 -30.70  0.003030338    1.267    0.211
        68 -12.6775     52.9720     90.2562   9.2916321586e+01   5.2942747726e+01    0.9096863    0.4904718 -72.57  0.003449725    3.000    0.667
        69 -12.5156     67.8440    143.5059   9.9640977401e+01   3.7728054772e+01    0.7525431    0.4686001  64.03  0.003163299    2.106    0.525
        70 -10.3020     90.4903    144.4622   9.3104558667e+01   3.4039712239e+01    0.2714263    0.2649885 -71.72 0.0007384113    1.016    0.016
