#   1 NUMBER                 Running object number                                     
#   2 MAG_AUTO               Kron-like elliptical aperture magnitude                    [mag]
#   3 X_IMAGE                Object position along x                                    [pixel]
#   4 Y_IMAGE                Object position along y                                    [pixel]
#   5 X_WORLD                Barycenter position along world x axis                     [deg]
#   6 Y_WORLD                Barycenter position along world y axis                     [deg]
#   7 A_WORLD                Profile RMS along major axis (world units)                 [deg]
#   8 B_WORLD                Profile RMS along minor axis (world units)                 [deg]
#   9 THETA_WORLD            Position angle (CCW/world-x)                               [deg]
#  10 FWHM_WORLD             FWHM assuming a gaussian core                              [deg]
#  11 ELONGATION             A_IMAGE/B_IMAGE                                           
#  12 ELLIPTICITY            1 - B_IMAGE/A_IMAGE                                       
         1 -14.0155    226.9717      4.5870   3.6379195732e+01   2.8021449815e+01     1.937462     1.040562  54.12  0.007412639    2.130    0.530
         2 -13.9654    183.5508     48.3183   5.2860625705e+01   3.3218254874e+01     1.665624     1.136331  31.34 0.0008982305    1.911    0.477
         3 -14.3797    194.6452     39.4123   4.8674604082e+01   3.1671200593e+01     1.731031     1.418544  12.99  0.003473418    1.594    0.373
         4 -14.6362    203.3575     30.0395   4.5007767070e+01   3.0727198147e+01      1.58261     1.347207  28.34  0.001337645    1.482    0.325
         5 -10.3890    189.7345     14.7256   4.2547447650e+01   3.5902439324e+01    0.2472419    0.2124257 -56.84 0.0007796481    1.152    0.132
         6 -12.6053     59.2668      3.0341   6.6298095104e+01   6.7051618819e+01    0.6648571    0.1655251  45.06   0.00258044    3.434    0.709
         7 -11.6103     52.6183    172.3642   1.1500634729e+02   3.2671193999e+01    0.5011649    0.2637064 -65.44 0.0006194527    1.726    0.421
         8 -11.0894    139.9082    249.7861   1.0575969981e+02   4.2896516132e+00    0.2823437    0.2119964  63.57  0.001824128    1.443    0.307
         9 -11.7181    140.3145    245.0419   1.0511005910e+02   4.9709222312e+00    0.2647457    0.2075207  59.04 0.0009676118    1.279    0.218
        10 -17.1774     72.0704    148.1530   1.0679130415e+02   3.5892153482e+01     23.81672      11.6928  84.85   0.07142425    4.887    0.795
        11 -12.2261     92.2931    153.4143   1.0237611838e+02   3.1552340617e+01    0.6777779    0.4831637 -26.61  0.003167926    2.037    0.509
        12  -9.6059    150.4606    178.9432   9.2923166280e+01   1.5306668710e+01    0.2119263    0.1443862 -53.71   0.00101737    1.598    0.374
        13 -10.4205    187.8080    152.4854   7.9254853068e+01   1.3148275234e+01    0.3617971    0.2065057 -58.55  0.001393712    2.529    0.605
        14 -17.0218     49.6881    201.9414   1.1865825358e+02   2.6431006962e+01     7.454215     2.532614  56.90    0.0300764    3.182    0.686
        15 -11.5562    133.8048    144.8851   9.0026400096e+01   2.5974265967e+01     1.192169    0.3190545 -55.00  0.002910947    5.344    0.813
        16 -10.8958    145.4965    180.7434   9.4375866186e+01   1.5877071701e+01    0.3110142    0.2594319 -19.71  0.001136677    1.437    0.304
        17 -10.8316    174.3207    148.5791   8.1289236916e+01   1.6747312115e+01    0.3579613    0.2879338 -67.70  0.001326348    1.518    0.341
        18  -8.7353    109.6564    148.2499   9.6896607486e+01   2.9805610760e+01    0.1509872    0.1108149  69.11  0.000257678    1.576    0.366
        19 -10.5485    143.8799    146.0094   8.7786846193e+01   2.3674329304e+01    0.3756541    0.2094785 -69.48  0.001255828    3.199    0.687
        20 -11.0281     86.1356    145.3306   1.0255300643e+02   3.4480863225e+01    0.3258612    0.2314974  63.49 0.0008492603    1.541    0.351
        21 -11.0322    104.8375    139.1873   9.6332849926e+01   3.2822871497e+01    0.5315609    0.3424325 -29.47  0.002220114    2.205    0.546
        22 -12.3024     92.5649    139.0027   9.9618209063e+01   3.4977265275e+01    0.2756041    0.2516738 -46.57 0.0004486615    1.154    0.133
        23 -13.2929    196.7067    198.5040   8.6748584460e+01   3.0839682835e+00     1.384464     1.178222  28.16  0.008344518    1.077    0.071
        24 -11.6383    135.7889    127.8358   8.5610019525e+01   2.9436194117e+01    0.8971353    0.2028168 -49.27  0.002239888    4.682    0.786
        25 -10.9729    105.9043    130.7514   9.4238329110e+01   3.4644650810e+01    0.3809156    0.3193604 -67.92  0.001151164    1.195    0.163
        26 -10.7917    113.2796    129.7694   9.2005269678e+01   3.3504907417e+01    0.3370707    0.3032529 -12.00 0.0007712294    1.287    0.223
        27 -11.8243    119.6337    123.3852   8.8787433870e+01   3.3764389286e+01    0.8553239    0.4582215 -26.58  0.002698439    3.610    0.723
        28 -10.2115    160.6319    127.9799   7.9556459268e+01   2.4020735130e+01    0.3429128    0.2438407 -63.58  0.001488729    1.713    0.416
        29  -9.2644     97.2397    129.1933   9.6300694218e+01   3.6556299488e+01    0.1986645    0.1658315  84.26 0.0004370887    1.316    0.240
        30 -11.1529    100.5366    125.7377   9.4613677703e+01   3.6808234858e+01    0.2961252    0.2490635 -16.75 0.0005938446    1.451    0.311
        31  -9.1338    161.0590    199.5341   9.4271303885e+01   9.3168214231e+00    0.2018025    0.1243133  40.87 8.927382e-05    1.463    0.317
        32 -10.2224    108.9550    118.9440   9.0659610750e+01   3.6875659886e+01    0.2208522    0.2146977 -64.75 0.0003282626    1.009    0.009
        33 -11.4209     42.9194    179.2581   1.1797779482e+02   3.2230245328e+01    0.2930011    0.1965183 -71.04  0.000843755    1.357    0.263
        34  -9.8832    167.8830    112.7952   7.4034843104e+01   2.5555853726e+01      0.35497    0.2474155 -88.96  0.001391639    2.321    0.569
        35 -12.1230    118.5425    109.7196   8.5651687829e+01   3.7126830178e+01    0.6552823    0.5722148  84.66  0.003170431    1.307    0.235
        36 -10.1622    205.4826    110.1738   6.5653521956e+01   1.7410354205e+01    0.3113959    0.2175242  41.78 0.0008444198    1.537    0.349
        37 -13.0658     47.4817    172.8910   1.1626827208e+02   3.3162910236e+01     1.062977    0.5815009 -39.77  0.004796293    2.983    0.665
        38 -10.4964    134.6147    104.3844   7.9876941338e+01   3.4904707426e+01    0.6138213    0.1797425 -44.71  0.001777494    3.367    0.703
        39 -10.8152    188.4501    175.3682   8.3971740002e+01   8.6689740964e+00    0.5708475    0.2517453 -52.10  0.002077497    3.064    0.674
        40 -10.1687    204.2355    175.6950   8.0835628693e+01   5.6085075260e+00    0.2908034    0.1925267 -41.96  0.001001463    1.575    0.365
        41 -11.4265    140.9255    173.4858   9.4085807870e+01   1.8263633753e+01     0.587558    0.4220103 -88.94  0.002610794    1.982    0.496
        42  -9.0159    161.2681     88.9651   6.9014653972e+01   3.1885319669e+01    0.1953893    0.1358898 -40.30 0.0003917989    1.423    0.297
        43 -10.1963    196.6022    175.1289   8.2250233285e+01   7.1509248172e+00     0.306165    0.2541391 -77.83  0.001601661    1.746    0.427
        44  -9.7364    156.9408     81.4962   6.7828571675e+01   3.4356950343e+01    0.2348627    0.1533246  52.04 0.0005727328    1.531    0.347
        45  -9.7027    184.5191     77.0174   6.0823906735e+01   2.8379945400e+01    0.2337797    0.1486173 -35.74 0.0005111052    1.560    0.359
        46  -9.8807    187.0167    166.4754   8.2442151538e+01   1.0615733798e+01    0.3070951     0.181077 -58.12  0.001255278    2.392    0.582
        47 -16.8551     32.4145    249.6448   1.2522849421e+02   1.9144012375e+01      3.92728     1.135809  30.10    0.0128161    7.804    0.872
        48 -18.4084      7.8607    240.9985   1.2886563643e+02   2.3290315119e+01     6.600658     2.054097 -78.87   0.03514305    2.839    0.648
        49 -10.2563    169.0401    236.1726   9.8384226933e+01   1.7509981166e+00    0.1824453    0.1724278   2.72 0.0004241092    1.193    0.162
        50 -10.6904    158.9285    162.1633   8.7697406326e+01   1.7120156896e+01    0.3121358    0.2615064 -79.82 0.0006509973    1.457    0.314
        51 -11.0940    151.6967     54.9944   6.0870036786e+01   4.0258318611e+01    0.3252143    0.2641838 -77.30 0.0004982254    1.446    0.309
        52 -10.9179    153.4909     48.6832   5.8484163252e+01   4.0780623936e+01    0.3228882    0.2563483  88.87 0.0001747094    1.449    0.310
        53 -11.3796    175.5361    211.2731   9.3244669995e+01   4.6658591410e+00    0.3463129    0.1461006  30.61  0.001344346    2.721    0.633
