#   1 NUMBER                 Running object number                                     
#   2 MAG_AUTO               Kron-like elliptical aperture magnitude                    [mag]
#   3 X_IMAGE                Object position along x                                    [pixel]
#   4 Y_IMAGE                Object position along y                                    [pixel]
#   5 X_WORLD                Barycenter position along world x axis                     [deg]
#   6 Y_WORLD                Barycenter position along world y axis                     [deg]
#   7 A_WORLD                Profile RMS along major axis (world units)                 [deg]
#   8 B_WORLD                Profile RMS along minor axis (world units)                 [deg]
#   9 THETA_WORLD            Position angle (CCW/world-x)                               [deg]
#  10 FWHM_WORLD             FWHM assuming a gaussian core                              [deg]
#  11 ELONGATION             A_IMAGE/B_IMAGE                                           
#  12 ELLIPTICITY            1 - B_IMAGE/A_IMAGE                                       
         1 -13.2571    226.3092     86.9344   7.9727724406e+01   1.6698883842e+01     3.243359     1.903296 -16.99   0.01333253    2.294    0.564
         2 -15.0064    244.4258     41.9021   6.6267397246e+01   1.9156079449e+01     7.518442     1.954422 -31.88   0.02562101    3.458    0.711
         3 -12.2873    248.0677    129.2921   8.6460179943e+01   5.2346742790e+00     3.131974    0.2963092 -35.35  0.006504111    8.662    0.885
         4  -9.7473     29.7722     13.0461   1.0720948730e+02   7.0507173317e+01    0.1878435    0.1485515 -17.36 0.0003347209    1.034    0.033
         5 -11.9244     77.2362     10.5704   8.6350706636e+01   6.3535993720e+01    0.2756453    0.2450486  23.10 0.0004007315    1.102    0.092
         6  -8.7091    117.7519      8.9807   7.4829346123e+01   5.4905448716e+01    0.1622179    0.1151983 -16.70 0.0003987765    1.513    0.339
         7 -10.7821      3.7831      5.1979   1.1760514122e+02   7.4060487589e+01    0.3505161    0.2037992 -39.49  0.002147315    1.308    0.236
         8  -9.9787    110.9860      5.0954   7.4735168181e+01   5.6852767498e+01     0.199956    0.1797089  16.98  0.001241364    1.101    0.092
         9  -9.7924     50.8402      3.7429   9.2673925515e+01   6.8908916584e+01    0.1975263    0.1564257  -6.73 0.0002600989    1.088    0.081
        10  -8.5978    153.4901      3.4734   6.6494772337e+01   4.6482748841e+01     0.137659    0.1228046  70.42 -7.613848e-06    1.010    0.010
        11  -9.0465     99.5266      3.3625   7.6681652217e+01   5.9612058010e+01    0.2992372    0.1231124  64.53  0.001060041    2.627    0.619
        12  -9.5324     59.0270      1.5398   8.8250422866e+01   6.7806946586e+01    0.1667019    0.1270788  31.05 0.0003694921    1.197    0.165
        13  -9.7969     14.8552      2.0539   1.0954528709e+02   7.3646931114e+01    0.1871785    0.1289186  -7.90            0    1.254    0.202
        14  -8.1539    168.4265      1.4784   6.3861297585e+01   4.2797651149e+01     0.136021    0.1211749  83.59  4.96123e-05    1.026    0.026
        15  -9.3577    113.6109    245.1503   1.3246399187e+02   1.0704392557e+01    0.1429316    0.1088192 -49.86 0.0009554204    1.780    0.438
        16 -10.0541    249.9481    246.5392   1.0857779734e+02  -1.0569196736e+01    0.4316708    0.1749186 -20.66  0.002155601    3.157    0.683
        17  -9.4829    223.4418    227.3638   1.0999874163e+02  -4.5257544689e+00    0.4347534    0.2682486 -46.89  0.002469783    2.355    0.575
        18 -10.2066    218.0323    246.2538   1.1386516097e+02  -5.9442908257e+00    0.3540996    0.1820077 -35.38  0.001986465    2.327    0.570
        19  -9.4891    219.4257    239.4092   1.1259576610e+02  -5.3594553737e+00    0.2338218    0.1849037 -27.88 0.0009541102    1.498    0.332
        20  -9.6287    216.8350    222.6459   1.1039356247e+02  -2.8736400691e+00    0.3546251    0.2051858 -41.66  0.001978933    2.125    0.530
        21 -11.2704    211.7376    242.7445   1.1443285750e+02  -4.5747160217e+00    0.7938061    0.4507266  -7.55  0.004132944    2.705    0.630
        22 -11.1125    216.2170    232.5029   1.1208541268e+02  -4.0257100058e+00    0.5346172     0.341905 -18.76  0.003236477    1.800    0.444
        23  -8.2027    201.6403    250.7338   1.1734109278e+02  -3.9742948084e+00    0.1188908   0.07273848  21.05 0.0006989142    1.639    0.390
        24 -11.2387    194.0856    246.5264   1.1807654940e+02  -2.2856388143e+00    0.5052101    0.3592215 -30.87  0.003376112    1.720    0.419
        25  -9.1195    184.6160    250.5673   1.2030249875e+02  -1.3059857926e+00    0.2177261    0.0900879  37.72 0.0009359189    1.921    0.479
        26  -9.7029    163.9555    245.9874   1.2340092934e+02   2.5993332504e+00    0.3784583    0.2157396 -40.57  0.002197471    2.293    0.564
        27 -10.8366    176.4369    245.1577   1.2103827889e+02   7.0279465669e-01     0.465295    0.3447231  -9.80  0.002554457    1.809    0.447
        28  -9.3981    176.0949    238.2760   1.2016274364e+02   1.7021582760e+00    0.2112384    0.1640352 -10.56   0.00136069    1.639    0.390
        29 -10.3020    168.3632    250.0413   1.2312385389e+02   1.3364276760e+00    0.3266191    0.1536675  35.06  0.000747261    1.848    0.459
        30 -11.0389    169.9347    241.9644   1.2178970044e+02   2.1936643044e+00    0.5235685    0.3237569 -41.39  0.003020538    2.046    0.511
        31  -9.2695    151.0462    249.7808   1.2619970660e+02   4.1304623478e+00    0.1786424    0.1623574  45.22 0.0007828155    1.180    0.153
        32 -10.5064    140.9986    247.9517   1.2779987425e+02   5.9932176491e+00     0.321656    0.2708074 -61.57  0.002259484    1.506    0.336
        33  -9.7302    142.8797    242.6645   1.2683719001e+02   6.4859485008e+00    0.1978495    0.1708886  -8.66  0.001000625    1.601    0.375
        34  -8.6955     94.4931    244.4625   1.3584656488e+02   1.3672952961e+01    0.1176512   0.08852933  57.98 0.0001719126    1.007    0.007
        35  -8.6564     81.3399    244.3222   1.3817792600e+02   1.5572114896e+01   0.09760667   0.08889639  17.58 0.0005645234    1.720    0.419
        36  -9.5862    224.8580    240.5627   1.1183782127e+02  -6.3180146691e+00    0.4315843    0.1573693 -39.46  0.002069509    3.390    0.705
        37  -9.9829    201.8209    241.2990   1.1596038515e+02  -2.8500907866e+00    0.3109077    0.2179683 -27.32  0.002029791    1.687    0.407
        38  -9.9230    205.6195    236.1913   1.1452702914e+02  -2.8092674950e+00    0.2879488    0.2261096  -5.67   0.00157054    1.369    0.270
        39  -9.5359    207.3363    232.3216   1.1362982462e+02  -2.5903841935e+00    0.2365746    0.1610979   3.26  0.001410983    1.706    0.414
        40 -10.6896    159.3613    236.1262   1.2296136872e+02   4.7754311858e+00    0.4723487    0.2949655  22.21  0.002544336    2.031    0.508
        41 -10.2263    163.4905    226.1159   1.2080788776e+02   5.6031958285e+00    0.5303026    0.2840849 -26.99  0.002339442    3.448    0.710
        42 -10.6532    158.3504    230.1469   1.2234618722e+02   5.8517060162e+00    0.3459095    0.2688903 -12.46   0.00133229    1.795    0.443
        43 -10.7333    149.0818    238.5152   1.2518227420e+02   6.1089530686e+00    0.3480603    0.2937399  -2.62  0.001674263    1.592    0.372
        44  -9.7693    153.1562    233.4830   1.2377352458e+02   6.2070397955e+00    0.2734194    0.2194437  16.72  0.001034832    1.479    0.324
        45  -9.6041    124.8520    240.4877   1.2991053139e+02   9.7061944465e+00    0.1893926    0.1401602 -27.59  0.001136255    2.258    0.557
        46  -9.1065    105.0518    240.7743   1.3358422305e+02   1.2722340140e+01    0.1777253    0.1315733  20.89  0.001080984    2.012    0.503
        47 -10.5813    240.2586    207.9595   1.0377399981e+02  -4.7453971082e+00     0.390808    0.2744796 -44.67  0.002127639    1.937    0.484
        48  -7.6765    236.4272    191.6060   1.0142648986e+02  -1.9469880978e+00     2.903317    0.5233007 -32.64  0.007494189    7.575    0.868
        49  -8.6697     48.0190    250.0000   1.4429228171e+02   1.8959319419e+01    0.1662546   0.04822429  39.78 0.0004864763    2.886    0.654
        50  -8.9710    228.8667    227.5698   1.0908985074e+02  -5.3964382529e+00    0.1797651    0.1273741 -29.21  0.001161128    1.571    0.363
        51  -9.5574    211.8148    226.5263   1.1191838838e+02  -2.5643391750e+00    0.2996774    0.1616902 -27.03  0.001505505    2.209    0.547
        52  -9.1554    205.2996    217.1571   1.1157351744e+02  -2.2546578980e-01    0.2792135    0.1835475   4.66  0.001453279    1.910    0.476
        53  -9.3345    201.5692    220.7226   1.1284094933e+02  -9.2673241060e-02    0.2409248    0.1205351 -36.46  0.001221611    2.310    0.567
        54  -8.8793    174.1856    227.7733   1.1902303894e+02   3.5322684973e+00    0.1762455    0.1325618  19.70  0.001071051    1.413    0.292
        55  -9.3496    240.2962    231.6681   1.0781090145e+02  -7.6034978020e+00    0.2132615    0.1460623 -29.60  0.001094532    1.635    0.388
        56  -9.8440    206.6492    224.2856   1.1248837193e+02  -1.4247392717e+00    0.3748174    0.2494718 -11.79  0.002161855    1.831    0.454
        57  -9.6064    210.7903    217.3580   1.1060516802e+02  -1.1754874492e+00    0.3646407     0.177849 -24.97  0.001701592    2.719    0.632
        58  -9.2071    180.6128    221.7992   1.1691783730e+02   3.3231153638e+00    0.2781167    0.1475145 -29.21  0.001327952    2.675    0.626
        59  -8.5076    129.9908    223.7719   1.2695593855e+02   1.1652183751e+01    0.1719384   0.08815217  42.84 0.0005906018    1.619    0.382
        60  -8.9433    235.7121    217.9641   1.0630308257e+02  -5.2851235682e+00    0.1816781    0.1502657  10.82 0.0006802462    1.065    0.061
        61 -10.3145    239.8419    220.2813   1.0599301168e+02  -6.2050741818e+00    0.3992275    0.2005577 -25.16  0.002149111    2.138    0.532
        62  -8.8274    239.0000    214.0649   1.0506609540e+02  -5.3150890834e+00    0.1693691    0.1131359  -9.32 0.0006538477    1.518    0.341
        63  -9.0904    225.7896    212.9689   1.0717188857e+02  -3.0655270418e+00    0.2166671    0.1383341 -32.06    0.0012608    1.690    0.408
        64  -9.9822    227.5636    220.7074   1.0817973424e+02  -4.3457653826e+00    0.3169633    0.2530168  -4.17  0.001664131    1.202    0.168
        65  -9.0667    227.5514    216.4748   1.0746488507e+02  -3.8059700792e+00    0.2294883    0.1621032  -2.72  0.001128211    1.451    0.311
        66  -9.2875    185.9190    220.3936   1.1569915349e+02   2.6189066037e+00    0.2821026    0.1717801 -36.40  0.001554515    1.943    0.485
        67  -9.0007    174.6723    221.9234   1.1806351454e+02   4.3277260713e+00    0.1865994    0.1515707  -8.14  0.001159356    1.492    0.330
        68  -9.0568    148.4925    221.5170   1.2305167388e+02   8.9076883157e+00    0.2090789    0.1179471 -37.05  0.001035403    2.495    0.599
        69  -9.3521    219.3107    217.0291   1.0901675272e+02  -2.5411635490e+00    0.2257569    0.1603221 -44.14  0.001354468    1.821    0.451
        70  -9.2775    179.4863    216.3490   1.1628578665e+02   4.3439942054e+00    0.2387878     0.199893  -3.35  0.001500436    1.362    0.266
        71  -9.6544    170.9991    214.9842   1.1770919715e+02   6.0487973305e+00    0.4840365    0.2369861 -28.01  0.001931249    3.752    0.733
        72 -10.4509    172.9178    204.4239   1.1564457504e+02   7.4214685978e+00    0.4369167    0.2753548 -27.76  0.002059413    2.101    0.524
        73 -10.2101    176.4641    209.7018   1.1580946960e+02   5.9216398576e+00    0.4309607    0.3635348 -30.86  0.002100336    1.364    0.267
        74  -9.7925    178.8547    203.4444   1.1430931045e+02   6.5017025418e+00    0.3534682    0.2319777 -25.13  0.001822724    1.963    0.490
        75  -8.7560    200.5701    214.9868   1.1208690097e+02   8.8648160929e-01     0.168854     0.123649 -35.13 0.0008987699    1.557    0.358
        76  -9.9223    216.8565    211.0888   1.0844229442e+02  -1.3341133743e+00    0.3737036    0.1822421 -35.35  0.001868859    2.250    0.556
        77  -9.2006    154.6003    212.6972   1.2058235662e+02   9.3219681776e+00    0.1934279    0.1512484   6.43  0.001096187    1.704    0.413
        78  -8.3694    132.5447    213.4506   1.2509817857e+02   1.3032299769e+01    0.1293662    0.1102889  48.08 4.839863e-05    1.064    0.060
        79  -9.9440    198.8935    225.8986   1.1415469968e+02  -3.5892040660e-01     0.330731    0.2216208 -23.28  0.001439896    1.776    0.437
        80  -9.1034    212.5439    210.5297   1.0912859059e+02  -5.2808250345e-01    0.2764178    0.1198084 -31.22  0.001240496    2.719    0.632
        81  -9.7011    230.0397    186.6476   1.0160098266e+02  -1.4798628916e-01    0.3164865    0.1785516 -34.30  0.001052438    1.804    0.446
        82  -9.1325    230.3983    179.9818   1.0023613750e+02   7.6346726655e-01    0.4038044    0.2037124 -16.26  0.001626612    2.969    0.663
        83  -9.9042    229.1353    206.2135   1.0539361973e+02  -2.7186796399e+00    0.3454842    0.1672807 -37.72  0.001528227    2.259    0.557
        84  -8.6778    227.5535    201.0139   1.0473594424e+02  -1.7492779225e+00    0.2602617    0.1480743 -27.21 0.0008659097    1.853    0.460
        85  -9.0165    230.6762    198.4760   1.0371830108e+02  -1.9257375663e+00     0.267288    0.1818034 -29.17 0.0009231173    1.506    0.336
        86  -9.7567    231.0838    193.1026   1.0264568127e+02  -1.2481615759e+00    0.3627378    0.1804531 -29.93  0.001580333    2.088    0.521
        87  -9.1326    224.5704    207.3220   1.0639944330e+02  -2.1111239635e+00    0.2587412    0.1183418 -33.66  0.001244594    2.344    0.573
        88  -8.9261    206.3083    207.2221   1.0970417928e+02   1.0157286475e+00    0.3223435    0.1838757  -8.17  0.001390108    3.006    0.667
        89  -8.8483    183.0325    206.4075   1.1398934404e+02   5.2681542786e+00    0.2252533    0.1659711  -4.27   0.00123166    1.738    0.425
        90  -8.8484    156.3348    206.1763   1.1924167990e+02   1.0130145143e+01    0.2404419    0.1192558 -39.70  0.001079473    2.563    0.610
        91  -9.3554    217.4063    204.2278   1.0713849028e+02  -4.7256041989e-01    0.2791902    0.1465653 -28.63  0.001382484    2.127    0.530
        92  -8.5612    200.4316    210.4497   1.1135259082e+02   1.5676402953e+00    0.1293735    0.1078469  23.74 0.0001526434    1.039    0.038
        93  -8.8726    186.5586    202.4992   1.1264193815e+02   5.2525334741e+00    0.2504492    0.1313687 -41.82  0.001201361    2.161    0.537
        94  -9.1900    223.5155    200.9961   1.0545364118e+02  -1.0626392945e+00    0.2536606    0.1193131 -28.82   0.00117632    2.376    0.579
        95  -8.8212    165.2322    200.1857   1.1648278162e+02   9.5468876286e+00     0.222929    0.1449001   4.68 0.0009561565    2.817    0.645
        96  -8.0817    220.4488    199.4970   1.0573376742e+02  -3.2513874745e-01    0.1302924    0.1088791  15.19 0.0002405658    1.033    0.032
        97  -8.9524    215.4739    197.4252   1.0626265469e+02   8.4100969704e-01    0.2443744    0.1253331 -36.32  0.001186728    2.088    0.521
        98  -9.7923    176.2745    196.8725   1.1370009376e+02   8.0689157785e+00     0.297827    0.2148079 -37.25  0.001403391    1.568    0.362
        99  -8.4911    226.7288    196.9857   1.0414343723e+02  -1.0490497704e+00    0.1802688     0.129507 -27.84 0.0007130145    1.427    0.299
       100  -9.5797    224.3855    192.4600   1.0371925361e+02   5.4099228583e-04    0.3586557    0.1455472 -36.01   0.00156162    2.569    0.611
       101  -9.6337    184.3974    195.3484   1.1181768498e+02   6.8121921953e+00    0.4021035    0.2158055 -31.20  0.001827948    2.337    0.572
       102  -9.0889    185.2074    189.9629   1.1068816654e+02   7.5600125749e+00    0.2716364    0.1676094 -13.56  0.001170837    2.628    0.619
       103  -9.7128    170.0807    196.6853   1.1491376631e+02   9.2541220566e+00     0.242652    0.2022056 -29.79  0.000985938    1.373    0.272
       104  -9.5080      4.2323    195.3092   1.4887537709e+02   3.3869924556e+01    0.2625754    0.1285058  60.43  0.001645246    1.639    0.390
       105  -9.5383    172.3091    190.2636   1.1334205333e+02   9.9548289556e+00    0.3439708    0.2083352 -34.02  0.001653641    1.979    0.495
       106  -9.4276    173.3909    184.7840   1.1213087428e+02   1.0719670352e+01     0.241627    0.1377307 -47.71 0.0008480314    1.970    0.492
       107 -12.6198    244.9420    158.2094   9.3274315619e+01   1.3886493759e+00     1.684691    0.9453762 -33.48  0.008397242    1.675    0.403
       108  -9.5608    178.9849    189.2396   1.1180357529e+02   8.8640259666e+00     0.295878    0.2031352 -26.77   0.00115588    1.758    0.431
       109  -8.8130    193.3137    187.5316   1.0863760011e+02   6.4327108147e+00    0.2246242    0.1598025 -11.82  0.001148072    1.746    0.427
       110  -9.1256    166.6925    185.4878   1.1364449142e+02   1.1884233869e+01    0.2737897    0.1657943 -31.63  0.001259717    2.106    0.525
       111  -9.6995     12.9227    184.5568   1.4658210953e+02   3.5289026854e+01    0.3005462    0.1218623 -85.93  0.001399883    2.123    0.529
       112  -8.6013    189.6896    184.6550   1.0881229588e+02   7.6034884932e+00     0.142132    0.1033209   7.30  0.000704533    1.704    0.413
       113  -9.7901    183.6895    182.2266   1.0955468074e+02   9.1772482185e+00    0.3662218    0.2327962 -31.80  0.001787842    1.799    0.444
       114  -8.8551    203.4195    183.0048   1.0581580881e+02   5.2631689856e+00    0.1998949     0.131368 -35.04 0.0008519349    1.610    0.379
       115  -9.1583    210.8809    181.4476   1.0409454468e+02   4.1099709508e+00    0.2768159    0.1699969 -18.07  0.001310015    2.013    0.503
       116  -8.6736    197.3746    181.7724   1.0674871440e+02   6.6151041375e+00    0.1855482    0.1271719 -25.42 0.0009403288    1.631    0.387
       117  -9.4750    176.6687    180.2509   1.1061225141e+02   1.0895135750e+01     0.322229    0.1664808 -37.52  0.001398335    2.201    0.546
       118  -9.1689    228.5323    150.1797   9.4361270753e+01   5.7432092772e+00    0.4692491     0.135996 -30.93  0.001387848    4.337    0.769
       119  -9.4660    226.4875    156.4590   9.6084801057e+01   5.1295441827e+00    0.4201625    0.1277217 -38.24   0.00145642    3.194    0.687
       120  -8.6083    225.7947    178.8976   1.0084449143e+02   1.7540690409e+00     0.239416    0.1420751 -29.33 0.0008053579    1.710    0.415
       121  -9.7364    228.3247    165.2861   9.7623212779e+01   3.3789126420e+00    0.4389879    0.3210007 -42.34  0.002389804    1.492    0.330
       122  -8.6527    227.3289    175.3251   9.9855480269e+01   2.0160520408e+00    0.2418067    0.1274334 -28.27 0.0006917369    1.985    0.496
       123  -9.5992    223.5775    172.6784   9.9997440003e+01   3.1151335798e+00    0.3020186    0.2163784 -26.22  0.001143222    1.387    0.279
       124  -9.7512    227.1818    170.6879   9.8941951821e+01   2.7535303495e+00    0.3299389    0.2053586 -34.59 0.0008841524    1.601    0.376
       125  -9.3149    190.8587    178.4406   1.0738891517e+02   8.4384340463e+00    0.2703629    0.1969558 -29.32  0.001269734    1.493    0.330
       126  -9.1258    218.8767    177.1242   1.0175161627e+02   3.2978101262e+00     0.299155    0.1407373 -30.38  0.001285113    2.315    0.568
       127  -9.2767    197.5669    176.2628   1.0563426119e+02   7.5025112385e+00    0.3119271    0.1357397 -37.27  0.001263155    2.473    0.596
       128  -8.8180    215.3504    174.0454   1.0178726538e+02   4.4458716697e+00    0.4327877     0.126838 -33.55  0.001389614    4.046    0.753
       129  -8.8980    210.5686    175.2339   1.0292386712e+02   5.1642317953e+00    0.2355993    0.1312811 -39.17 0.0008890082    1.875    0.467
       130  -9.3325    182.2622    175.4465   1.0854100720e+02   1.0655333945e+01    0.2597996    0.1961367 -37.43  0.001258326    1.421    0.296
       131  -9.2422    232.5447    174.4503   9.8752732863e+01   1.2010676170e+00    0.2521058    0.1239469 -32.50 0.0008725039    2.022    0.505
       132  -8.8628    192.5298    172.5147   1.0588485735e+02   9.1367207759e+00    0.2456162    0.1326455 -27.88   0.00102447    2.327    0.570
       133  -8.6588    187.4989    171.9436   1.0678239845e+02   1.0238558016e+01    0.2061625    0.1404406 -37.70 0.0008327067    1.559    0.359
       134  -8.9547    200.6804    170.9425   1.0395786436e+02   7.7955782636e+00    0.2660379    0.1259828 -31.73  0.001072619    2.435    0.589
       135  -9.3263    237.4818    169.0164   9.6787047407e+01   1.1224591036e+00    0.3223424    0.1236249 -34.19  0.001313793    2.546    0.607
       136  -9.5711    218.6640    167.3752   9.9809300001e+01   4.8833297476e+00    0.3760128    0.2249586 -25.64  0.001792681    1.796    0.443
       137  -9.0557    204.8233    168.4135   1.0263652672e+02   7.4073503296e+00    0.2367871    0.1597839 -31.54  0.001185584    1.537    0.349
       138  -9.6760    178.7168    167.9826   1.0779070412e+02   1.2726700831e+01    0.3675446    0.1694175 -35.65    0.0014257    2.550    0.608
       139  -9.5493    199.5245    164.2951   1.0281513698e+02   9.1703162021e+00     0.379871    0.1386777 -40.41  0.001384153    2.831    0.647
       140  -9.1667    191.5202    164.4633   1.0444403482e+02   1.0762574421e+01    0.2911417    0.1416185 -39.29  0.001204302    2.154    0.536
       141  -8.9820    233.6930    163.5593   9.6315911541e+01   2.6432351150e+00    0.2334072    0.1159178 -35.14  0.001055981    1.956    0.489
       142  -9.2216    212.7812    162.1467   9.9812038735e+01   6.8867192802e+00    0.3191776    0.1757558 -28.94  0.001417372    1.964    0.491
       143  -9.6303    205.0135    160.8941   1.0102857757e+02   8.6517446186e+00     0.325877    0.2319898 -34.93  0.001597586    1.428    0.300
       144  -8.8472    221.4617    161.0725   9.7976012217e+01   5.3609884425e+00    0.2051291    0.1311107 -30.48  0.001010215    1.557    0.358
       145  -8.9631    231.4438    159.0182   9.5753397589e+01   3.7712965634e+00    0.2452706    0.1596316 -23.70   0.00105156    1.546    0.353
       146  -9.3148    233.0896    153.6655   9.4320797138e+01   4.3004024787e+00    0.3025441    0.1809982 -29.75  0.001460089    1.622    0.383
       147  -9.2010    197.1512    156.1037   1.0154388109e+02   1.1102091313e+01    0.3056361    0.1987864 -24.31  0.001402834    1.777    0.437
       148  -8.7406    222.0000    156.0666   9.6808785016e+01   6.0709415028e+00     0.224396   0.07667659 -36.72  0.000794297    2.886    0.654
       149  -9.1237    205.8422    153.4863   9.9273274300e+01   9.7669277044e+00    0.2867316     0.183837 -18.38  0.001264274    1.926    0.481
       150  -8.4845    179.2212    153.9928   1.0476077757e+02   1.5256395801e+01    0.1935345    0.1217306 -41.82 0.0008676984    1.651    0.394
       151  -8.4309    211.5129    151.4866   9.7753435730e+01   8.9471841632e+00    0.1425828    0.1336603   4.80 0.0008103935    1.007    0.007
       152  -8.8756    202.4376    150.9386   9.9374063729e+01   1.0922005092e+01    0.2193678    0.1401944 -35.22 0.0006262023    1.585    0.369
       153  -9.9972    220.7215    128.1494   9.0745512536e+01   1.1024951889e+01    0.4966241    0.3253941   2.41  0.002097235    2.310    0.567
       154  -8.8615    218.5480    143.8094   9.4739542480e+01   8.8108527573e+00    0.3207121    0.1961305 -23.58  0.001213305    1.807    0.447
       155  -9.3452    215.1499    148.0921   9.6322448793e+01   8.7817214154e+00    0.3329824    0.1994824 -35.27  0.001153384    1.646    0.393
       156  -9.5430    214.2838    141.9168   9.5096511219e+01   1.0021231249e+01     0.428005    0.1956884 -41.09  0.001163435    2.174    0.540
       157  -9.8362    218.5037    137.5181   9.3318906405e+01   9.8920479560e+00    0.3589344    0.2657378 -22.27  0.001093857    1.383    0.277
       158  -8.5880    215.3531    135.2889   9.3379546930e+01   1.0942273572e+01    0.1939939    0.1358692 -44.21 0.0005612812    1.461    0.315
       159  -8.8306    217.7120    132.6443   9.2335829440e+01   1.0896546025e+01    0.2768857    0.2104612   6.03  0.001364506    1.574    0.364
       160  -8.9485    191.1142    147.6680   1.0090283280e+02   1.3913275430e+01    0.2648825    0.1947993 -48.06 0.0009558172    1.454    0.312
       161  -9.7832    223.4343    145.8215   9.4305921124e+01   7.4750078885e+00    0.3436542    0.2187377 -22.07  0.001180704    1.701    0.412
       162  -9.0510    207.8484    144.3994   9.6869126613e+01   1.0941709195e+01    0.2947586    0.1873119 -18.85  0.001134221    1.936    0.483
       163 -10.4644    155.5350    143.2514   1.0761208199e+02   2.2469265792e+01    0.4379773    0.1498506 -46.96  0.001421078    3.034    0.670
       164  -9.5381    234.5082    145.7974   9.2361168296e+01   5.2760361377e+00    0.3327371    0.2265361 -21.40  0.001268685    1.481    0.325
       165  -9.4837    229.8705    140.2022   9.1914163380e+01   7.1021267725e+00    0.3463485    0.1874176 -36.48    0.0014048    1.757    0.431
       166  -8.7124    238.8351    140.1842   9.0387784859e+01   5.3237582235e+00    0.1875778    0.1459216 -12.25 0.0006934524    1.287    0.223
       167  -9.2798    224.1886    139.7080   9.2798521507e+01   8.3406273979e+00    0.2826695    0.1829136 -22.88 0.0008559333    1.641    0.391
       168 -12.5343    244.2926    186.0939   9.9019459502e+01  -2.5081364001e+00     3.943416    0.5696468 -36.68    0.0108588    6.599    0.848
       169  -8.5639    192.5966    136.7604   9.8106426737e+01   1.5624469399e+01     0.215273    0.1396583 -48.27 0.0009558644    1.644    0.392
       170  -9.8342    155.5883    135.3102   1.0579097062e+02   2.4116753796e+01    0.2996753    0.1479803 -48.92  0.001141533    2.114    0.527
       171  -9.0747    233.9704    134.9796   9.0033576824e+01   7.1271273123e+00    0.2183855    0.1701666 -63.31  0.001125035    1.686    0.407
       172 -11.5443    242.9070    136.9377   8.8994782892e+01   5.0422018201e+00     1.826623    0.2723763 -40.78    0.0043797    6.672    0.850
       173  -9.3190    225.5219    133.1077   9.1055334686e+01   9.1702772090e+00    0.3286697    0.1372835 -32.31  0.001239951    2.421    0.587
       174  -9.3614    179.7865    132.3754   9.9723209793e+01   1.9320624709e+01    0.4307302    0.2203317 -38.66   0.00169714    2.004    0.501
       175  -8.9013    236.6830    235.1983   1.0898796321e+02  -7.4697502884e+00     0.207653     0.129263 -42.91  0.001115127    2.283    0.562
       176 -10.3826    154.8951    130.3843   1.0479094647e+02   2.5302465076e+01    0.3121514    0.2309445 -36.59  0.001454129    1.436    0.304
       177  -9.1218    233.5356    128.4415   8.8610849491e+01   8.2828914741e+00    0.2825277    0.1309185 -35.08 0.0008815584    2.018    0.504
       178  -8.3589    186.2863    128.6591   9.7468176062e+01   1.8571008154e+01    0.1535231    0.1209319 -75.16 0.0007018587    1.639    0.390
       179  -9.0709    199.5216    126.0301   9.4176384911e+01   1.6069409281e+01    0.2312297    0.1459417 -37.60  0.001022849    1.563    0.360
       180 -10.0551    179.8149    123.7656   9.7624324987e+01   2.0996717196e+01    0.4845789    0.2759109 -38.61  0.002000941    1.776    0.437
       181  -9.2622    227.5335    124.2394   8.8643541278e+01   1.0233880693e+01    0.3370797    0.1370251 -33.21   0.00125858    2.412    0.585
       182  -8.9247    234.9136    123.0900   8.7142697056e+01   8.8737043165e+00     0.215274    0.1769945 -46.42 0.0006689309    1.247    0.198
       183  -9.2754    178.0435    232.0605   1.1892479757e+02   2.2584995441e+00    0.3745559    0.2159267  10.57  0.001599169    3.491    0.714
       184  -9.3726    185.5709    114.7720   9.4163392572e+01   2.1394062352e+01    0.3927483    0.1526754 -36.74  0.001314588    2.645    0.622
       185  -9.8051    181.2706    115.2848   9.5184507415e+01   2.2306433162e+01    0.3704794    0.2396343 -27.05 0.0009937177    1.775    0.436
       186  -9.2084    234.7875    111.7614   8.4494052987e+01   1.0753982474e+01    0.3191776     0.231294 -85.06  0.001502418    2.060    0.515
       187  -8.8747    144.0000    111.9971   1.0280784839e+02   3.1633045906e+01    0.2614708   0.08873712 -43.91 0.0008032074    2.948    0.661
       188  -9.4257    182.8754    109.0468   9.3240023965e+01   2.3124352218e+01    0.3454747    0.1962019 -42.09   0.00141013    1.742    0.426
       189  -9.6282    242.4426    247.0697   1.0988548349e+02  -9.5840889777e+00    0.3366422     0.151374 -24.35  0.001866154    2.549    0.608
       190 -11.9457    247.6013    216.2167   1.0398673790e+02  -6.8960874183e+00     1.215539    0.3367894 -29.87  0.004724273    4.132    0.758
       191 -11.0163    248.8012    204.2312   1.0165737019e+02  -5.6156012550e+00    0.7769251    0.3424752 -23.65  0.003675045    2.528    0.604
       192  -9.4064    159.9940    100.0429   9.5786622255e+01   3.0369895826e+01    0.3346729    0.2168699 -39.84 0.0009430636    1.547    0.354
       193  -9.2346    202.4968     97.1019   8.6307991007e+01   2.0609982587e+01    0.4051797    0.1462598 -36.06  0.001352027    2.685    0.628
       194  -9.1774    145.5282    231.4459   1.2494911927e+02   7.7961371693e+00    0.2514046    0.1778156   7.93  0.001356339    2.303    0.566
       195  -8.4906    183.3686     95.7720   8.9599662650e+01   2.5501171542e+01    0.2220886    0.1482454 -26.42 0.0007866312    1.673    0.402
       196  -9.0426    235.1824     94.9301   8.0372170080e+01   1.3400021657e+01    0.2269847    0.1835666 -52.34  0.001216497    1.228    0.186
       197  -8.6957    164.3163     93.6842   9.3040053284e+01   3.0569255222e+01    0.1618322    0.1240421 -77.47 0.0007037469    1.649    0.393
       198  -9.6971    183.5312    237.8662   1.1874793473e+02   5.4039180302e-01    0.3554897    0.2028046 -24.35  0.001864036    2.609    0.617
       199  -9.4433    202.7504     89.8495   8.4349657884e+01   2.1815166869e+01    0.3526314    0.2260351 -45.21  0.001535949    1.534    0.348
       200  -8.4782    196.5117     91.5292   8.5923836699e+01   2.3044279825e+01    0.1521758    0.1478839 -57.83 0.0001710069    1.006    0.006
       201  -8.8928    175.4710     87.9465   8.9035612692e+01   2.8896821984e+01    0.2386783    0.1523371 -38.81 0.0007993471    1.552    0.356
       202  -9.5024    235.4204    227.5475   1.0796161420e+02  -6.3975059208e+00    0.3066889    0.1667528 -22.30  0.001468142    2.024    0.506
       203  -9.5864    135.5085    239.4899   1.2782234781e+02   8.1640541733e+00    0.1949405    0.1811994 -40.31  0.001201034    1.413    0.292
       204  -9.4419    200.2908     83.4579   8.3069175055e+01   2.3515212139e+01    0.2890466    0.2056747 -36.09  0.001019395    1.373    0.272
       205  -9.5976    201.0949     77.8575   8.1410044988e+01   2.4259243047e+01     0.408338    0.2096038 -37.20  0.001157167    1.867    0.464
       206  -9.9782    193.1529    217.3170   1.1385142884e+02   1.8247743802e+00    0.4997779    0.2265455 -38.57  0.002378838    2.573    0.611
       207  -8.2040    185.6564     82.6970   8.5536973462e+01   2.7293268451e+01    0.1593725    0.1210264  21.83 0.0007039722    1.683    0.406
       208  -9.0048    214.8582     80.0901   7.9746293249e+01   2.0517228615e+01    0.2717469     0.197836 -28.32 0.0008999789    1.403    0.287
       209  -9.2918    174.5789     78.2444   8.6438338762e+01   3.0869838923e+01    0.3076045    0.1423025 -40.79   0.00113088    2.121    0.528
       210  -8.9319    166.6671     77.4690   8.7841619300e+01   3.3004934979e+01    0.2796907     0.145105 -36.03  0.001077101    1.941    0.485
       211  -9.1281    211.2708     76.2243   7.9295808982e+01   2.2016406327e+01    0.2679709    0.1767365 -30.73  0.000835873    1.526    0.345
       212  -8.7561    183.4476     77.2678   8.4422508671e+01   2.8795291190e+01    0.2243522    0.1389787 -47.22 0.0009448818    1.645    0.392
       213 -10.2358    189.4793    233.4517   1.1702436435e+02   1.6675310744e-01    0.4715843    0.3643907 -38.68  0.002465451    1.583    0.368
       214  -8.7293    210.5936     71.7266   7.8204394597e+01   2.2904732853e+01    0.2127612     0.130402 -43.87 0.0008363434    1.560    0.359
       215  -9.1210    163.2128     70.9882   8.6627986202e+01   3.5021233117e+01    0.3290868    0.1828809 -35.30  0.001239971    1.820    0.451
       216 -10.1222    218.2580     69.0615   7.6339857510e+01   2.1448582865e+01    0.4276071    0.1301983 -30.51  0.001316644    3.505    0.715
       217  -8.5773    116.6937     68.6231   9.7259738181e+01   4.6584278193e+01    0.1577163    0.1175679   2.12 0.0007028357    1.776    0.437
       218  -9.0526    203.2985     66.2201   7.7862652579e+01   2.5592901839e+01    0.2736299    0.1834868 -45.35  0.001101636    1.446    0.308
       219  -8.9861    193.6713     67.5214   7.9811548361e+01   2.7822415857e+01    0.2626214    0.1384269 -34.02  0.001023829    1.881    0.468
       220  -9.3068    214.0640     70.0220   7.7217413867e+01   2.2321558937e+01    0.2431152    0.1623083 -60.57 0.0008135707    1.659    0.397
       221  -9.9370    217.4484     58.0842   7.3570579553e+01   2.3310321248e+01    0.3784548      0.19961 -21.85  0.001167963    2.352    0.575
       222  -7.9747    192.5242     62.4979   7.8581896183e+01   2.8914024054e+01      0.15136    0.1431594 -73.83 0.0008101194    1.019    0.018
       223  -8.5351     30.9345     62.0108   1.2468956674e+02   6.1340390501e+01    0.1439762    0.1235855 -42.17 0.0003902055    1.058    0.054
       224  -8.6218    206.3924     58.8419   7.5363738674e+01   2.5950216323e+01    0.2042278    0.1426796 -18.10 0.0007795739    1.704    0.413
       225  -9.4841     33.9422     58.2233   1.2244558174e+02   6.1861061441e+01    0.2986514     0.157197  27.48 0.0006586089    2.188    0.543
       226  -9.5897    190.2569    225.4696   1.1567731595e+02   1.1469413816e+00     0.337916    0.1730938 -36.35  0.001742009    2.348    0.574
       227  -9.3221    192.2961     54.9675   7.6466898602e+01   3.0128235304e+01    0.2145499    0.1911121 -40.81 0.0006808678    1.127    0.113
       228  -8.3770    185.3374     53.3051   7.7127431321e+01   3.2177734525e+01    0.1547986    0.1142175  30.25 0.0003414639    1.673    0.402
       229  -9.6936    196.4560     48.7610   7.4047931825e+01   2.9965466759e+01    0.5166259    0.2573943  46.00   0.00204257    2.277    0.561
       230 -10.1060    214.4625     47.6825   7.1216921725e+01   2.5547807585e+01    0.3860785    0.1448357 -39.83  0.001450437    2.403    0.584
       231  -8.9804     47.1363     42.4435   1.1183182158e+02   6.3547066053e+01    0.2229557    0.1431152 -34.85  0.000531687    1.367    0.269
       232  -8.5705    160.2982     38.6742   7.7011834135e+01   4.0798120918e+01     0.153213    0.1104703 -66.37  0.000366698    1.631    0.387
       233  -9.5840    139.5078    235.5484   1.2660191204e+02   8.1373794911e+00    0.2538489    0.2010855 -24.18  0.001608442    1.847    0.459
       234  -9.0537    140.1335     33.5803   7.9265828029e+01   4.6642971400e+01    0.2264446    0.1694193 -18.52 0.0004403962    1.461    0.315
       235  -8.4393     26.6265     34.1301   1.1774014790e+02   6.7277337913e+01    0.1669962   0.08564988 -40.69 0.0001513539    1.584    0.369
       236  -8.9396      9.0117     32.2574   1.2544277493e+02   6.8972285100e+01      0.15586      0.12337 -35.85 0.0004806904    1.064    0.060
       237  -9.2867    170.9248    233.6571   1.2047305062e+02   3.2163979751e+00    0.2502982    0.1707874 -22.44  0.001445479    2.055    0.513
       238  -9.1141    136.8248     24.9583   7.6878910803e+01   4.8545799814e+01    0.2136281    0.1798888  27.25 0.0003002228    1.227    0.185
       239  -8.0525     68.3000     23.3329   9.5415374421e+01   6.3559749220e+01     0.134103   0.09020633   4.47 0.0003295598    1.651    0.394
       240  -8.9458     85.0607     21.8410   8.8957273341e+01   6.0670983801e+01    0.1883107    0.1790603 -37.62 0.0005997113    1.272    0.214
       241 -10.5286    239.9676    239.9985   1.0919800799e+02  -8.4809898603e+00    0.4029496    0.2806261  -3.09  0.002703698    1.378    0.274
       242  -9.7851      2.5076     15.9933   1.2299802104e+02   7.2332457041e+01    0.1584207    0.1226868 -22.86 0.0003536347    1.147    0.128
       243  -8.6705    229.5340    235.5418   1.1025596794e+02  -6.4424356864e+00    0.2077571    0.1097909 -32.48  0.001196449    2.128    0.530
       244  -8.5150     23.5275     15.5998   1.1158744431e+02   7.0763539358e+01    0.1143283   0.08978094 -20.38   0.00011312    1.027    0.026
       245  -9.4207    232.4886    246.4273   1.1144007768e+02  -8.0981273938e+00    0.2431861    0.1250589 -31.48  0.001427878    2.220    0.550
       246  -8.7947    224.3949    247.9947   1.1303871952e+02  -7.0876627134e+00    0.1482137    0.1045821 -25.18  0.001017329    1.617    0.381
       247  -9.3102    187.1544    246.3720   1.1928425892e+02  -1.1704339686e+00    0.2331172    0.1641859   4.29  0.001447768    1.785    0.440
       248  -9.3706    156.9849    246.1761   1.2468833788e+02   3.6953833273e+00    0.2334609    0.1601126 -21.30  0.001368725    2.318    0.569
       249 -10.1250    146.6241    245.7668   1.2652242722e+02   5.4197111985e+00    0.2366184    0.1895187  -2.22  0.001310274    1.815    0.449
       250  -9.2918    123.8625    246.9836   1.3079674281e+02   8.8336169746e+00    0.1683856     0.136169 -12.60  0.001085319    2.070    0.517
       251  -9.6949    132.8791    245.8391   1.2903460054e+02   7.5976587677e+00    0.1788103    0.1467944  29.12  0.001229943    1.368    0.269
       252  -9.2553    201.8785    231.5503   1.1448938908e+02  -1.6081502683e+00    0.2340968    0.1671802 -24.38  0.001307677    1.618    0.382
       253  -9.1541    237.5312    244.1968   1.1025706989e+02  -8.5843876985e+00    0.2102671    0.1024566 -39.39   0.00117617    2.680    0.627
       254  -9.4131    151.8300    244.9611   1.2547622928e+02   4.7012369976e+00    0.1760235    0.1324887  -1.22  0.001070987    2.029    0.507
