#   1 NUMBER                 Running object number                                     
#   2 MAG_AUTO               Kron-like elliptical aperture magnitude                    [mag]
#   3 X_IMAGE                Object position along x                                    [pixel]
#   4 Y_IMAGE                Object position along y                                    [pixel]
#   5 X_WORLD                Barycenter position along world x axis                     [deg]
#   6 Y_WORLD                Barycenter position along world y axis                     [deg]
#   7 A_WORLD                Profile RMS along major axis (world units)                 [deg]
#   8 B_WORLD                Profile RMS along minor axis (world units)                 [deg]
#   9 THETA_WORLD            Position angle (CCW/world-x)                               [deg]
#  10 FWHM_WORLD             FWHM assuming a gaussian core                              [deg]
#  11 ELONGATION             A_IMAGE/B_IMAGE                                           
#  12 ELLIPTICITY            1 - B_IMAGE/A_IMAGE                                       
         1 -10.3952     10.1268     18.9716   1.0282806918e+02   6.7571620178e+01     1.141745     0.420734 -17.15  0.004063278    6.423    0.844
         2 -10.9732     22.3741      7.7976   9.3705391791e+01   6.7992508670e+01     1.045947    0.7225192  46.39   0.00658594    2.868    0.651
         3 -11.0364     23.5974     32.7979   1.0206634859e+02   6.4518901980e+01     1.251267    0.4103882 -33.47  0.004036076    2.935    0.659
         4  -9.4654      2.3569     14.5034   1.0454390934e+02   6.8718197251e+01    0.3554318    0.2048939 -55.19  0.001759853    2.537    0.606
         5 -10.5440      4.8710      4.4944   9.9841589246e+01   6.9856762469e+01    0.4281788    0.2965901  -9.71  0.001806795    1.070    0.066
         6 -10.2999      5.0049     41.6532   1.1180888232e+02   6.4439751742e+01    0.7353918    0.2866881 -53.45  0.002832197    2.184    0.542
         7  -9.8159     56.4094     43.2114   9.3510761362e+01   5.9492803660e+01    0.8741074    0.4299448  -3.95  0.002992761    5.419    0.815
         8 -10.7923    134.0104     31.0495   6.7782548749e+01   4.7442208586e+01    0.3390739    0.2544647   3.15  0.001928055    1.625    0.385
         9  -9.4805     77.6935      4.4552   7.3085168075e+01   6.1024214302e+01    0.4576356    0.2826107  -8.15  0.002151381    1.707    0.414
        10  -8.3420     72.0632      8.3363   7.6158234591e+01   6.1579730251e+01    0.1652786    0.1318495  -1.52 0.0004422246    1.172    0.146
        11  -9.9671     73.5719     17.9319   7.9160914671e+01   6.0349053696e+01    0.7484353    0.1899936 -31.59   0.00297616    4.043    0.753
        12 -10.0410     69.3694     41.5103   8.8620116224e+01   5.7985981421e+01    0.7666437    0.3008103 -38.10  0.002431974    2.482    0.597
        13  -8.7368     46.7079     19.8827   8.8891679070e+01   6.3895079458e+01    0.3698472    0.1780485 -20.17  0.001571333    2.257    0.557
        14 -10.1693     52.4900     13.0972   8.4320674536e+01   6.3951285629e+01    0.8936986    0.3867138  19.03  0.003972534    3.447    0.710
        15 -10.1535     64.5897     13.3378   8.0338479610e+01   6.2221660734e+01    0.4309716    0.2908613 -15.23  0.001657007    1.411    0.291
        16 -10.1667     46.2918     29.7198   9.2543356564e+01   6.2666549750e+01    0.4753814    0.3127078 -52.65   0.00257893    2.408    0.585
        17  -9.6034     63.1443     21.2804   8.3699959157e+01   6.1540403608e+01     0.375975    0.2450235 -47.22  0.001669707    2.309    0.567
        18  -9.1019    102.9474     21.1453   7.1990440792e+01   5.4878413830e+01    0.3072951    0.2030071 -39.87  0.001789817    1.824    0.452
        19  -9.5863    118.9708     21.2740   6.8161195769e+01   5.1703470358e+01    0.3215291    0.2494078 -20.17  0.001144518    1.429    0.300
        20  -8.9748    113.9780     10.1449   6.5807632950e+01   5.3819815566e+01    0.3200335    0.1682849  34.80 0.0003341245    1.892    0.471
        21  -9.2047    141.6965     12.5150   6.0896937896e+01   4.7766190147e+01    0.2503033    0.2258758 -28.51  0.001166165    1.295    0.228
        22  -9.4413    131.8577     17.1020   6.4122737439e+01   4.9440757011e+01    0.4246244    0.2345554  69.42  0.002092776    2.057    0.514
        23  -8.5802    125.8167      4.7821   6.1671000675e+01   5.1871164942e+01    0.2448015    0.1638808  22.11 0.0007498238    1.697    0.411
        24  -8.6307    133.0090     11.3005   6.2189820110e+01   4.9762425477e+01    0.4254014    0.1663679 -42.28  0.001847096    3.257    0.693
        25  -9.0949    130.8138      6.2046   6.1121171826e+01   5.0695218120e+01     0.474795    0.1617898  47.73  0.002087905    2.424    0.588
        26  -8.3765    136.2025      1.5857   5.8790087054e+01   4.9941844984e+01    0.3820167    0.1653004  38.36  0.001277735    2.558    0.609
        27  -8.5303    125.3201     13.0556   6.4259509706e+01   5.1221973960e+01    0.2405302    0.1851302 -23.33  0.001175925    1.487    0.327
        28  -8.3414    127.0091      8.9871   6.2691488524e+01   5.1248842182e+01    0.1917856    0.1409447  39.80 0.0003278356    1.222    0.182
        29  -9.0284     96.1809     14.9016   7.1667203030e+01   5.6791552905e+01    0.5034512    0.2121198 -18.45  0.001938947    3.076    0.675
        30  -8.3647    105.0085     14.3698   6.9260339662e+01   5.5181687383e+01    0.3418112    0.1900386  22.78  0.001393454    2.157    0.536
        31  -9.4662     85.2343     13.0187   7.3986853186e+01   5.8933021637e+01    0.3310552    0.2472617 -60.91  0.001408836    2.420    0.587
        32  -8.0152     80.6790     12.4720   7.5092982610e+01   5.9763632067e+01    0.2478378    0.1209708 -36.31   0.00111249    2.399    0.583
        33 -10.6429     37.2713      9.4398   8.8471897842e+01   6.6243773698e+01    0.7136359    0.3002312 -38.48  0.002473869    2.571    0.611
        34  -8.5487    101.9554      8.0911   6.7941213159e+01   5.6358396900e+01    0.2176845     0.164205 -31.43 0.0004933503    1.561    0.359
        35  -9.0130    109.7788      5.3236   6.5215736186e+01   5.5085598697e+01      0.47712    0.1694119 -30.92  0.002219095    3.097    0.677
        36  -8.2067     97.6844      5.6886   6.8185905467e+01   5.7377546572e+01     0.218383    0.1487499   3.47  0.001243682    1.599    0.375
        37  -8.3125     96.0000      2.9983   6.7695240822e+01   5.7922434044e+01    0.2371379    0.1535597 -19.80 0.0003687609    1.705    0.414
        38  -8.8746     89.1473      2.5391   6.9274868981e+01   5.9210281480e+01    0.3181015    0.2339298 -33.14   0.00168481    1.666    0.400
        39  -8.5695    142.1759      4.5812   5.8584322311e+01   4.8393691280e+01    0.3774136    0.2223956 -89.95  0.001851335    2.484    0.597
        40  -8.8523    115.2356      4.2176   6.3670720791e+01   5.4091906671e+01    0.2150463    0.1850535 -38.19 0.0006081403    1.429    0.300
        41  -9.7006     63.7852      2.9677   7.6727511344e+01   6.3371793775e+01    0.2821608    0.2247163 -46.25  0.001617012    2.008    0.502
        42  -8.0450    104.5109      2.1861   6.5397280348e+01   5.6378760020e+01    0.2142918     0.139985  24.28  0.001316584    1.532    0.347
        43  -7.7884    180.7198      1.6781   5.2091131359e+01   4.0043292367e+01     0.187147    0.1233167  57.63 0.0006814115    1.349    0.259
        44  -8.2000    172.4733      1.7600   5.3194684175e+01   4.1899346896e+01    0.2017712    0.1388633  68.11 0.0003601987    1.190    0.160
        45  -7.5712    151.3134      1.6692   5.6273834924e+01   4.6641548736e+01    0.1206918   0.08673518 -76.57 0.0007044528    1.677    0.404
        46 -10.8304    108.9656    101.2225   9.4170330527e+01   4.0866721655e+01     1.011248    0.7503647 -73.70  0.004867797    1.793    0.442
        47  -9.8176    192.8383    249.8756   1.0459207926e+02  -6.2689351660e+00    0.5010949    0.1925097  37.28  0.002148447    2.349    0.574
        48 -10.3721    201.2695    250.0344   1.0299792288e+02  -7.6865557231e+00    0.4984196    0.2232816  42.77  0.002358476    1.999    0.500
        49 -10.9690    185.4669    248.1811   1.0575464430e+02  -4.7604311827e+00    0.4687517     0.429887  82.27    0.0030851    1.337    0.252
        50  -8.1421     82.3255    130.6600   1.0833332344e+02   3.8739653806e+01    0.4667406    0.2339574 -73.35  0.001653624    3.264    0.694
        51  -9.7823     98.4692    128.5706   1.0355942277e+02   3.6670131924e+01    0.5866846    0.3724149  79.10  0.002146625    2.789    0.641
        52 -10.2323     70.5021    126.0229   1.1059214247e+02   4.1482416285e+01    0.6352631    0.4937304 -49.01  0.001594606    1.176    0.149
        53 -10.1781     58.4048    124.7925   1.1365537847e+02   4.3300088787e+01    0.7088292     0.419877  79.77  0.002632797    3.096    0.677
        54  -7.8187    236.8103    128.8323   7.2678076280e+01   7.7686939121e+00    0.1940509    0.1576306 -67.35  0.000350516    1.299    0.230
        55  -9.7741     27.5713    123.3229   1.2171346880e+02   4.6773965762e+01     0.540019    0.3132867  77.50  0.002125078    2.613    0.617
        56  -9.5064     41.5121    122.1837   1.1778046866e+02   4.5743478461e+01    0.4695702    0.2280862 -74.38  0.001595674    2.476    0.596
        57 -10.6719    126.5666    102.5448   8.9812778021e+01   3.7202713049e+01    0.8004081    0.5592752  30.06  0.002268301    1.622    0.384
        58  -8.5014    152.4890    121.0776   8.8019600640e+01   2.7813439365e+01    0.2380217    0.1510705 -45.34  0.001023678    1.565    0.361
        59  -8.1847    239.7557    132.6405   7.2995367640e+01   6.4541717253e+00    0.1846519    0.1347238  63.27 0.0006461373    1.578    0.366
        60 -10.2018     91.7712    113.1116   1.0187553751e+02   4.1263541855e+01    0.5594364    0.4019635 -74.65  0.001671933    1.759    0.431
        61  -8.2809      1.3663    116.2795   1.2751770670e+02   5.0177070542e+01    0.2820662    0.0902283 -70.46  0.001009764    2.619    0.618
        62  -8.6501    153.0651    115.5193   8.6521925477e+01   2.8878567855e+01    0.2469524    0.2005384 -47.64 0.0004436597    1.223    0.183
        63 -10.0275     14.3919    111.3950   1.2335045115e+02   5.0400229108e+01    0.4160695    0.2638348  78.07  0.002020522    2.155    0.536
        64 -10.2080     78.1904    112.9847   1.0566656473e+02   4.3360734808e+01    0.5043322    0.3297186 -79.76  0.001690881    2.256    0.557
        65  -7.3905    167.2634    114.3261   8.2955144498e+01   2.5972077829e+01    0.1495302    0.1236743  -5.04 0.0002267804    1.564    0.361
        66  -7.6987     63.5039     82.0000   1.0251628368e+02   5.1840607455e+01    0.1937682    0.1574097 -63.24 0.0005540299    1.439    0.305
        67 -10.5614     62.9102     95.6703   1.0611334136e+02   4.9146429572e+01    0.8985319    0.5417529 -80.97  0.002647542    3.468    0.712
        68  -9.0449     64.1444     86.7806   1.0354838651e+02   5.0811750152e+01    0.6488615    0.3611523 -10.42  0.002598331    3.391    0.705
        69 -10.3357     65.9905    110.9998   1.0870508382e+02   4.5460291145e+01    0.7914432    0.5033959 -76.10  0.001564918    2.105    0.525
        70  -9.3969     59.4103    109.3285   1.1023748118e+02   4.6645324513e+01     0.335449    0.2526416 -76.34  0.001114442    1.526    0.345
        71  -9.1049    158.9814    111.4529   8.4129547891e+01   2.8425970012e+01    0.4764767    0.2043466 -41.71   0.00149363    2.377    0.579
        72  -9.0151    149.2820    110.2724   8.6116581599e+01   3.0811652270e+01    0.4007667    0.3046843   8.66  0.001036056    1.859    0.462
        73  -9.6922    149.3707    103.4675   8.4369703219e+01   3.2197816554e+01    0.4930722    0.3026578 -46.76  0.001014632    1.637    0.389
        74  -9.0650     35.2293    109.8986   1.1729163136e+02   4.9064799236e+01    0.3724551    0.1573133 -70.96  0.001525966    2.938    0.660
        75 -10.9019     45.2112    102.7577   1.1298914569e+02   4.9648475412e+01    0.8273509    0.4765775  71.40  0.003270516    4.150    0.759
        76  -8.6027     40.1616    106.9574   1.1531516444e+02   4.9243022837e+01    0.2430578     0.166262  78.69 0.0006885099    2.171    0.539
        77 -10.4315     32.4809     63.5661   1.0782765281e+02   5.8647583642e+01    0.9882869    0.4291925 -29.21  0.003896119    2.681    0.627
        78  -7.9549     23.3226     69.0843   1.1232046888e+02   5.8377369106e+01    0.1560185    0.1504494 -61.12  0.000244607    1.333    0.250
        79 -10.9012     20.7408    100.6116   1.1973438895e+02   5.2248848770e+01     1.042568    0.5525165 -87.53  0.003972759    3.391    0.705
        80  -9.6510     20.0930     84.2417   1.1675013387e+02   5.5667159034e+01    0.7470139    0.2775569 -63.59  0.003270111    2.651    0.623
        81 -10.5697     25.3276     78.1405   1.1376974494e+02   5.6485725169e+01    0.5555139    0.4304195  74.51  0.001909858    1.994    0.498
        82 -10.1326    139.6840    102.8078   8.6554162543e+01   3.4428022425e+01    0.9337513     0.409073 -46.85   0.00175321    2.305    0.566
        83  -9.1632    138.8059     92.5544   8.4084901763e+01   3.6667757463e+01    0.4175782    0.3145947 -77.21 0.0007487843    1.783    0.439
        84  -8.1580    139.8228     87.4260   8.2462645751e+01   3.7435327303e+01    0.3303977    0.1983595  28.63  0.001177114    2.230    0.552
        85  -9.3200    140.4985     82.1921   8.0880780867e+01   3.8265033265e+01    0.6515797    0.3309807 -41.38  0.001679921    2.008    0.502
        86  -9.3104    139.8928     75.4507   7.9176118111e+01   3.9607123497e+01    0.3975569    0.2254315 -40.38  0.001433274    1.815    0.449
        87  -8.0425     77.8425    105.4833   1.0403426707e+02   4.5054504736e+01    0.2896919    0.1914888 -13.25   0.00134409    2.189    0.543
        88  -9.5154     81.3587    100.0734   1.0170805378e+02   4.5697207293e+01    0.4291642    0.2493958 -62.08 0.0007898104    2.037    0.509
        89  -9.6704      5.6403    104.0254   1.2458692418e+02   5.2527472623e+01     0.393813    0.3320409   9.36  0.001948968    1.505    0.336
        90  -8.4982    166.0149    103.9911   8.0667591240e+01   2.8366629943e+01    0.2921588    0.2139524 -55.92 0.0005154854    1.431    0.301
        91  -7.7933    162.4270    105.2243   8.1782486143e+01   2.8931083763e+01    0.2064855    0.1441803 -54.05 0.0009314282    1.495    0.331
        92  -9.0263    158.7399    101.9836   8.1801135349e+01   3.0414681383e+01      0.50052    0.2377132 -36.56  0.001112219    2.350    0.574
        93  -8.9787     93.1321    103.5136   9.9172187601e+01   4.3128239097e+01    0.6411684     0.320903  21.56  0.002310205    3.389    0.705
        94  -8.4137     14.4984    104.9798   1.2227612180e+02   5.1764902012e+01    0.2000151    0.1420105 -30.95 0.0006498236    1.491    0.329
        95  -8.2759     73.6809    102.5914   1.0456064653e+02   4.6264153906e+01    0.2643409    0.1548701 -53.96 0.0006649686    1.596    0.373
        96  -8.8912    248.1628    101.9950   6.5142484061e+01   1.0404150468e+01      0.22164      0.16275 -14.85  0.001085993    2.057    0.514
        97  -9.5544    218.6981     99.3327   6.9229204674e+01   1.7207896987e+01    0.2619371    0.2390105  87.21   0.00041118    1.071    0.066
        98  -9.4694     94.3128     97.2220   9.7244572210e+01   4.4256363132e+01    0.3347414    0.2543057 -64.64 0.0007274868    1.534    0.348
        99  -8.8059     95.9698     91.0316   9.5149549036e+01   4.5241397927e+01    0.4899962    0.2925243  -9.67  0.001826918    3.326    0.699
       100  -8.8720    240.7569     95.9716   6.4962854381e+01   1.3016579373e+01    0.2744133    0.1731282  32.31  0.001196654    2.605    0.616
       101  -8.3293    223.3365     95.9033   6.7678888563e+01   1.6804664948e+01    0.2697323    0.2061055  52.18  0.000764305    1.396    0.284
       102  -8.8442    150.3828     89.4801   8.0488616450e+01   3.4729502992e+01    0.3111745    0.2355234 -37.38 0.0008027039    1.369    0.269
       103  -8.9857    149.8265     95.1469   8.2109036894e+01   3.3759825059e+01    0.4928013    0.1997216 -51.86   0.00163791    3.022    0.669
       104  -9.3076    164.7202     93.4528   7.8276651968e+01   3.0729431520e+01     0.551206    0.2824327 -36.91  0.001733351    2.103    0.524
       105 -10.1531     34.5673     90.7347   1.1363967682e+02   5.3190220318e+01    0.4969104    0.2462548 -70.60  0.001831385    2.739    0.635
       106 -10.1195     36.8964     81.0733   1.1073078571e+02   5.4928867307e+01    0.5955067    0.3122381 -15.17  0.002587895    2.885    0.653
       107  -9.5484      5.3032     79.6616   1.2044694950e+02   5.7511346616e+01    0.5475933    0.2030564 -33.40  0.002621657    2.949    0.661
       108  -8.8675    157.8982     90.6169   7.9061889273e+01   3.2824789913e+01    0.4583828    0.2130087 -40.63  0.001526296    2.202    0.546
       109  -9.3250    110.3410     90.1369   9.0866965536e+01   4.2865500109e+01    0.8037217     0.369164  29.60  0.002857728    3.135    0.681
       110 -10.4655     48.3217     82.9926   1.0755405277e+02   5.3416055582e+01     0.946049    0.3785851 -47.30  0.002204195    2.074    0.518
       111 -10.2321     85.3501     86.6565   9.7082669531e+01   4.7835791159e+01    0.4355853    0.3442101  85.81 0.0008774346    1.930    0.482
       112  -9.5514     87.1877     78.8489   9.4399366084e+01   4.9053192340e+01    0.5979405    0.3417641  17.04  0.001512121    2.548    0.608
       113  -9.9377     81.5568     72.4160   9.4279869772e+01   5.1124070357e+01    0.3956615    0.3038707 -71.17  0.001010087    1.943    0.485
       114  -9.3313     83.1842     64.8082   9.1559047694e+01   5.2217258461e+01      0.60753    0.3366889 -16.00  0.002549071    2.843    0.648
       115  -7.8462     82.2993     94.3299   9.9992132456e+01   4.6754756141e+01    0.2262262    0.1759054 -14.41 0.0008088549    1.437    0.304
       116  -7.8610    163.4682     87.0728   7.6902528052e+01   3.2219497669e+01     0.220524    0.1465349 -42.12 0.0004833344    1.534    0.348
       117 -10.2586      4.2446     89.4986   1.2257782799e+02   5.5606399599e+01     0.565393    0.2893862 -82.31  0.001918709    2.758    0.637
       118  -7.7730    116.7889     85.3122   8.7796453510e+01   4.2573859631e+01    0.2025113    0.1867169  30.77 0.0007198501    1.078    0.072
       119  -8.8815    118.9740     80.5923   8.5902669212e+01   4.3032146207e+01    0.2909968    0.2466644 -49.89 0.0005790594    1.248    0.199
       120  -8.3747    119.9873     76.0182   8.4347026208e+01   4.3663552825e+01    0.2852657    0.2261393  18.60 0.0007845199    1.394    0.283
       121 -10.3793    104.0441     82.5752   9.0547269209e+01   4.5483432278e+01     0.500948    0.3169034 -54.42  0.000895704    1.818    0.450
       122  -7.9040    170.4832     83.4846   7.4477715100e+01   3.1256569355e+01    0.2546885    0.1317743 -51.61 0.0006353137    2.159    0.537
       123  -8.9171    157.7415     83.6289   7.7262396311e+01   3.4162607037e+01    0.3285975    0.1933555 -46.05 0.0008935595    1.752    0.429
       124  -8.8730    156.9655     76.5266   7.5547176123e+01   3.5609747087e+01    0.2424386    0.1987174 -57.99 0.0003760727    1.308    0.235
       125  -8.8973    245.1766     82.8331   6.1536007795e+01   1.4364748849e+01    0.1688938    0.1656243  25.28 0.0004435093    1.319    0.242
       126  -8.5631    150.0477     80.1118   7.8065068841e+01   3.6537035338e+01    0.4162931     0.202972 -40.51  0.001379981    2.106    0.525
       127  -9.3226     74.2851     79.3246   9.8448863067e+01   5.0908504348e+01    0.5933022    0.2572793 -47.84  0.001873744    2.175    0.540
       128  -8.3091     68.7004     79.5539   1.0024365270e+02   5.1636443039e+01    0.2372888    0.1078006 -48.12  0.001071264    2.034    0.508
       129  -7.9046    166.3285     79.0028   7.4186514376e+01   3.3021795122e+01     0.206104    0.1827264 -48.06 0.0007364915    1.156    0.135
       130  -8.0318    184.0862     78.0290   7.0378498483e+01   2.9043644297e+01    0.2222361    0.2080724  74.24 0.0006360761    1.031    0.030
       131  -7.3916    174.4041     78.5218   7.2399450615e+01   3.1227094452e+01    0.1452967    0.1373238 -88.32 0.0002571227    1.029    0.028
       132  -9.0518    130.2048     57.2604   7.6349969589e+01   4.4684411674e+01    0.5724152    0.2915049 -34.04  0.002089345    2.106    0.525
       133  -9.4576    127.3771     75.1475   8.2185020023e+01   4.2317539315e+01    0.4461019    0.2620548 -52.52 0.0007362743    2.019    0.505
       134  -8.8216    129.7511     68.8227   7.9793574048e+01   4.2915996627e+01    0.5316889     0.268156  31.31  0.002027955    2.738    0.635
       135  -8.3182    130.6276     64.4927   7.8337650753e+01   4.3449713234e+01    0.3783768    0.2164337 -31.26  0.001568841    1.926    0.481
       136  -9.3034    240.9137    249.0117   9.5407057560e+01  -1.3698915081e+01    0.2370941    0.1674247  27.74 0.0004760904    1.247    0.198
       137  -8.2868    221.5080    249.5106   9.9077576725e+01  -1.0844124515e+01    0.1237835    0.1043947  18.04 0.0001850244    1.006    0.006
       138  -9.8616     16.1046     70.3435   1.1501860751e+02   5.8654825179e+01    0.5851051    0.2258508 -46.29   0.00136191    1.927    0.481
       139  -9.9062     17.1559     61.7909   1.1264262128e+02   6.0173571409e+01    0.5181582      0.42795   4.77  0.003731266    1.346    0.257
       140 -10.2506    196.7634    246.5669   1.0331289667e+02  -6.4005857034e+00    0.3234278    0.1993859  39.63  0.001378945    1.423    0.297
       141 -10.8581     21.9055     53.6696   1.0887840777e+02   6.1273476597e+01    0.6500282     0.432176 -77.49  0.002765676    2.981    0.665
       142 -10.0619     13.1653     45.4273   1.0979942135e+02   6.3303262618e+01     0.630238    0.2972054 -12.90  0.002716666    2.684    0.627
       143 -10.0320    164.2834    249.5032   1.1007527193e+02  -1.3643210478e+00    0.4457195    0.2021822  31.44  0.001867335    2.608    0.617
       144  -8.8072    158.5312    246.5037   1.1076555426e+02   1.4363069694e-01    0.1306351    0.1128629  46.82 3.932771e-05    1.002    0.002
       145 -10.9226    133.5114    109.3801   8.9779307104e+01   3.4352387781e+01     1.505158    0.4625685 -51.28  0.004355479    3.848    0.740
       146 -10.0258      7.3221     28.2973   1.0701585671e+02   6.6411190382e+01    0.2492434    0.2413533  43.03  0.001003409    1.738    0.425
       147  -9.3803    105.2301     70.7181   8.6838704613e+01   4.7431045416e+01     0.684362    0.3549763 -33.11  0.002725264    2.064    0.516
       148  -7.9891    162.8489     73.1185   7.3373141281e+01   3.4848511106e+01    0.2207173    0.1863729 -78.53 0.0004796056    1.313    0.238
       149  -9.3038    115.2524     71.8869   8.4427004307e+01   4.5328013514e+01    0.4760753    0.2762078 -31.72  0.001654891    1.860    0.462
       150 -10.2763     89.7174     38.3477   8.1283815578e+01   5.5199554343e+01    0.7829118    0.2874774  33.44  0.003007342    3.320    0.699
       151  -9.2933     88.3576     56.3407   8.7420876326e+01   5.2785515903e+01    0.7422997    0.4747652 -11.23  0.003226255    1.955    0.489
       152  -9.8316     94.9026     68.3582   8.9105062856e+01   4.9677905888e+01     0.443939    0.2615301 -48.79 0.0008068836    1.875    0.467
       153  -9.3904     97.2549     58.3731   8.5428069114e+01   5.0937435025e+01    0.6524238    0.4012952  -6.49  0.002955897    2.426    0.588
       154 -10.7207     54.8855     69.7556   1.0199058480e+02   5.5218087195e+01    0.8133754    0.4537559 -54.92  0.002596841    1.953    0.488
       155 -10.0097     62.2750     60.8762   9.7024659991e+01   5.5889006385e+01    0.5831095    0.2778825  27.12  0.002695356    2.309    0.567
       156 -10.2365     85.2129     48.1344   8.5793029979e+01   5.4569605411e+01    0.3732049    0.3194111 -73.19 0.0009546419    1.807    0.446
       157  -9.1080     80.2052     46.4281   8.6780849806e+01   5.5627993567e+01    0.3191337    0.1799945 -32.00 0.0005108952    1.744    0.427
       158  -7.8155    169.3331     71.3932   7.1579978856e+01   3.3636220256e+01    0.2435662    0.1626172 -59.02 0.0004896535    1.734    0.423
       159  -8.6602    156.5127     70.5148   7.4032914288e+01   3.6744465321e+01    0.4093927    0.1340179 -41.48  0.001103158    3.122    0.680
       160  -9.3626    146.9389     69.2711   7.5821533429e+01   3.9114621876e+01     0.415851    0.2727571 -66.54  0.001356043    2.200    0.545
       161  -9.4100    138.0023     65.5204   7.6850426773e+01   4.1702568666e+01    0.5555708    0.2834183 -31.52   0.00129401    2.231    0.552
       162  -9.0271    121.0712     66.0332   8.1196503003e+01   4.5170910526e+01    0.3125676    0.2363841 -60.85 0.0006795662    1.686    0.407
       163  -8.6030    121.5121     61.7324   7.9826521107e+01   4.5784471886e+01    0.3939319    0.2226371  24.85  0.001624761    2.541    0.607
       164  -7.7296     75.6376     66.1547   9.4295085353e+01   5.3129010565e+01    0.1825021    0.1082524 -33.17 0.0009351167    1.626    0.385
       165  -7.8009    170.6498     64.8000   6.9598189808e+01   3.4413734999e+01    0.1923522     0.128571 -48.74 0.0004826591    1.577    0.366
       166  -9.3900    109.7209     63.8708   8.3582613091e+01   4.7756028920e+01    0.3340146    0.2520164 -49.17 0.0006508144    1.497    0.332
       167  -8.5989    110.8386     58.0436   8.1537934205e+01   4.8481790103e+01    0.3137632    0.2264296  10.78  0.001070691    1.652    0.395
       168  -8.0129    157.6730     63.2444   7.1822537812e+01   3.7669871704e+01    0.2440035    0.1604118 -49.09 0.0006259501    1.652    0.395
       169  -9.8204     49.6205     61.1489   1.0132219746e+02   5.7367452556e+01    0.3729257    0.1230977 -46.06  0.001552998    2.637    0.621
       170  -8.0836    164.4610     60.6880   6.9743014319e+01   3.6507366179e+01    0.1789584    0.1414763 -21.76 0.0005973018    1.499    0.333
       171  -7.4126    152.7836     60.7476   7.2182181060e+01   3.9180009583e+01    0.1887964     0.161339 -80.83 0.0005386195    1.329    0.247
       172  -7.1259    116.0274     59.9708   8.0731971185e+01   4.7164873544e+01    0.1510153    0.1410269  -6.97 0.0009090445    1.065    0.061
       173  -8.3870    149.8550     48.0576   6.9293452697e+01   4.1731638948e+01    0.2775161    0.1951365 -37.27 0.0006382984    1.537    0.349
       174  -7.9548    148.0000     52.9834   7.1060639107e+01   4.1439634365e+01    0.3783888    0.1524164 -35.00  0.001486889    2.682    0.627
       175  -9.1317    138.8770     56.8400   7.4180810978e+01   4.2883765212e+01    0.3967262    0.1865224 -42.14 0.0004543525    2.281    0.562
       176  -8.3979    142.0562     48.6147   7.1119381323e+01   4.3394772896e+01     0.271951    0.1914903 -39.72 0.0005160341    1.535    0.348
       177  -7.8978    142.9921     44.3233   6.9693725623e+01   4.3783963690e+01    0.2364128    0.1384267  34.27  0.001089537    1.982    0.495
       178  -8.9851    121.0766     46.9050   7.5519591818e+01   4.8107408907e+01    0.2793671     0.211567 -42.40 0.0004405956    1.470    0.320
       179  -8.2941    122.3124     41.2904   7.3518088990e+01   4.8622194590e+01     0.426268    0.2255723  23.16  0.001688122    3.119    0.679
       180  -9.1847    118.2151     55.5014   7.8828766153e+01   4.7425790234e+01    0.3136736    0.2461476 -70.93 0.0007372419    1.812    0.448
       181  -8.0337    119.0757     51.2725   7.7339188568e+01   4.7885972077e+01    0.3060425    0.1640884  33.02  0.001207364    2.111    0.526
       182  -9.6014      6.8944     32.5140   1.0847290957e+02   6.5792596328e+01     0.247794    0.1589508  -6.46 0.0009111653    1.462    0.316
       183  -7.4926    157.5880     55.8122   6.9826537118e+01   3.8841453173e+01    0.1862982    0.1292402 -49.61 0.0003908039    1.579    0.367
       184  -8.6321     43.7725     54.0195   1.0124990872e+02   5.9228601267e+01    0.2109926    0.1276743 -34.48            0    1.414    0.293
       185 -10.1121     49.7452     54.0966   9.9208285476e+01   5.8560762076e+01    0.4892153    0.3561942 -70.49  0.001930881    2.488    0.598
       186 -10.9022    121.0926    111.1861   9.3439296102e+01   3.6458764549e+01     1.032235    0.5862262 -61.19  0.002513886    2.218    0.549
       187  -8.8755    162.8096     54.1837   6.8337732222e+01   3.7881685054e+01    0.2068685    0.1819679 -81.02 0.0006485529    1.207    0.172
       188  -9.1314    146.5411     58.8375   7.3014691076e+01   4.0883384754e+01    0.3641995    0.2367532 -29.21  0.001384202    1.730    0.422
       189  -9.0362    105.5793     51.7583   8.1053602852e+01   5.0445523946e+01    0.4933028    0.2389223 -32.66  0.001926813    2.179    0.541
       190  -8.9065     39.8559     52.2786   1.0210567210e+02   5.9924847975e+01    0.3842569    0.1160544 -42.16  0.001678556    2.767    0.639
       191  -8.8601    216.4850     51.0944   5.8641917848e+01   2.5801332066e+01    0.2922097    0.2364911 -38.20  0.001035561    1.389    0.280
       192  -8.6439    157.4392     49.1258   6.8039627665e+01   3.9854977918e+01    0.3588265    0.2022543 -56.14  0.001564388    2.332    0.571
       193  -7.2453    172.0171     50.2351   6.5547111792e+01   3.6316559024e+01    0.1778864    0.1075288  58.88            0    1.517    0.341
       194  -9.6301    130.4952     46.4905   7.3124680107e+01   4.6201005631e+01    0.8975258    0.3339243 -26.26  0.001729659    3.924    0.745
       195  -8.9012    132.8999     36.1278   6.9519888060e+01   4.7059922490e+01    0.2731967    0.2076861 -37.68 0.0004386787    1.460    0.315
       196 -10.1244    134.1281    234.5498   1.1390896912e+02   6.5909732989e+00    0.2344862    0.2067497 -73.53 0.0003572307    1.217    0.178
       197  -8.5358    111.8985     46.8412   7.7841873169e+01   4.9951319651e+01    0.2211571    0.2052096 -28.30  0.000388845    1.176    0.150
       198  -8.5031    113.9038     41.6695   7.5725283708e+01   5.0270917998e+01    0.3942004    0.2436347   1.10  0.001830827    2.418    0.586
       199  -7.5698    162.5003     46.4831   6.6337921684e+01   3.9062269574e+01    0.1376476    0.1248266  72.44 7.888332e-05    1.048    0.045
       200  -9.8193    188.3922    234.1751   1.0294422759e+02  -2.9246496547e+00    0.2857977     0.228059 -59.13  0.001249786    1.529    0.346
       201  -7.3371    211.4678    226.4451   9.7075005379e+01  -5.6062634125e+00    0.1306059     0.117801  20.60 3.339901e-05    1.030    0.029
       202  -9.0813     71.2684     25.6206   8.2600637534e+01   5.9817333919e+01    0.3941022    0.2161291  24.57  0.001638044    1.858    0.462
       203  -8.3587      6.1899    221.1522   1.3660654428e+02   2.7194184890e+01    0.1608506     0.120858 -80.09 0.0006881766    1.248    0.198
       204  -7.5287    136.0483    220.0045   1.1138873347e+02   9.1463431103e+00    0.2168102    0.1480639  65.99 0.0006783996    1.597    0.374
       205 -10.0324     76.1181     31.9461   8.3255511285e+01   5.8275713756e+01    0.5286208    0.3319965  44.26  0.001688804    1.667    0.400
       206  -9.8224     79.4976     24.0783   7.9512150299e+01   5.8701273001e+01    0.5419174    0.2533866  24.26  0.002092048    2.801    0.643
       207  -8.9163     84.7135     21.9044   7.7217123312e+01   5.8080743792e+01    0.2025112      0.18196 -15.86 0.0006895946    1.259    0.206
       208  -8.6558     39.8687     35.3493   9.6791549386e+01   6.2586773900e+01    0.2527076    0.1489662  20.81  0.001575027    1.683    0.406
       209  -9.9736     37.8099     41.9934   9.9694204743e+01   6.1794570241e+01    0.3201776    0.2725982 -80.88  0.001520448    2.198    0.545
       210 -10.1867     35.8941     37.9916   9.9117170535e+01   6.2602005488e+01    0.2289748    0.1654621 -25.27  0.000339608    1.125    0.111
       211  -9.0278    104.9966     41.3629   7.7965556005e+01   5.2035906006e+01    0.2882042    0.2209746 -52.84  0.001112805    1.705    0.413
       212  -8.6085    106.1009     36.2180   7.6039148650e+01   5.2503313382e+01     0.254361    0.1892602  25.90 0.0007706943    1.287    0.223
       213  -9.3612    152.8478     41.2269   6.6789923132e+01   4.1988426541e+01    0.3986911    0.3053222  30.49  0.001607863    1.459    0.315
       214  -7.2057    190.3395     42.7588   6.0562298415e+01   3.3071357888e+01    0.1360725   0.09577397 -85.78 0.0001665758    1.555    0.357
       215  -9.0059    139.9309     39.5862   6.8994353441e+01   4.5090127415e+01    0.4535617    0.2284775 -34.07  0.001397023    2.162    0.537
       216  -8.6550    144.0885     36.4282   6.7217148552e+01   4.4576367517e+01    0.2301373    0.2069613 -67.99 0.0005837264    1.264    0.209
       217  -7.4772    160.4666     39.0187   6.4720745493e+01   4.0538122483e+01    0.1929191    0.1352029 -32.50  0.001032762    1.598    0.374
       218  -7.8129     53.5197     39.4680   9.3281872139e+01   6.0412141397e+01     0.185007     0.102923 -37.32 0.0006700301    1.672    0.402
       219  -8.5608     54.3744     35.3007   9.1591020665e+01   6.0905748783e+01    0.2137786    0.1563083  -3.07 0.0005786693    1.221    0.181
       220  -8.8290    118.9334     35.0056   7.2415928641e+01   5.0124080977e+01    0.2881342     0.173925 -36.76  0.001017454    1.821    0.451
       221  -7.0964    191.0974     36.5936   5.8958455413e+01   3.3723148837e+01    0.2363919   0.07261647  45.93 0.0001366985    4.801    0.792
       222 -10.0373     73.5647     57.0483   9.2214512781e+01   5.4978056404e+01     1.023634    0.3804829 -33.92  0.002853394    2.951    0.661
       223  -9.2417    100.9657     32.0490   7.6067281188e+01   5.3994140996e+01    0.3263046    0.1953707 -39.24 0.0008830627    1.899    0.473
       224  -8.4923    153.2485     34.8292   6.4948734739e+01   4.2720624172e+01    0.1932273    0.1726469  89.33 0.0007105201    1.185    0.156
       225  -9.4342     60.3031     33.7788   8.9037280566e+01   6.0341802339e+01    0.3521701    0.2337454 -44.87  0.001479052    1.853    0.460
       226  -8.4823     62.5164     26.7150   8.5841419088e+01   6.0965527989e+01    0.3577075    0.1913353  22.44   0.00193418    1.954    0.488
       227  -7.3337     56.0000    215.9982   1.2716807308e+02   2.2637394317e+01    0.2048128   0.06230864 -67.48 0.0008117305    3.007    0.667
       228  -9.9802     11.2416    207.2127   1.3472519255e+02   2.9591992576e+01    0.5342743    0.2805884  28.21  0.003081751    2.702    0.630
       229  -8.5581    244.0601    206.6491   8.7250997606e+01  -7.7518163693e+00    0.2253216    0.1709081 -23.00 0.0003709131    1.249    0.199
       230  -8.2150    194.4849    198.9922   9.5459250644e+01   2.4144061176e+00    0.3008099    0.1980115 -63.05   0.00105398    2.030    0.507
       231  -8.0893     42.0320     28.2314   9.3577852044e+01   6.3358965969e+01    0.1571171    0.1214406  -4.42 0.0002016665    1.036    0.035
       232  -8.8918    110.3600     33.1820   7.3972995958e+01   5.2061345191e+01    0.2608859     0.209021 -47.38 0.0009236092    1.538    0.350
       233  -7.9317    192.4630    194.9849   9.5110807740e+01   3.5839966724e+00    0.3328279    0.2246886 -67.71  0.001497207    2.094    0.522
       234  -7.1170    241.7198     32.6629   5.1670915835e+01   2.2778811955e+01    0.1100262   0.09822465  39.81 0.0002937386    1.618    0.382
       235  -9.2507    152.0000     30.0286   6.3864681827e+01   4.3587649105e+01     0.318074    0.1437117 -33.51  0.001243556    2.439    0.590
       236  -9.4230    153.9494     26.5363   6.2544731235e+01   4.3555281763e+01    0.4260622    0.1907702  66.47  0.001826495    2.303    0.566
       237  -8.9942     91.3305     26.2362   7.6799325965e+01   5.6438032404e+01    0.2845648    0.2028883 -45.00  0.001351501    1.825    0.452
       238  -8.2873     92.0640     20.9457   7.4811620658e+01   5.6905458607e+01    0.2538758    0.1572956  18.62 0.0005966795    1.754    0.430
       239  -8.3506    144.2725     25.7825   6.4161230409e+01   4.5808121186e+01    0.2031837    0.1587342 -34.32 0.0007019373    1.447    0.309
       240  -8.8698    128.7116     24.4517   6.6967211832e+01   4.9331783825e+01    0.4465817    0.2743801 -12.04  0.001915853    2.100    0.524
       241  -8.0599    190.2357    191.2721   9.4856402118e+01   4.7526599375e+00    0.2517093    0.2158788 -54.94 0.0009205344    1.241    0.194
       242  -7.0305    203.2561     29.2555   5.5524487851e+01   3.1842972456e+01    0.1155958   0.09379611  47.17 0.0006777706    1.431    0.301
       243  -8.6281    140.3065     22.5056   6.4004880745e+01   4.7045026197e+01     0.202632    0.1180086 -28.62 0.0008371883    1.962    0.490
       244  -8.5769     41.0072     21.1244   9.1433530785e+01   6.4412643892e+01    0.2135341     0.129325 -29.11 0.0005393866    1.474    0.322
       245  -9.4513    241.8080    188.5589   8.4171132453e+01  -4.2903121435e+00    0.3551572    0.2967332 -80.48  0.001399485    1.736    0.424
       246  -8.5536    120.3377     15.3404   6.6021109775e+01   5.2032305113e+01    0.2758267      0.12488  37.82  0.001277951    2.260    0.558
       247  -9.0625    230.3139    183.5399   8.5311623470e+01  -1.3552956486e+00    0.2766637    0.2289656  38.73 0.0004101618    1.252    0.201
       248  -8.8881    111.8134     20.9753   6.9740995251e+01   5.3175965816e+01    0.3779121    0.1773119 -19.56  0.001656757    2.686    0.628
       249  -8.7002    112.4389     15.7529   6.7933860439e+01   5.3589602743e+01     0.220075    0.1948812 -63.99 0.0006204721    1.491    0.329
       250  -7.4950     12.2416    180.1914   1.3224631850e+02   3.5330014166e+01    0.1753626    0.0927197 -44.66 0.0005770327    2.595    0.615
       251  -9.1244    231.1636    178.7868   8.4194535705e+01  -6.3212468589e-01    0.2409196    0.2133771  -6.23   0.00032752    1.134    0.118
       252 -10.1190    100.9990    176.0013   1.1209118695e+02   2.5068078723e+01    0.2028393    0.1842043 -89.90            0    1.004    0.004
       253  -7.4044    240.6520    174.2500   8.1523030776e+01  -1.5195043578e+00    0.1280087    0.1091579  87.94 0.0002788546    1.585    0.369
       254  -8.6797    231.0679    174.0036   8.3240019266e+01   2.7783774310e-01     0.204495    0.1945941 -31.44 0.0003193172    1.054    0.051
       255  -8.3636    152.0017    173.1650   9.9659489019e+01   1.6245034183e+01    0.2146897    0.2052524  66.59 0.0003073137    1.019    0.018
       256  -9.1546     85.1444    173.0714   1.1533269385e+02   2.8292539968e+01    0.2044225    0.1877127  73.73 0.0003072096    1.093    0.085
       257 -10.3918    199.1574    171.0637   8.8919692403e+01   7.0747388381e+00    0.2852477    0.2659163  72.59 0.0003192635    1.159    0.138
       258  -7.9587     11.0042    171.0000   1.3161962383e+02   3.7466038471e+01    0.1573363   0.06691466  29.03 0.0008027398    2.945    0.660
       259  -8.5261    230.4967    168.4898   8.2214039653e+01   1.4246396642e+00    0.2626303    0.1255582 -51.75  0.001031811    2.392    0.582
       260  -7.2648    189.4588     15.5460   5.4202171326e+01   3.6638133782e+01    0.1271812    0.1066164  72.21 0.0001271847    1.062    0.058
       261  -8.5835     84.9140    157.9029   1.1284500690e+02   3.1926598362e+01    0.2016835    0.1793318 -74.08 0.0002929441    1.016    0.016
       262  -8.9497    219.0304    154.0283   8.1339049000e+01   6.4781896284e+00    0.2090851     0.200536 -43.28            0    1.012    0.012
       263  -7.7635    204.3235    152.3772   8.3874607482e+01   9.8443976971e+00     0.201282    0.1421597  57.13 0.0005428027    1.554    0.357
       264  -7.7837    147.0179    150.6573   9.6141439025e+01   2.2365744312e+01    0.2098118    0.1932477  57.34  0.001093327    1.084    0.077
       265  -8.5333    133.6781    146.4319   9.8445319897e+01   2.6036901148e+01    0.5474221    0.1423719 -53.03  0.001465114    4.219    0.763
       266  -9.1540     66.8573    144.3244   1.1500061855e+02   3.7704898843e+01    0.5495461    0.3306002  74.32  0.002421187    2.470    0.595
       267  -9.7240    237.2807    145.6190   7.6185656027e+01   4.4774257771e+00    0.4346662    0.2142154  30.77  0.001551538    3.440    0.709
       268  -7.2594    151.9926    146.0553   9.3951115189e+01   2.2376888152e+01    0.1839859    0.1692287 -57.44 0.0003332586    1.072    0.067
       269  -8.4661    112.4159    134.0950   1.0110569494e+02   3.2954299265e+01    0.3379539     0.237257  83.16  0.001429336    2.037    0.509
       270 -10.3266    140.6774    117.8345   9.0091139616e+01   3.1043950654e+01     1.078138     0.418718 -43.20  0.001164258    2.608    0.617
       271 -10.8786    132.5850    122.9781   9.3361634115e+01   3.1588740454e+01     1.739086    0.7004678 -56.05  0.005621146    3.083    0.676
       272  -9.9127    117.2328    124.5418   9.7678832588e+01   3.4246411535e+01    0.9500563    0.4261653 -51.46  0.001855377    2.186    0.543
       273 -10.6102    123.7261     90.7965   8.7450074779e+01   4.0142855651e+01     1.194591    0.5875051 -34.56  0.003030279    2.320    0.569
       274 -10.1506    108.7487    114.4867   9.7541228440e+01   3.8057237744e+01    0.5738561    0.3970015 -75.03  0.001368964    1.980    0.495
