#   1 NUMBER                 Running object number                                     
#   2 MAG_AUTO               Kron-like elliptical aperture magnitude                    [mag]
#   3 X_IMAGE                Object position along x                                    [pixel]
#   4 Y_IMAGE                Object position along y                                    [pixel]
#   5 X_WORLD                Barycenter position along world x axis                     [deg]
#   6 Y_WORLD                Barycenter position along world y axis                     [deg]
#   7 A_WORLD                Profile RMS along major axis (world units)                 [deg]
#   8 B_WORLD                Profile RMS along minor axis (world units)                 [deg]
#   9 THETA_WORLD            Position angle (CCW/world-x)                               [deg]
#  10 FWHM_WORLD             FWHM assuming a gaussian core                              [deg]
#  11 ELONGATION             A_IMAGE/B_IMAGE                                           
#  12 ELLIPTICITY            1 - B_IMAGE/A_IMAGE                                       
         1 -14.7610     68.4043    144.1543   1.0366961829e+02   3.7445179154e+01     4.906296     2.662647  69.87   0.01191002    3.171    0.685
         2 -14.5306    201.8569     38.8252   4.3663507638e+01   3.0544268329e+01     2.127634     1.461432  31.24  0.007082923    1.995    0.499
         3 -14.4252    213.6786     26.8545   3.9300558065e+01   2.9278754499e+01     1.269994    0.9812616  14.03  0.007221746    1.872    0.466
         4 -11.0812      2.1208     10.2792   9.3947468218e+01   7.2922315434e+01    0.2525835    0.1009976 -46.48  0.001370908    2.045    0.511
         5 -12.4634    240.8128      3.6867   3.1791029644e+01   2.5908294139e+01    0.5260948    0.3512049  58.63  0.003184071    1.719    0.418
         6 -12.2147    235.5959      2.8019   3.1965540048e+01   2.7086027374e+01    0.3680103    0.2810953  84.41  0.001816588    1.217    0.178
         7 -10.0610     58.5903      6.7988   6.3871363883e+01   6.6462990435e+01    0.1557289    0.1066297 -29.50 0.0004044292    1.608    0.378
         8  -9.2292     37.2417     56.7367   9.3931910533e+01   6.1532642574e+01    0.1743325    0.1228719 -26.96 0.0003699319    1.257    0.205
         9 -11.9969    139.3774    247.8865   1.0223154566e+02   4.7071203729e+00    0.4720646    0.3278074 -75.08  0.002726646    2.162    0.538
        10 -11.7206    117.1030    248.9057   1.0675516894e+02   7.8079387785e+00    0.4597234    0.2879999 -69.47   0.00266091    2.065    0.516
        11 -11.2025    119.4881    243.4890   1.0566068826e+02   8.3892477822e+00    0.2308579    0.1666745  68.19  0.001037743    1.619    0.382
        12 -14.6397     84.7809    222.0838   1.1036423338e+02   1.7383230288e+01     4.951912    0.8651248  41.72  0.006050497    4.172    0.760
        13 -14.0925     24.2841    226.1082   1.2279607215e+02   2.3804989165e+01     1.406074    0.5903683  65.27  0.003875092    2.307    0.566
        14 -15.0439      9.6077    207.6633   1.2448936634e+02   2.8951643240e+01     1.690678     1.306692 -39.26   0.00897762    1.932    0.482
        15 -15.9355      7.4058    166.2859   1.2217912949e+02   3.8250304617e+01     6.689672     1.522375 -73.97   0.02541109    3.390    0.705
        16 -13.8202     41.2683    200.8945   1.1753200202e+02   2.7286305685e+01    0.9847617    0.5598934 -85.64  0.002561171    1.682    0.406
        17 -13.9832     57.5929    240.6695   1.1753001237e+02   1.7277543587e+01    0.7395538    0.4673092  61.94  0.003671803    1.369    0.269
        18 -10.1935    113.2674    206.0364   1.0212769095e+02   1.6454596062e+01    0.1851414     0.174257  74.43 0.0007264206    1.077    0.072
        19 -11.7263    194.5517    196.9363   8.2813443388e+01   4.5081254260e+00     1.127452    0.6793841 -67.62  0.003742748    5.257    0.810
        20 -11.4882    109.7028    201.1928   1.0223786264e+02   1.8026656737e+01    0.4462704    0.2825379 -38.91 0.0004612054    1.960    0.490
        21 -11.2234     62.0201    199.5817   1.1286163927e+02   2.5143262904e+01    0.3717911    0.1967057 -63.03 0.0008642941    1.836    0.455
        22  -9.9619     66.0299    194.4705   1.1138843992e+02   2.5772041597e+01    0.2655309    0.2327517   8.98 0.0009451037    1.471    0.320
        23 -10.8357    207.4626    194.7222   7.9795670748e+01   2.7223913044e+00    0.3559201    0.1272676 -39.61  0.001203769    2.777    0.640
        24  -8.8958    134.2876    196.3430   9.5848163409e+01   1.5019353294e+01    0.1398906    0.1079216 -11.34 0.0004665093    1.646    0.393
        25 -14.4769     51.5060    190.8892   1.1431005381e+02   2.8357941850e+01     2.428461      1.36315 -87.28   0.01218362    1.870    0.465
        26  -9.3820     72.1740    188.1597   1.0920036764e+02   2.6395523389e+01    0.1813743    0.1383177  76.24 0.0004424807    1.308    0.236
        27  -8.9263     80.6661    184.2911   1.0666399907e+02   2.6117026424e+01    0.1423827   0.09566715  66.20 0.0004514982    1.634    0.388
        28  -9.2982     69.8109    183.8604   1.0921615385e+02   2.7696379310e+01    0.1828544    0.1394767  73.57 0.0003796605    1.305    0.234
        29  -9.0770     91.2042    182.5819   1.0386528589e+02   2.4979389107e+01    0.1696351    0.1333459  24.38 0.0009084973    1.430    0.301
        30  -9.8471    151.3580    180.6632   8.9107392462e+01   1.5261917866e+01    0.2981313    0.1893392 -70.14  0.001027386    2.533    0.605
        31  -9.6528    149.5647    177.4507   8.8905226960e+01   1.6258645219e+01    0.2185696     0.213516  29.21 0.0001436334    1.063    0.059
        32  -9.9115     99.4141    180.6605   1.0156491460e+02   2.4164047154e+01    0.2387662    0.2309734  10.11 0.0005783362    1.143    0.125
        33 -10.6041    144.2189    178.8023   9.0416896202e+01   1.6946683716e+01    0.3080959    0.2668605 -18.47  0.001664746    1.233    0.189
        34 -12.8466     80.3494    161.1483   1.0327295172e+02   3.1632531397e+01    0.9653302     0.472539  53.84  0.000515713    2.505    0.601
        35 -13.7453     68.1585    156.7364   1.0580244198e+02   3.4381467955e+01    0.6009753    0.5203667 -36.48  0.001511349    1.301    0.231
        36 -11.0568    124.5530    243.5917   1.0465809236e+02   7.6253024666e+00    0.3026645    0.1274985 -60.65   0.00136863    3.137    0.681
        37  -9.4259    204.4345    175.5060   7.6555906728e+01   6.5744558885e+00    0.1420278    0.1255843  -6.57 0.0002926715    1.015    0.014
        38 -11.0746    133.0342    171.8288   9.1762025749e+01   2.0478087868e+01    0.3561994    0.1958288  27.86  0.001418491    2.110    0.526
        39 -10.3719    137.6693    168.8094   9.0046124247e+01   2.0300321675e+01    0.3672149    0.3018894  56.99   0.00188472    1.330    0.248
        40  -9.4567     34.7610    171.7338   1.1623153882e+02   3.4602775180e+01    0.1773511    0.1260796  71.85 0.0007276875    1.341    0.254
        41 -12.2815     87.5173    154.3852   1.0020543486e+02   3.2215138610e+01    0.6464938    0.4468902 -27.10  0.002998465    1.927    0.481
        42 -10.6121     33.4004    156.3947   1.1489469704e+02   3.8395345552e+01    0.3567652    0.1912485  42.08  0.001829102    1.936    0.484
        43  -9.6644    187.4676    151.5130   7.4864105725e+01   1.4280918037e+01    0.1496991     0.139426 -12.43 0.0007296776    1.021    0.021
        44 -11.1623    133.5922    143.9258   8.5802342199e+01   2.6664099313e+01     1.163239    0.2933886 -53.43  0.002753388    5.524    0.819
        45 -12.2778     66.7227    175.5461   1.0888234775e+02   3.0042486648e+01    0.5100678    0.2848746 -46.85  0.001372381    2.021    0.505
        46 -10.3504    174.5503    148.7968   7.7061918894e+01   1.7409651641e+01    0.3483629    0.2649141 -57.59  0.001462999    1.547    0.354
        47  -9.1231    110.7205    148.9838   9.2913740488e+01   2.9718287162e+01      0.27002    0.1525755  67.13 0.0008926203    3.421    0.708
        48 -11.5201     30.0785    143.7170   1.1424940579e+02   4.1782590533e+01    0.5277677    0.3458889  33.84  0.002976956    1.709    0.415
        49 -11.4552     26.0380    137.6811   1.1460040797e+02   4.3606063077e+01     0.352677    0.2188834  44.04  0.001460641    1.771    0.435
        50 -10.8702    101.7419    139.7015   9.3422041093e+01   3.3491189974e+01    0.5954573    0.3646381 -24.02  0.002310955    2.519    0.603
        51 -10.9777     82.0187    141.7160   9.9379542562e+01   3.6139201417e+01    0.3408584    0.2415231  61.34  0.000886096    1.666    0.400
        52 -12.3457     88.8546    139.6703   9.7040620287e+01   3.5601255158e+01     0.291799    0.2500603 -42.57 0.0004029853    1.164    0.141
        53  -9.3707     33.0577    138.5176   1.1275474700e+02   4.2787720076e+01    0.1730607    0.1299037  31.62  0.001006285    1.529    0.346
        54 -12.1277     44.4631    130.2974   1.0825442210e+02   4.3709012590e+01    0.5055238    0.2673023 -73.73  0.002307503    1.876    0.467
        55 -10.2430    111.0685    130.1477   8.8679818214e+01   3.4131608062e+01    0.3327817    0.2598731  10.95  0.001019358    1.544    0.352
        56 -12.2505     27.8706    127.6941   1.1274557958e+02   4.5899491614e+01    0.3616685     0.292603  -9.24  0.002211223    1.550    0.355
        57 -10.9649    135.5558    127.2207   8.1331263237e+01   3.0060727235e+01    0.6901295    0.1794531 -48.34  0.001857694    3.968    0.748
        58 -10.1400    160.9114    127.8228   7.5178503305e+01   2.4618793485e+01      0.37533    0.2005409 -51.87  0.001426998    2.102    0.524
        59 -10.7799     98.2754    126.2136   9.1420964108e+01   3.7331510156e+01    0.3156168    0.2447808 -23.20 0.0008953292    1.486    0.327
        60  -9.8692    117.1259    124.3182   8.5588096041e+01   3.4367911434e+01    0.2470552    0.1961538  10.08  0.001139567    1.496    0.331
        61 -10.4570    105.8957    130.8187   9.0292193381e+01   3.4902894439e+01    0.3492982     0.317572 -68.47   0.00123245    1.141    0.123
        62  -9.6920     88.3783    121.7759   9.3327956978e+01   4.0038848429e+01    0.5101869    0.2715533  63.09  0.001636037    3.910    0.744
        63  -9.9606    107.5202    119.0326   8.7008750570e+01   3.7399860673e+01    0.2090205    0.2023247   6.76 0.0001645264    1.057    0.054
        64 -12.1263     71.4270    170.2658   1.0697548771e+02   3.0677065020e+01    0.4095198    0.2842562 -48.02   0.00117144    1.533    0.348
        65  -9.1465    168.2087    112.8154   6.9645830609e+01   2.6126687092e+01    0.2649947    0.1769779 -80.13 0.0009565713    2.873    0.652
        66 -10.1688    135.0000    112.4103   7.7656678636e+01   3.3459630108e+01    0.3494687   0.08789869 -44.32 0.0009280395    3.881    0.742
        67 -10.2223    205.4738    110.1305   6.1377809540e+01   1.8437740757e+01    0.3076376    0.2132704  38.70 0.0009066762    1.589    0.371
        68 -11.5814     34.0233    108.6490   1.0778985411e+02   5.0035762474e+01    0.2855312    0.2629947 -50.68  0.001375807    1.101    0.092
        69 -10.4364    117.7322    108.7271   8.1396733074e+01   3.7813321625e+01    0.3178412    0.1906521  61.80  0.001182629    2.542    0.607
        70  -9.4591    139.8153    106.2092   7.4715504899e+01   3.3762623024e+01    0.2330579    0.2145975 -78.22 0.0007484639    1.242    0.195
        71  -9.8276    134.5262    105.5344   7.5911075150e+01   3.5045089794e+01    0.3342026    0.1517966 -42.87  0.001125901    2.151    0.535
        72 -10.1177    187.9610    173.4739   7.9528055752e+01   9.9381016245e+00    0.3565333    0.1919881 -57.54  0.001334846    3.001    0.667
        73 -10.9539    247.5938    102.1974   5.2764445594e+01   1.1239530657e+01     0.198119    0.1164006 -27.61 0.0009565102    1.676    0.403
        74 -10.1321     41.2780     98.1455   1.0327755427e+02   5.1893137719e+01    0.2520085    0.1644902  57.09  0.001243827    2.096    0.523
        75 -10.6343    243.4978     93.9957   5.1478049949e+01   1.3337045276e+01    0.1945744    0.1143722 -13.67 0.0008106435    2.638    0.621
        76  -9.9227    127.2674     94.2955   7.4669698884e+01   3.8965560224e+01    0.3037962     0.190721  66.18  0.001155124    2.464    0.594
        77 -10.4108     53.0606     90.9800   9.7476646680e+01   5.2314646562e+01     0.308397     0.179935 -48.42  0.001367564    1.473    0.321
        78  -9.4455     74.9959     84.8619   8.8087608455e+01   5.0737635858e+01    0.2014251    0.1926637  80.07 0.0004415652    1.275    0.215
        79  -9.3802    113.5526     83.0261   7.5158264098e+01   4.4149857755e+01    0.3086251    0.2026228  82.03   0.00104743    3.613    0.723
        80  -9.9383    159.1294     82.1197   6.3184659358e+01   3.4123186065e+01    0.2360512    0.2091023  11.86 0.0005569306    1.221    0.181
        81  -9.6068     69.5928     81.3639   8.8955513931e+01   5.2313652207e+01    0.2200045    0.1635757  43.07  0.001134573    1.560    0.359
        82 -10.4416    243.3044     77.9649   4.7858043632e+01   1.5868119763e+01    0.1918685    0.1563759 -42.86 0.0005193247    1.065    0.061
        83 -16.0035     38.8700    249.0983   1.2155175840e+02   1.7880613900e+01     10.51219     3.151751  25.56   0.02211528   17.688    0.943
        84 -10.8298     13.4321     59.9289   1.0505132295e+02   6.2795693436e+01    0.2718255    0.1875575 -60.31 0.0004373385    1.312    0.238
        85 -12.7523    192.2916     45.5441   4.6733636176e+01   3.1925518255e+01    0.7395682    0.5467431  46.13 0.0009061563    1.465    0.317
        86  -9.4151     44.0918    229.7987   1.1928517317e+02   2.0955467442e+01    0.1845736    0.1194957  66.87  0.001172279    1.333    0.250
        87 -11.2441    140.4408     45.9406   5.6113147944e+01   4.4452797995e+01    0.3569669    0.2813847 -84.73 0.0008221953    1.613    0.380
        88 -10.3113    143.7528     40.7666   5.3715983827e+01   4.4362814271e+01    0.2437683    0.2247878  86.79 0.0003454092    1.166    0.142
        89 -10.6150     49.0919    224.4265   1.1789512308e+02   2.1453140231e+01    0.3356878    0.1745559 -56.34 0.0003786063    2.206    0.547
        90 -11.1667      3.4492     24.6803   9.9081364061e+01   7.0371464116e+01    0.3503824    0.2450781  31.22  0.002340622    1.927    0.481
        91  -9.5273    189.6444     14.9739   3.8937437479e+01   3.6191572262e+01    0.1749197    0.1598118 -55.16 0.0004917909    1.128    0.113
        92  -9.6755     53.7958    220.5669   1.1663081217e+02   2.1683418210e+01    0.1677288    0.1234943  51.26 0.0003209362    1.195    0.164
        93 -11.9266     48.4382    217.0649   1.1742255345e+02   2.3033427600e+01    0.5780322    0.4653265  37.66  0.003907572    1.347    0.257
        94 -13.0290      9.8742    188.1086   1.2321361771e+02   3.3127270672e+01    0.2958294    0.2498057  49.17 0.0009504163    1.303    0.232
        95 -16.2032      7.6256    242.6262   1.2662329353e+02   2.2255200836e+01     1.939594     1.541379  47.18   0.01569084    1.356    0.262
