#   1 NUMBER                 Running object number                                     
#   2 MAG_AUTO               Kron-like elliptical aperture magnitude                    [mag]
#   3 X_IMAGE                Object position along x                                    [pixel]
#   4 Y_IMAGE                Object position along y                                    [pixel]
#   5 X_WORLD                Barycenter position along world x axis                     [deg]
#   6 Y_WORLD                Barycenter position along world y axis                     [deg]
#   7 A_WORLD                Profile RMS along major axis (world units)                 [deg]
#   8 B_WORLD                Profile RMS along minor axis (world units)                 [deg]
#   9 THETA_WORLD            Position angle (CCW/world-x)                               [deg]
#  10 FWHM_WORLD             FWHM assuming a gaussian core                              [deg]
#  11 ELONGATION             A_IMAGE/B_IMAGE                                           
#  12 ELLIPTICITY            1 - B_IMAGE/A_IMAGE                                       
         1  -7.6692    244.6948     14.4530   3.3350641653e+01   2.3776781808e+01    0.1735854    0.1375112  -3.56   0.00053564    1.613    0.380
         2  -8.0120    229.5311      8.4834   3.2806822669e+01   2.7488749560e+01    0.1256227     0.100885 -51.13 9.494594e-05    1.002    0.002
         3  -7.3638    193.2128      5.8179   3.4511701146e+01   3.5939606205e+01    0.1619011    0.1474639  48.81 0.0003487917    1.301    0.232
         4  -7.9706    233.6978      4.6360   3.1646240106e+01   2.6995074837e+01      0.11293   0.09141123  23.15 0.0007035861    1.731    0.422
         5  -7.0800    115.2405      3.9762   4.2749135971e+01   5.6011885631e+01    0.1698624     0.117466 -21.54 0.0004977777    1.522    0.343
         6  -7.1682    215.4445      1.4395   3.1858427479e+01   3.1225498993e+01    0.1254803     0.105032 -55.48  0.000135775    1.021    0.020
         7 -12.4849      9.7641    206.8642   1.2122057096e+02   2.9516782134e+01     2.315617    0.9406641  64.80   0.01241027    2.076    0.518
         8  -8.3608    236.5899    250.6044   8.1588011916e+01  -4.2820535256e+00    0.1828092   0.07434411  29.81 0.0005773484    1.996    0.499
         9 -10.9292     56.9046    239.3112   1.1314026502e+02   1.8791782467e+01    0.7295227    0.5821708 -38.41  0.002311596    1.856    0.461
        10  -9.2382    194.7003    217.3282   8.3752446667e+01   4.3887310468e+00     0.274347     0.163086  34.45  0.001692985    1.513    0.339
        11  -7.5350     48.6833    215.6719   1.1334264470e+02   2.3965317560e+01    0.1037077   0.08938043 -24.39 0.0007045635    1.678    0.404
        12  -9.0613    195.7122    212.7188   8.2876540470e+01   4.8583002611e+00    0.2248348    0.1646039  11.73 0.0003749383    1.153    0.133
        13  -8.5298    196.2853    208.0355   8.2049869199e+01   5.4052531872e+00    0.1898429    0.1575546  21.98 0.0002415277    1.181    0.153
        14  -7.3957    117.4730    213.0627   9.8288705890e+01   1.5761506091e+01    0.1535409    0.1231523 -59.14 0.0004329846    1.489    0.328
        15  -7.2626    206.2422    208.3551   8.0348431381e+01   4.0198750287e+00    0.1161665   0.07443049  -3.95   0.00044842    1.586    0.370
        16  -7.6254    223.0361    204.7318   7.6935090910e+01   2.2765087059e+00    0.1571996    0.1147043  13.91  0.001090559    1.133    0.117
        17 -10.0089    163.4946    202.6640   8.7394809550e+01   1.0846939983e+01    0.2208169    0.2024098   6.53 0.0005156377    1.124    0.110
        18 -12.5510      2.0322    233.9322   1.2354389706e+02   2.5093084456e+01      1.41588    0.4555881 -73.36  0.007531062    3.297    0.697
        19  -7.9629     44.0010    230.5874   1.1520881949e+02   2.1707752245e+01    0.2083186    0.1011136 -62.36  0.001203017    2.461    0.594
        20  -8.9580     53.3725    202.8254   1.1140330496e+02   2.5964947826e+01    0.2396469    0.1926862   1.36  0.001383292    1.728    0.421
        21  -8.5588    115.6576    199.9095   9.7045919670e+01   1.8365188604e+01    0.2100981     0.175468  38.67 0.0003648851    1.038    0.036
        22  -9.0685     49.0234    199.1409   1.1211471130e+02   2.7206226737e+01     0.341516    0.2473606 -21.34  0.001578627    2.248    0.555
        23  -9.3871      2.5921    196.4329   1.2241726406e+02   3.2223713396e+01    0.2453343    0.1611921  43.88  0.001501917    1.285    0.222
        24  -9.2881     47.8847    190.8172   1.1174264105e+02   2.9073654670e+01    0.2260126    0.1820199 -75.86  0.000283409    1.315    0.240
        25  -8.2432     33.5599    191.2199   1.1514672882e+02   3.0514844071e+01    0.3370082     0.101509  48.02  0.001451255    2.615    0.618
        26  -8.5805     33.8007    228.2680   1.1714561882e+02   2.3178017728e+01    0.1778365    0.1427661  18.31 0.0009266324    1.557    0.358
        27  -9.1016    206.1881    222.8980   8.2579274312e+01   2.2047745472e+00    0.2500935    0.2351875 -87.36  0.001418288    2.019    0.505
        28  -8.6448    185.5340    187.7630   8.0708778101e+01   9.8554001894e+00    0.2177657    0.1792481  14.50 0.0002892443    1.053    0.050
        29  -8.8468     60.9008    186.2697   1.0822718351e+02   2.8527185057e+01    0.3309689      0.23378  40.99  0.001957556    1.256    0.204
        30  -7.8539    171.1869    185.2455   8.3063581636e+01   1.2457822733e+01    0.2285112    0.1713021 -49.80 0.0007031271    1.612    0.380
        31  -6.7182    232.7108    185.7034   7.2154046578e+01   3.3800071494e+00    0.1177931    0.0744826   0.10 0.0003740121    1.554    0.356
        32 -10.2894    226.1988    216.5810   7.8299189071e+01   4.7009812117e-01    0.1976557     0.153551  -5.63 0.0004219454    1.135    0.119
        33  -7.4364     94.4847    178.1162   9.9082467531e+01   2.5767816400e+01    0.1785927    0.1309327 -62.60  0.000519354    1.469    0.319
        34  -6.9861    214.2650    177.7170   7.3755978778e+01   7.0298969542e+00    0.1014109   0.09618571 -39.80 0.0002507142    1.488    0.328
        35  -7.8984    113.0314    176.9087   9.4435909847e+01   2.3217427351e+01    0.1969742    0.1811721  39.08 0.0004556749    1.020    0.020
        36 -12.6875     19.4236    250.3265   1.2077178185e+02   2.0742754585e+01      1.97363    0.7811918  20.35   0.00904977    3.707    0.730
        37  -9.0157     49.6926    175.0552   1.0995708107e+02   3.2323419925e+01    0.2520219    0.1815329  25.01 0.0003668192    1.525    0.344
        38  -7.6383    118.5327    173.3320   9.2576712780e+01   2.3076696831e+01    0.2181068    0.1364593 -60.13 0.0002383067    1.810    0.447
        39  -7.0684     72.2747    173.3335   1.0402294642e+02   2.9913425842e+01    0.1250648    0.1013047 -32.56 0.0006993155    1.600    0.375
        40  -7.5987     76.2219    168.8214   1.0245646384e+02   3.0391229181e+01    0.1737654    0.1565035 -34.06 0.0005921752    1.346    0.257
        41  -6.7556    206.2748    164.6884   7.2700009328e+01   1.0137602960e+01    0.1115173    0.1011026 -58.25 0.0003280344    1.556    0.357
        42  -6.8568    153.0000    161.9919   8.2693468026e+01   1.9525699088e+01    0.2147014   0.07759658 -46.01 0.0007935791    2.881    0.653
        43  -6.9119     86.7165    217.2903   1.0530140511e+02   1.9126715877e+01    0.1207603   0.07643677  56.85  0.000185688    1.532    0.347
        44  -7.1505    144.0103    157.9769   8.3940383045e+01   2.1864679766e+01    0.1616644    0.1508206  23.75 0.0009488602    1.015    0.015
        45  -9.0639     72.8859    155.4986   1.0157394815e+02   3.3921996285e+01    0.3255167    0.2426274 -44.45 0.0007500101    1.564    0.361
        46  -7.4429      6.3308    147.3316   1.1944460470e+02   4.2931420924e+01    0.1235785   0.08503878 -50.67 0.0007052009    1.721    0.419
        47  -8.6734     68.7893    143.7135   1.0102904101e+02   3.7314251016e+01    0.5483786     0.278568  62.91  0.002159417    2.596    0.615
        48  -7.5510     91.8213    138.9036   9.3621091124e+01   3.5015354575e+01    0.2063036    0.1930112 -18.30 0.0003019961    1.225    0.183
        49  -9.4362    190.5179    134.2489   6.9266656101e+01   1.7726933738e+01    0.2667083    0.2175588 -23.35 0.0001985751    1.143    0.125
        50  -7.2158    234.7027    136.3306   6.2361235544e+01   9.7462969672e+00    0.1189338   0.09239714 -50.94 0.0004205152    1.640    0.390
        51  -8.7530    134.0250    133.8632   8.1378151510e+01   2.8624525718e+01    0.2238577    0.2037765 -44.53 0.0003028726    1.107    0.096
        52  -8.1591    195.9138    130.9010   6.7530890988e+01   1.7289514485e+01    0.2554512    0.1905381  30.94 0.0008008776    1.405    0.288
        53  -8.1100     96.9169    126.1046   8.9650199411e+01   3.7206507572e+01    0.2177837    0.2086295 -59.10 0.0004060924    1.061    0.058
        54  -8.4000    130.9716    120.4779   7.9077082514e+01   3.2086341521e+01    0.2668115    0.2078017 -64.85 0.0006262138    1.447    0.309
        55  -7.0036    219.4585    120.4365   6.1236065780e+01   1.4657153553e+01    0.1327793    0.1141657 -19.31 0.0001114265    1.010    0.010
        56  -7.7729    138.5269    107.9572   7.4058636042e+01   3.3189908543e+01    0.2234177    0.1977435  46.48  0.001160426    1.155    0.134
        57  -8.8144     81.0111    104.9851   8.9860069714e+01   4.5062775156e+01      0.30221    0.2411985  87.57 0.0003244184    1.415    0.293
        58  -8.2162    243.4582    103.4848   5.4076821640e+01   1.2901374717e+01    0.1965859    0.1465331   0.16  0.001157575    1.503    0.335
        59  -8.2447    115.4115     92.4931   7.5921428452e+01   4.1418379909e+01    0.3413484    0.2395423   1.08  0.001358923    2.383    0.580
        60  -8.9570    194.4161     87.1146   5.7146456845e+01   2.4861300807e+01    0.3814373    0.2429359 -26.87   0.00122549    1.548    0.354
        61 -10.1780     98.3968     86.0355   7.9127942119e+01   4.6374878267e+01    0.2706653    0.2575848  60.81 0.0003521334    1.080    0.074
        62  -7.5079    110.0093     85.0413   7.5282111135e+01   4.4194198132e+01    0.2235752    0.1855402  -0.39            0    1.512    0.338
        63  -7.1933    169.9700     75.9876   5.8321043168e+01   3.2199821769e+01    0.1807706    0.1552208 -37.76            0    1.097    0.088
        64  -7.5429    145.8566     62.1960   5.8858717012e+01   4.0338984232e+01    0.2185732       0.1945 -65.29 0.0003073684    1.148    0.129
        65  -6.8319    143.2627     50.6507   5.5538225147e+01   4.2885662662e+01    0.1571429    0.1096125 -60.30 0.0002020884    1.610    0.379
        66  -7.8813    128.1152     40.1730   5.4979526626e+01   4.8323203889e+01    0.2151812    0.2001353  20.58 0.0008392051    1.162    0.139
        67  -7.1313    166.5759     34.5701   4.6150074703e+01   3.9303605903e+01     0.140359    0.1345344 -60.66 0.0001691955    1.043    0.041
        68  -8.4300    159.0229     33.2958   4.6845721350e+01   4.1384082247e+01    0.2412872    0.2028199 -22.74 0.0003899005    1.249    0.199
        69  -9.6952    204.8939     31.9758   4.0807226631e+01   3.0358183243e+01     0.393071    0.3423079  12.91  0.001857475    1.426    0.299
        70  -8.8449    127.0462     28.0786   5.0547977929e+01   5.0295617239e+01    0.2339701    0.2237556   4.24  0.001321587    1.114    0.102
        71  -8.5492    232.6714     19.7751   3.5363402351e+01   2.5658855209e+01     0.208308    0.2014305 -75.54 0.0005870217    1.225    0.184
        72  -8.6561     59.8766    247.3708   1.1304605889e+02   1.7123887719e+01    0.1695284    0.1200472  61.66 0.0003562307    1.266    0.210
        73  -7.4944    119.9907     13.5106   4.5992006951e+01   5.3847953366e+01     0.202372     0.135759  69.52 -0.0001219269    1.446    0.309
        74  -7.0398    195.5536     12.4881   3.6223808433e+01   3.4718902340e+01    0.1339389     0.115581 -57.15  0.000219258    1.006    0.006
        75  -7.7786     95.3224    244.6712   1.0598474179e+02   1.3443024276e+01    0.1457036     0.114174  44.21 0.0006119495    1.059    0.056
        76  -8.5708    207.3764    240.3829   8.4857269735e+01   2.4336811008e-02    0.1800374    0.1484516  15.59 0.0002016876    1.267    0.211
        77  -8.6577    245.6170    235.2079   7.8064333805e+01  -3.7400454298e+00     0.136619    0.1010146  -0.76 0.0005204853    1.140    0.123
        78 -12.9351      2.2825    249.0327   1.2383143528e+02   2.2482847582e+01     1.889812     1.189036 -24.60  0.001318161    4.045    0.753
