#   1 NUMBER                 Running object number                                     
#   2 MAG_AUTO               Kron-like elliptical aperture magnitude                    [mag]
#   3 X_IMAGE                Object position along x                                    [pixel]
#   4 Y_IMAGE                Object position along y                                    [pixel]
#   5 X_WORLD                Barycenter position along world x axis                     [deg]
#   6 Y_WORLD                Barycenter position along world y axis                     [deg]
#   7 A_WORLD                Profile RMS along major axis (world units)                 [deg]
#   8 B_WORLD                Profile RMS along minor axis (world units)                 [deg]
#   9 THETA_WORLD            Position angle (CCW/world-x)                               [deg]
#  10 FWHM_WORLD             FWHM assuming a gaussian core                              [deg]
#  11 ELONGATION             A_IMAGE/B_IMAGE                                           
#  12 ELLIPTICITY            1 - B_IMAGE/A_IMAGE                                       
         1 -15.9136    134.0992     74.3549   9.1754605083e+01   4.1214026821e+01     2.886918     1.845155  29.33   0.01250005    1.943    0.485
         2 -17.1222    144.0178    104.6823   9.7937772856e+01   3.3055310373e+01      4.32184     2.982111  72.56    0.0182565    1.924    0.480
         3 -14.4270    100.9283     70.3275   9.9458167774e+01   4.8895261478e+01     1.296547    0.8684683  23.27  0.006225036    1.753    0.429
         4 -14.6265     72.8343     45.0370   9.9753755455e+01   5.8049369377e+01     1.860319    0.6277637 -33.00  0.007145266    3.171    0.685
         5 -14.7893     65.4733     41.6294   1.0102752068e+02   5.9707939151e+01     1.724698    0.9315752  -5.14  0.007163391    3.235    0.691
         6 -14.7862     83.1650     49.5412   9.7986206170e+01   5.5634751816e+01     1.886425     1.071959 -18.06  0.008725599    2.201    0.546
         7 -14.2063     14.1476      7.2734   1.0783875650e+02   7.0590720713e+01    0.9654582    0.5029788  -3.16  0.005836584    2.091    0.522
         8 -13.7248     56.3166      5.2675   8.9672874822e+01   6.5615141180e+01    0.6710924    0.3729894  25.30  0.003987466    1.649    0.394
         9 -11.0456    140.0000    222.9672   1.2345092988e+02   8.1842715970e+00    0.2036854   0.07808902 -53.00 0.0007539549    2.916    0.657
        10 -11.1695    121.5139    222.0369   1.2710636119e+02   1.1644450814e+01    0.2181864    0.1645115  50.76 0.0008589965    1.168    0.144
        11 -11.5109    129.8355    220.2272   1.2513599683e+02   1.0538778723e+01    0.2613953    0.1885116 -46.63   0.00141584    1.634    0.388
        12 -13.0897    109.9281    216.1651   1.2868298967e+02   1.4832959819e+01    0.4528411    0.3655742  58.92  0.002566169    1.086    0.079
        13 -16.5209     72.4792    195.7997   1.3391229305e+02   2.5221902554e+01     2.931848     1.773793  69.06   0.01490185    1.719    0.418
        14 -12.6377    109.6786    209.1064   1.2774773692e+02   1.6356344783e+01    0.2955426    0.2305823  57.65  0.001006245    1.147    0.128
        15 -11.9383    191.7647    207.2405   1.1018316578e+02   1.4933401818e+00    0.2889119    0.2298711  42.23  0.001569068    1.188    0.158
        16 -12.5401    144.5033    205.9559   1.1981772143e+02   1.0716178496e+01    0.3518148    0.2732567 -43.05  0.001885953    1.463    0.316
        17 -11.9554    218.7760    205.4743   1.0453954621e+02  -3.1404656964e+00    0.3403496    0.2558167  35.15  0.001918571    1.263    0.208
        18 -13.0021    181.5872    203.6193   1.1159222675e+02   4.0834571928e+00    0.5272436    0.3646459 -23.93  0.002575856    1.813    0.448
        19 -12.8389    175.3969    202.6465   1.1269750171e+02   5.4563151853e+00    0.3635508    0.3349603 -82.83  0.002109196    1.236    0.191
        20 -13.2665    171.6528    199.4820   1.1290115809e+02   6.7913839727e+00    0.5138425    0.3119308  30.22   0.00230866    1.846    0.458
        21 -12.8771    130.6385    201.4644   1.2206749421e+02   1.4237893887e+01    0.6312331    0.2104524 -55.29  0.002203868    3.261    0.693
        22 -13.4599    153.4221    199.2465   1.1674808022e+02   1.0380116673e+01    0.6463017    0.3084382  51.25  0.002602853    2.142    0.533
        23 -12.5912    139.9146    200.8161   1.1994366778e+02   1.2639589349e+01    0.3399489    0.2470743 -67.18  0.001619568    1.531    0.347
        24 -13.1690    189.5278    198.1460   1.0893310754e+02   3.5787057116e+00    0.4483812    0.4119327  61.45  0.001970162    1.194    0.162
        25 -13.5897    192.6220    191.7075   1.0705277326e+02   4.1848084158e+00    0.5479537    0.4560837 -18.93  0.002980897    1.298    0.229
        26 -12.1874    118.4755    198.4538   1.2424365423e+02   1.7102857657e+01    0.4145969    0.2430232 -79.65    0.0017378    2.374    0.579
        27 -15.2834    142.7635    189.7502   1.1738260303e+02   1.4435631306e+01     1.230363    0.8881663  52.78  0.005680437    1.332    0.249
        28 -17.1260    145.9393    170.3911   1.1296252849e+02   1.8040835470e+01     3.190706     3.177812 -89.76   0.01791599    1.074    0.069
        29 -15.8162     94.0410    190.9925   1.2851828937e+02   2.2973445298e+01     2.316713     1.346462  76.64   0.01002388    2.295    0.564
        30 -13.2320    129.6836    184.4445   1.1937196371e+02   1.8114500625e+01    0.6105124    0.3309886  56.81  0.002429945    2.053    0.513
        31 -12.6482    196.9778    183.5097   1.0452347372e+02   4.8818176544e+00    0.4600244    0.2428089 -53.93  0.001859164    2.365    0.577
        32 -13.0435    181.8878    180.9042   1.0713313742e+02   8.4295222997e+00    0.5441003    0.2827109 -35.03    0.0021719    2.253    0.556
        33 -12.8124    181.8355    173.9517   1.0571357153e+02   9.8451276249e+00    0.4742515    0.3378988 -62.78  0.002197112    1.706    0.414
        34 -12.6306    105.8834    182.1789   1.2444453657e+02   2.2983351205e+01    0.4852233    0.2656251  30.28  0.002000987    2.382    0.580
        35 -11.4310     73.5912    244.5802   1.3900601012e+02   1.4867699771e+01    0.2727794    0.1568702  69.49  0.001456275    1.617    0.382
        36 -13.0342    120.6356    180.5266   1.2075002064e+02   2.0698806723e+01    0.4157825    0.3085448  18.07  0.001923878    1.909    0.476
        37 -13.0217    122.8193    237.9976   1.2898151394e+02   8.3474924361e+00    0.5982095     0.538881   5.18   0.00381503    1.536    0.349
        38 -12.9457    131.8676    177.7207   1.1764053985e+02   1.9199073688e+01    0.4084844    0.3624727  58.64  0.001480601    1.076    0.071
        39 -12.0298    102.7858    177.2166   1.2433595538e+02   2.4669285585e+01    0.3601777    0.2482386 -34.74  0.001677085    2.015    0.504
        40 -12.9787     96.7740    173.0491   1.2505230318e+02   2.6669946039e+01    0.5233532    0.2784799 -50.04  0.002288039    1.950    0.487
        41 -13.3916    108.8022    171.9494   1.2199938630e+02   2.4838027711e+01    0.5461599    0.3911902 -77.82  0.001619997    1.505    0.336
        42 -13.5764    191.8049    171.0364   1.0299918421e+02   8.3665039253e+00    0.5496753    0.4019218  48.61  0.002686146    1.382    0.276
        43 -15.2977    167.4110    173.7216   1.0879531740e+02   1.2889061138e+01     1.256044    0.9952731  -2.22  0.006018572    1.677    0.404
        44 -12.6891    215.5221    168.4546   9.7685286209e+01   4.0376392877e+00    0.4603027     0.366727 -75.83  0.002310653    1.731    0.422
        45 -13.7184    122.3356    208.5545   1.2497231553e+02   1.4254699048e+01    0.5785543    0.4706517 -47.46  0.002701377    1.429    0.300
        46 -12.3496    201.7326    166.5826   1.0000956376e+02   7.1935167826e+00      0.35964    0.2448389 -65.48  0.001573694    2.044    0.511
        47 -12.9868    197.8671    163.6962   1.0017019370e+02   8.5659719999e+00    0.5468352    0.3051004  29.04  0.002123975    2.390    0.582
        48 -13.7472    174.4220    154.6165   1.0314021500e+02   1.5460180362e+01    0.8689243    0.3630513  54.57  0.002847532    2.938    0.660
        49 -12.3881    177.1019    165.8485   1.0501715678e+02   1.2510797810e+01    0.3338461    0.2848967  70.08 0.0009330159    1.300    0.231
        50 -13.9192    179.9481    160.4353   1.0322526103e+02   1.3036252265e+01    0.6583169    0.5195931  13.36  0.003130616    1.582    0.368
        51 -12.9218    204.7045    161.3940   9.8284914833e+01   7.5929169604e+00    0.4192498    0.2741905 -49.01  0.001708581    1.585    0.369
        52 -11.2325     59.5437    159.5898   1.3187788704e+02   3.5455646764e+01    0.3178422    0.2157776 -86.54  0.001647177    1.470    0.320
        53 -13.5908    160.4442    186.6665   1.1290075804e+02   1.1592354283e+01    0.4726641    0.3740903  22.79  0.002381413    1.457    0.314
        54 -13.3289    118.2443    142.5428   1.1381597339e+02   3.0002123157e+01    0.4705211    0.3701923 -34.26  0.002286647    1.446    0.309
        55 -14.1983    127.5101    151.4421   1.1342254799e+02   2.6095461121e+01     0.935019    0.6337192 -17.69  0.003403743    2.559    0.609
        56 -15.0672    118.5846    154.1317   1.1619438005e+02   2.7210694375e+01     1.219112     0.845576  62.03  0.005599979    1.604    0.377
        57 -14.8954    105.2227    142.2896   1.1711201541e+02   3.2504944640e+01     1.115331    0.9084731  60.48  0.005292793    1.282    0.220
        58 -11.6150     18.2346    153.9086   1.4098909948e+02   4.1274511898e+01    0.3028989    0.1655405 -85.29  0.001473728    1.665    0.399
        59 -11.8390    101.0987    157.8155   1.2127566787e+02   2.9538349684e+01    0.2344517    0.1929042  75.86  0.001111977    1.248    0.199
        60 -11.9202    157.7518    212.5041   1.1811389019e+02   6.9280187336e+00    0.4711511    0.3230221  77.91  0.002199195    2.131    0.531
        61 -12.3307    163.6891    148.6623   1.0419755913e+02   1.9093212774e+01    0.4707091    0.2965953 -70.81  0.001793333    2.370    0.578
        62 -12.3861    167.8398    150.8377   1.0375296445e+02   1.7710070808e+01    0.3865135    0.2841278 -57.78  0.001377195    1.450    0.310
        63 -12.9841    166.4688    144.7563   1.0266843778e+02   1.9332918994e+01      1.01859    0.6216779  87.11  0.003124126    3.981    0.749
        64 -13.9611    175.7512    148.2745   1.0141085315e+02   1.6520620987e+01    0.9001828    0.5915017  86.12  0.003317878    2.759    0.638
        65 -12.5030    190.4688    146.5540   9.7862941477e+01   1.3629763465e+01    0.5266135    0.1522876  49.86  0.001518494    3.704    0.730
        66 -11.5620     89.9843    144.7820   1.2159008687e+02   3.4538694996e+01    0.2829939    0.1960637  60.81  0.001356833    1.619    0.382
        67 -12.1091    204.5539    195.5527   1.0539786630e+02   1.1806460148e+00    0.4186021    0.2537022 -39.73  0.002008978    1.697    0.411
        68 -11.9810    208.3095    141.6691   9.3143083293e+01   1.0705803112e+01    0.3139811    0.2244027   4.42  0.001348897    2.102    0.524
        69 -13.9623    176.8376    139.1082   9.9037184881e+01   1.8228838820e+01    0.6808212    0.5031468  66.20  0.002640541    1.561    0.360
        70 -12.7263    116.4533    137.8361   1.1322982580e+02   3.1453555592e+01    0.4044364    0.3198251 -15.26  0.001903768    1.711    0.415
        71 -12.2993    203.8008    138.2792   9.3240069134e+01   1.2363286437e+01    0.3615233    0.2025259 -40.22   0.00150424    1.736    0.424
        72 -13.8470    188.6571    136.1305   9.5805216168e+01   1.6183509419e+01    0.5448917    0.4756875  15.34  0.002744775    1.321    0.243
        73 -14.0399    104.2068    148.7927   1.1872228806e+02   3.1140223215e+01    0.7993706    0.5937408  41.43  0.003728812    1.411    0.291
        74 -12.5865    114.8309    130.3904   1.1194736454e+02   3.3506397524e+01    0.3727753    0.3086104 -24.50  0.001763896    1.427    0.299
        75 -11.1488    106.8646    125.1328   1.1283398251e+02   3.6239641605e+01    0.2029632    0.1799197 -16.62 0.0005150706    1.304    0.233
        76 -14.2368    205.4781    186.4689   1.0340889961e+02   2.6580409287e+00    0.8161811    0.7096087  47.97  0.004456146    1.204    0.170
        77 -15.3352    182.8420    112.1719   9.1133669337e+01   2.2429916930e+01     1.513784     1.260714 -46.60  0.007515958    1.178    0.151
        78 -11.3531    218.3086    117.4963   8.5634275352e+01   1.3180064077e+01    0.3063176    0.2349852  -6.91  0.001443266    1.767    0.434
        79 -11.9649    104.6440    117.4306   1.1158261232e+02   3.8424136957e+01    0.4529609    0.2094938 -40.05  0.001671382    2.394    0.582
        80 -13.8277     47.4395    104.5718   1.2528292807e+02   4.9834089624e+01    0.5336156    0.3554116 -39.28  0.002942663    1.465    0.317
        81 -13.6124     51.5015     96.2443   1.2215291917e+02   5.1223291416e+01    0.8979166    0.3184764 -56.55  0.003597821    2.494    0.599
        82 -13.7677     42.8363    111.1416   1.2801491680e+02   4.8840859045e+01       1.4208    0.6356506  36.80  0.006658731    2.532    0.605
        83 -13.5377    191.0247    108.2051   8.8471725500e+01   2.1276611630e+01    0.9562892     0.604359 -61.39  0.003957829    1.912    0.477
        84 -11.5844    242.3614    108.4239   7.9584103919e+01   9.6164826542e+00    0.2740049    0.2223691 -37.59  0.001505281    1.171    0.146
        85 -12.3671    102.2762    107.1126   1.0963390871e+02   4.1181300298e+01    0.4152673    0.2167953  50.46  0.001674975    2.202    0.546
        86 -10.3771    200.6337    122.3091   9.0069144096e+01   1.6251844051e+01     0.161103    0.1199693 -81.26 0.0007037586    1.755    0.430
        87 -12.9499    121.7055    187.5778   1.2173299840e+02   1.8912388829e+01    0.4661848     0.239231  54.89  0.001913687    2.087    0.521
        88 -14.4418    150.0201    210.0607   1.1932881766e+02   8.8564356878e+00     1.016275    0.6458001  43.33  0.005036248    1.436    0.304
        89 -11.4167    103.3961    128.7279   1.1460550207e+02   3.6038380712e+01    0.2182845    0.1338074 -44.43 0.0009318174    1.627    0.385
        90 -13.1762     20.3593     92.6092   1.3120521532e+02   5.4974971086e+01     1.559692     0.613961 -62.07  0.007447022    2.059    0.514
        91 -13.0167     20.9375     68.7944   1.2572215148e+02   5.9873040915e+01     1.406477     0.816182 -25.95  0.008162064    1.799    0.444
        92 -12.1558    209.7261     93.5091   8.1343323828e+01   1.9610898608e+01    0.4603355    0.3058861 -62.65  0.002075801    1.689    0.408
        93 -11.4351    247.8692    192.1085   9.6581428102e+01  -5.9813911967e+00     0.193126     0.181059 -33.33  0.001166605    1.253    0.202
        94 -11.2491     95.7196     91.7505   1.0737428710e+02   4.5674677164e+01    0.2524104    0.1710034 -43.26 0.0005627124    1.401    0.286
        95 -11.7704    181.2868    189.0107   1.0887738278e+02   6.9422413272e+00    0.1999189    0.1897482 -40.47 0.0004641135    1.103    0.093
        96 -14.0169    104.0454     86.0101   1.0330564743e+02   4.5308580073e+01    0.7105031    0.6196199 -32.61  0.003088809    1.110    0.099
        97 -13.3786    104.5466     75.4320   9.9994449085e+01   4.7259710880e+01    0.5777305    0.4985135  39.70   0.00291196    1.178    0.151
        98 -11.7596    206.4596    229.1996   1.1120397751e+02  -4.8082045553e+00    0.4459758    0.2466545  20.35  0.002021325    2.358    0.576
        99 -12.0615    196.2217     93.1134   8.3648017168e+01   2.2905201088e+01    0.4482754    0.2278684 -32.50  0.001721399    2.209    0.547
       100 -16.5123    150.0266    131.2899   1.0329874884e+02   2.5948071544e+01     3.020684     1.672885  52.66   0.01192395    1.904    0.475
       101 -12.5861    177.0690     64.5814   7.9657175079e+01   3.2564323607e+01     0.567395    0.3891602  72.57  0.002670727    1.539    0.350
       102 -13.6710     51.6673     47.0158   1.0788102901e+02   6.0772505710e+01     1.012279    0.5479512 -20.67  0.005015968    2.170    0.539
       103 -12.7738    123.3302    228.2480   1.2759317656e+02   1.0109349772e+01     0.355794    0.2932032  60.46  0.002165808    1.048    0.046
       104 -12.7063     12.3856    228.3617   1.4844233784e+02   2.5704720245e+01    0.5907047    0.2942587  52.02  0.003730559    1.713    0.416
       105 -12.6045    249.5830     46.8224   6.5072105284e+01   1.8039087438e+01    0.7205984    0.2256915 -35.33   0.00272483    3.213    0.689
       106 -13.7889     49.0125     83.5332   1.1982288713e+02   5.4225713476e+01    0.7001788     0.483655 -64.03   0.00362349    1.567    0.362
       107 -11.2770    113.0025     42.9191   8.7101580290e+01   5.0842851278e+01    0.2188472    0.1957215  26.85  0.000968596    1.028    0.027
       108 -12.1292    125.2580     41.1617   8.3481447475e+01   4.8412099937e+01    0.4650219    0.2771839  67.84  0.002110354    2.060    0.515
       109 -12.2387     55.1953    226.5573   1.4071219261e+02   2.0999283530e+01    0.3813708    0.2051456  49.95  0.002160459    1.624    0.384
       110 -11.7544    151.5280    219.6790   1.2057462905e+02   6.7137905940e+00    0.3275008    0.2556266  68.43  0.001811938    1.391    0.281
