#   1 NUMBER                 Running object number                                     
#   2 MAG_AUTO               Kron-like elliptical aperture magnitude                    [mag]
#   3 X_IMAGE                Object position along x                                    [pixel]
#   4 Y_IMAGE                Object position along y                                    [pixel]
#   5 X_WORLD                Barycenter position along world x axis                     [deg]
#   6 Y_WORLD                Barycenter position along world y axis                     [deg]
#   7 A_WORLD                Profile RMS along major axis (world units)                 [deg]
#   8 B_WORLD                Profile RMS along minor axis (world units)                 [deg]
#   9 THETA_WORLD            Position angle (CCW/world-x)                               [deg]
#  10 FWHM_WORLD             FWHM assuming a gaussian core                              [deg]
#  11 ELONGATION             A_IMAGE/B_IMAGE                                           
#  12 ELLIPTICITY            1 - B_IMAGE/A_IMAGE                                       
         1 -12.6764     48.2359     74.3778   8.3980842451e+01   5.7532736596e+01    0.8376184    0.5001271 -43.04  0.003769898    1.745    0.427
         2 -10.3857     21.7389     17.4379   8.0925741291e+01   7.4062922578e+01    0.1754719    0.1204647   1.48 0.0004574615    1.518    0.341
         3 -12.2955     94.7970    229.4818   9.1561178244e+01   1.7364387501e+01    0.3249564    0.2661466  65.07  0.001625562    1.453    0.312
         4 -11.4798    105.3340    223.9254   8.8746006326e+01   1.6955693017e+01    0.3303131     0.248934  77.08  0.002163001    1.875    0.467
         5 -11.7769    110.9637    222.0023   8.7318603925e+01   1.6550425376e+01    0.3151689    0.2662476  70.27  0.001634401    1.543    0.352
         6 -13.1613      2.4067    204.8278   1.1100467752e+02   3.0969319511e+01    0.7464048    0.3182547 -81.65  0.004023081    2.504    0.601
         7 -11.9502     10.1991    201.6396   1.0915766622e+02   3.0991889232e+01    0.4332703    0.1868154  56.11  0.001681603    1.845    0.458
         8 -12.4335     14.0678    198.6556   1.0817018704e+02   3.1265632385e+01    0.6609142     0.243029  81.62  0.003186913    2.909    0.656
         9 -12.9591      7.3143    194.8086   1.0965902734e+02   3.2540132447e+01    0.6892862    0.2431681  43.95  0.003611491    1.967    0.492
        10 -13.7672      6.8192    214.4022   1.1021377713e+02   2.8865688488e+01    0.7992814     0.566119 -63.37    0.0057238    1.842    0.457
        11 -12.4803     13.1742    208.2946   1.0865561135e+02   2.9495100197e+01    0.4490853     0.207583  47.69  0.001701524    1.583    0.368
        12 -12.7385     21.8569    216.1533   1.0694883592e+02   2.7323908687e+01    0.4754542    0.2579875  45.80  0.001649857    1.353    0.261
        13 -10.2894    169.4994    215.4800   7.4246595102e+01   9.7892434071e+00    0.1722325    0.1171908 -54.13  0.001033901    2.421    0.587
        14 -10.4088    149.3960    198.2328   7.5945222119e+01   1.5049491291e+01    0.1493775    0.1246241 -58.96 0.0005796861    1.725    0.420
        15 -10.7715     94.7086    185.9799   8.7121811932e+01   2.5005377393e+01    0.2675734    0.1602426 -85.67  0.001268779    2.660    0.624
        16 -10.3139    156.2367    186.2946   7.2654304222e+01   1.5903688211e+01    0.1717284    0.1092723 -56.01 0.0007583154    2.346    0.574
        17 -10.7363    109.4844    185.6187   8.3396206483e+01   2.2998845684e+01    0.2585726    0.1690704  65.84  0.001292119    2.195    0.545
        18 -10.1596    147.6815    180.3390   7.3588025192e+01   1.8178980914e+01    0.1263175   0.09911074  57.65 0.0007049345    1.709    0.415
        19 -10.2754    159.4960    175.0073   7.0086912880e+01   1.7201605742e+01      0.15983    0.1213821 -75.87  0.000810254    2.530    0.605
        20 -10.3121     76.6683    175.3267   9.0571977536e+01   2.9552291922e+01    0.1430414   0.08591846  55.08  0.000705126    1.711    0.416
        21 -10.0854    138.4937    164.4996   7.3068849611e+01   2.2409166357e+01    0.1388757    0.1197925  26.83  0.000810321    1.041    0.039
        22 -11.5449     92.8702    157.8430   8.3852534717e+01   3.1005366828e+01    0.4684904    0.3337781 -62.28  0.002478664    1.599    0.375
        23 -10.2966    105.3177    157.6581   8.0394603062e+01   2.9136148560e+01    0.1452822    0.1021708  61.11 0.0007049051    1.714    0.417
        24 -12.8186     83.3614    153.7080   8.5953528842e+01   3.3297837193e+01    0.6428558    0.5648035  30.00  0.002673879    1.074    0.069
        25 -12.0063    119.4496    154.7941   7.6143956631e+01   2.7429751565e+01    0.3776477    0.3081648  76.73  0.001261303    1.619    0.382
        26 -10.9615    107.3417    145.1883   7.7722075198e+01   3.1435951989e+01    0.4164155    0.2363071  65.07  0.001535419    3.159    0.683
        27 -10.4216    148.7815    145.1815   6.6989895421e+01   2.4161135959e+01    0.2274178    0.1602063  77.06 0.0009567872    2.857    0.650
        28 -11.5985    126.0817    143.3648   7.2292923697e+01   2.8585092715e+01    0.4893438    0.3283789  77.83  0.001987727    2.895    0.655
        29 -10.9481     22.7178    137.1528   1.0289139837e+02   4.4064085340e+01    0.3910012    0.1064299  60.26  0.001152262    5.043    0.802
        30 -11.6392    131.9947    129.6398   6.7916753432e+01   3.0258474521e+01    0.6493807    0.2826461 -53.03  0.002381375    2.856    0.650
        31 -10.3855     83.4241    132.1471   8.2518229818e+01   3.8208228665e+01    0.2947169    0.1675381  59.69  0.001196086    2.272    0.560
        32 -12.1951      4.0829    130.3762   1.0853798164e+02   4.6938556316e+01    0.4113585    0.2613796  28.02  0.002349559    1.532    0.347
        33 -11.8426     98.4246    125.7258   7.6633545535e+01   3.7241350968e+01    0.6589737    0.3792528 -74.20  0.002540255    2.728    0.633
        34 -11.8890    102.2987    121.5287   7.4575151667e+01   3.7509998212e+01    0.7756958    0.4159829  40.71  0.002069488    1.734    0.423
        35 -13.1979     55.4623    121.5886   9.0111567970e+01   4.4655692836e+01    0.5992446    0.5150388 -43.60 0.0009862266    1.274    0.215
        36 -11.3316     43.0790    121.5944   9.4484366659e+01   4.6061500882e+01    0.6932446    0.2895512  87.30  0.002309967    3.778    0.735
        37 -11.2301     28.2310    121.9433   9.9786470598e+01   4.7369539042e+01    0.5611318    0.2029168  68.29  0.001804779    4.147    0.759
        38 -11.1340     70.1727    118.7344   8.4511744501e+01   4.3400224606e+01    0.3986943    0.2214101  67.63  0.001494058    2.731    0.634
        39 -12.2146      2.1953    113.9251   1.0848761239e+02   5.1056263294e+01    0.7215455     0.183014 -89.85  0.002435909    3.910    0.744
        40 -10.6554    108.6239    113.0436   7.0751005329e+01   3.8237402153e+01    0.5523489    0.2646805 -68.05  0.001543244    4.927    0.797
        41 -11.6360     92.2115    110.9193   7.5455337655e+01   4.1739669115e+01    0.8151652    0.3054286 -62.69  0.002434772    3.987    0.749
        42 -10.9795     78.5849    112.0213   8.0304471662e+01   4.3763352240e+01    0.4768895    0.2677528 -83.89  0.001710311    3.060    0.673
        43 -11.2167     66.1288    109.6249   8.4258268610e+01   4.6229608140e+01    0.4340086    0.1800103 -72.86  0.001420283    3.433    0.709
        44 -10.9353     13.8359    109.9780   1.0400365499e+02   5.1429355607e+01    0.3973256    0.1621056  89.29  0.001630408    2.496    0.599
        45 -10.1440    139.7543    105.0008   6.0064109858e+01   3.3581600561e+01    0.2655738    0.1692216  78.92 0.0008931885    3.576    0.720
        46 -11.9726     45.2575    101.7888   9.0808838265e+01   5.0868165546e+01    0.8001529    0.3161294  60.81  0.002269299    4.934    0.797
        47 -11.0405      6.4148    102.1357   1.0629446129e+02   5.3818622614e+01    0.3138492    0.1050133  84.37  0.001143018    3.177    0.685
        48 -11.2827     21.3596    100.2220   1.0020469220e+02   5.3435065608e+01    0.4747544    0.1879241  68.17  0.001677862    3.381    0.704
        49 -13.1133     84.9196     90.9504   7.3123135226e+01   4.7743441827e+01     1.262573    0.5361207 -41.84  0.001694214    2.765    0.638
        50 -11.1734    109.2037     99.1415   6.7125940008e+01   4.1188692598e+01    0.5927599    0.3461047  65.65  0.002081696    2.936    0.659
        51 -11.4410     63.9260     96.3376   8.2379484911e+01   4.9865579125e+01    0.5895503    0.3188844  67.76   0.00204552    3.217    0.689
        52 -11.0557     34.4488     88.5058   9.3118888271e+01   5.5408521783e+01    0.6446563    0.2334468 -84.18  0.001932984    4.344    0.770
        53 -11.3093    124.8816     86.1181   5.8865404323e+01   4.0567912958e+01    0.6986377    0.2852961 -31.01  0.002079459    3.757    0.734
        54 -10.3968    161.6580     87.3231   5.0226112673e+01   3.1975572412e+01    0.1502302    0.1179306 -76.30 0.0007050679    1.728    0.421
        55 -11.0048    132.5281     86.4569   5.6883033729e+01   3.8775001812e+01    0.2704075    0.2524553  65.47  0.000455069    1.136    0.120
        56 -11.2570    135.4037     83.8000   5.5359133746e+01   3.8626007635e+01     0.375257    0.2951241 -27.96  0.001195733    1.352    0.260
        57 -11.2042     48.7819     84.4060   8.6049051666e+01   5.4918598879e+01    0.5912519    0.2806621  63.43  0.001879624    3.932    0.746
        58 -10.9143    104.7270     83.2465   6.4107550616e+01   4.5576816042e+01    0.3625358    0.2282102 -70.43  0.001359815    2.567    0.610
        59 -11.6841    158.9600     78.9631   4.8452479017e+01   3.4006475354e+01    0.6041469     0.374467 -12.34  0.002433396    2.283    0.562
        60 -11.0541     74.7100     80.7234   7.4225564958e+01   5.1983386447e+01    0.3050894    0.1933071 -81.17  0.001178962    2.502    0.600
        61 -11.4417     23.9971     79.3309   9.6399892215e+01   5.8667801330e+01    0.4957473    0.2118859  85.53  0.001762281    3.259    0.693
        62 -11.4566     88.1709    231.3499   9.3155967785e+01   1.7852113314e+01    0.4386822     0.153394  39.77  0.002156918    2.080    0.519
        63 -11.7807     62.9267     67.0265   7.5181462543e+01   5.7227847210e+01    0.8654204    0.1417337 -50.07   0.00213804    5.283    0.811
        64 -11.3139    151.0827     79.4526   5.0307815813e+01   3.5765820955e+01     0.345926    0.2005699 -40.79  0.001478345    1.747    0.428
        65 -10.6695     73.0000     59.0510   6.8080757914e+01   5.7302969748e+01      0.24934   0.08621718 -49.13 0.0008030842    2.947    0.661
        66 -12.6571     90.5423     96.1264   7.2470964742e+01   4.5499036238e+01     0.478665    0.4568018  71.84  0.001396477    1.094    0.086
        67 -10.3191      9.3285     80.6666   1.0339164767e+02   5.9190486793e+01    0.1434198   0.08662365  56.60 0.0004499996    1.720    0.419
        68 -11.1422    149.2947     51.9772   4.2180396573e+01   4.0691188356e+01    0.2613635    0.2338816  88.69 0.0005106166    1.175    0.149
        69 -10.2788     30.5325     51.5034   8.7201241477e+01   6.5236672232e+01    0.1367624     0.130376 -47.35 0.0003109038    1.032    0.031
        70 -11.2210    116.9719     39.9238   4.5323041134e+01   5.0862196130e+01    0.3172592    0.2112953  56.29 0.0004338937    1.424    0.298
        71 -13.5118     81.6079     35.1314   5.4743936001e+01   6.0316482435e+01    0.4148488    0.4096254  62.65 0.0008341917    1.094    0.086
        72 -11.5481     31.6133     35.4420   8.1324342503e+01   6.8985825083e+01    0.5066479    0.2380328  17.59  0.002103576    2.403    0.584
        73 -10.2549    119.0969     32.9354   4.2013590731e+01   5.1349903056e+01    0.2312972    0.2016071 -68.88 0.0007131723    1.253    0.202
        74 -11.5027     26.8742     30.2469   8.2558491364e+01   7.0685179238e+01    0.4920053    0.1005685 -48.16  0.001523839    3.953    0.747
        75 -10.8492     59.8995     27.8411   6.1011215634e+01   6.6226357767e+01    0.2347776    0.2062826 -27.96 0.0004928986    1.145    0.127
        76  -9.6408    236.4930     26.4619   2.4056539037e+01   2.3566935719e+01     0.119452     0.102601 -40.78 8.012001e-05    1.035    0.034
        77 -11.2277     54.2229     21.8143   6.0859603089e+01   6.8418777723e+01     0.325018    0.2581292  14.71   0.00081816    1.298    0.229
        78 -10.4657     49.4143     21.2316   6.3292811032e+01   6.9408340965e+01    0.2321369    0.1766387  58.90  0.000781179    1.695    0.410
        79 -10.4105     36.9713     22.6361   7.2012846430e+01   7.1126376387e+01    0.1949358    0.1629905  19.55 0.0005035104    1.167    0.143
