#   1 NUMBER                 Running object number                                     
#   2 MAG_AUTO               Kron-like elliptical aperture magnitude                    [mag]
#   3 X_IMAGE                Object position along x                                    [pixel]
#   4 Y_IMAGE                Object position along y                                    [pixel]
#   5 X_WORLD                Barycenter position along world x axis                     [deg]
#   6 Y_WORLD                Barycenter position along world y axis                     [deg]
#   7 A_WORLD                Profile RMS along major axis (world units)                 [deg]
#   8 B_WORLD                Profile RMS along minor axis (world units)                 [deg]
#   9 THETA_WORLD            Position angle (CCW/world-x)                               [deg]
#  10 FWHM_WORLD             FWHM assuming a gaussian core                              [deg]
#  11 ELONGATION             A_IMAGE/B_IMAGE                                           
#  12 ELLIPTICITY            1 - B_IMAGE/A_IMAGE                                       
         1 -14.4495    166.5032     38.5726   2.9008894562e+02   6.3854521884e+00   0.06470585   0.04451593 -43.09  0.004391433    1.553    0.356
         2 -13.9339    181.2542      6.3228   2.8972894976e+02   6.6751068306e+00   0.04818882   0.04161311  19.36  0.004075355    1.099    0.090
         3 -13.4061    175.0180    193.8389   2.9082672017e+02   4.5322208766e+00   0.02911622   0.02133222  86.96  0.002929777    1.668    0.401
         4 -18.9879     73.4619    239.3381   2.9233861281e+02   4.5824521055e+00    0.4306232    0.4034844   5.07   0.04260153    1.055    0.052
         5 -13.4011    167.5550    191.1118   2.9090492801e+02   4.6066167462e+00   0.02845029   0.02120119  54.73   0.00304803    1.447    0.309
         6 -12.4562    180.4203    192.7414   2.9075346044e+02   4.5140784207e+00   0.01919987   0.01389133  66.41  0.001292715    1.644    0.392
         7 -12.7889    176.5202    188.1543   2.9077717447e+02   4.5897287856e+00   0.02381734   0.01552276 -87.42  0.002290776    1.971    0.493
         8 -10.3767    219.9934    226.4839   2.9044372203e+02   3.8953376037e+00   0.01176955  0.007312139 -76.62 0.0008516925    1.914    0.477
         9 -10.5190    138.0483    198.3613   2.9131198035e+02   4.6909332227e+00   0.02576673  0.008194523  43.06  0.001758307    3.298    0.697
        10 -10.4283    110.0926    223.0766   2.9179418533e+02   4.5629595155e+00  0.009906258  0.009311602  30.26 0.0004067853    1.023    0.023
        11 -10.1374     20.6520    219.1923   2.9288852937e+02   5.1171032633e+00  0.008258344  0.008132123 -45.17 0.0004417199    1.077    0.071
        12 -10.1608     32.2969    188.2847   2.9257664177e+02   5.4106754910e+00   0.01155475  0.008784119   3.34 0.0005012745    1.396    0.284
        13 -11.8096     16.6923    217.4256   2.9292840521e+02   5.1601407736e+00   0.01293139   0.00998454 -34.53 0.0009386063    1.401    0.286
        14 -12.5223     28.0887    183.9909   2.9260599641e+02   5.4845496936e+00   0.01595514   0.01198021  18.07 0.0007090637    1.289    0.224
        15 -11.5711    116.1950    179.7032   2.9148344863e+02   5.0327423201e+00   0.03504492   0.01338232  53.07  0.002196319    4.319    0.768
        16 -12.9941    205.5042    180.4697   2.9037440423e+02   4.5131631203e+00   0.02759396   0.01887834  24.79  0.001915791    1.369    0.270
        17 -12.6537    208.6809    178.3298   2.9032322212e+02   4.5198413006e+00   0.02070333   0.01887623   2.19  0.001882305    1.095    0.087
        18  -9.8833    108.5061    182.4734   2.9159435156e+02   5.0443891769e+00  0.006853661  0.006382629  29.00 2.832462e-07    1.020    0.020
        19 -11.5367    196.6798    175.3650   2.9045660586e+02   4.6230399394e+00   0.02154887   0.01160898  54.53 0.0009150715    2.279    0.561
        20 -12.7782    196.4854    171.4088   2.9043754832e+02   4.6701445606e+00   0.02719312   0.02133674 -85.70  0.001413226    1.472    0.321
        21 -10.1851    116.1789    211.8722   2.9165773421e+02   4.6585961332e+00    0.0184617  0.008102969  53.32  0.001343177    3.157    0.683
        22 -13.0537    138.2563    171.1773   2.9116210901e+02   5.0059339442e+00   0.03079558   0.02386278  61.54  0.003358329    1.441    0.306
        23 -11.3223    126.0300    172.2360   2.9132033144e+02   5.0634563351e+00   0.01466605   0.01039957 -67.42  0.001288539    1.523    0.343
        24 -12.6281    144.9073    168.6525   2.9106548053e+02   4.9972909006e+00   0.02622289   0.01645895  70.62  0.002412576    2.170    0.539
        25 -11.9949    113.1227    169.7533   2.9146789036e+02   5.1660227599e+00    0.0200976   0.01512727 -32.81  0.001190755    1.456    0.313
        26 -11.8306    109.9271    208.6535   2.9171827124e+02   4.7317038518e+00   0.01874458   0.01802476 -12.52  0.002059544    1.066    0.062
        27  -8.4507     15.5202    238.0241   2.9305389531e+02   4.9270602069e+00   0.01191087  0.007597989  40.61 0.0007598443    1.509    0.337
        28 -11.2970    158.7876    204.4589   2.9108652040e+02   4.5015198523e+00   0.01812233  0.007927405  42.32  0.001482605    2.267    0.559
        29 -10.8816    223.8443    163.8567   2.9005576474e+02   4.6011621352e+00   0.01159762  0.009915417  74.75 0.0004745409    1.309    0.236
        30 -10.8855    130.1818    161.4844   2.9121027760e+02   5.1648008506e+00   0.01081784  0.008799726  57.17 0.0005161502    1.315    0.240
        31 -10.6170     34.3615    168.3986   2.9244353672e+02   5.6303601670e+00   0.01131048   0.01045172  21.10 0.0002478626    1.019    0.019
        32 -10.2877    237.6807    159.3207   2.8985884215e+02   4.5745303680e+00  0.007244842  0.004885965  55.66 0.0004410491    1.667    0.400
        33 -11.6860    164.3617    156.7241   2.9075819320e+02   5.0247552750e+00   0.01317164   0.01168499 -16.00 0.0008019862    1.177    0.151
        34 -10.5834     15.2825    157.0778   2.9262064132e+02   5.8704502537e+00    0.0114749  0.008949867   5.92 0.0005335483    1.326    0.246
        35 -13.7559    133.9940    145.6415   2.9107680952e+02   5.3272759059e+00   0.05695789   0.02133693 -74.87  0.003765772    4.107    0.756
        36 -11.6442    128.1208    143.3100   2.9113744194e+02   5.3879496900e+00   0.01460416  0.009272636   7.78  0.001145149    1.755    0.430
        37 -12.1533    163.5383    203.7238   2.9102334046e+02   4.4829132774e+00   0.01601373   0.01304984 -78.02 0.0009215985    1.365    0.268
        38 -11.1680    151.5443    150.0775   2.9088195315e+02   5.1753590330e+00   0.01272029  0.008447251  40.45  0.000371926    1.448    0.309
        39 -11.0562    174.3725    149.1921   2.9059249247e+02   5.0550372249e+00   0.01558203  0.008874179  26.52  0.001092213    1.625    0.384
        40 -13.3380    144.5777    145.8574   2.9094594709e+02   5.2642677742e+00   0.03159665   0.01987484  73.56  0.002903421    2.198    0.545
        41 -13.0102      6.9522    139.3221   2.9262883140e+02   6.1243172556e+00   0.03127258   0.02208508  22.17   0.00330137    1.343    0.256
        42 -12.2037    161.3452    198.7498   2.9102371463e+02   4.5532968566e+00    0.0213549   0.00951963  49.02  0.001494034    2.638    0.621
        43 -13.5028    135.8173    125.1350   2.9094277985e+02   5.5553120673e+00   0.04903354   0.01527789 -68.62    0.0032373    3.953    0.747
        44 -12.4912      2.7169    125.7874   2.9260865331e+02   6.3058042044e+00   0.02278092   0.01404612 -56.40  0.002261257    1.668    0.400
        45 -11.6568    160.7700    127.9508   2.9064675015e+02   5.3798421154e+00   0.01627672   0.01213697  59.97  0.001727247    1.505    0.336
        46 -11.8732     18.6141    128.7489   2.9242601689e+02   6.1811401544e+00   0.01541213   0.01044998 -27.51  0.001531674    1.731    0.422
        47 -11.3449    168.9903    114.6954   2.9047218591e+02   5.4868661767e+00   0.02299669   0.01345011  68.76  0.001364292    2.477    0.596
        48 -12.2195      4.6380    120.4739   2.9255594210e+02   6.3567187312e+00   0.02598456   0.01409681  15.79  0.002326694    1.945    0.486
        49 -12.2181      4.2796    112.2942   2.9251621931e+02   6.4538994008e+00   0.02775989   0.01438203  10.88  0.002334941    2.288    0.563
        50 -11.3157    169.0873    202.6560   2.9094841351e+02   4.4636071721e+00   0.01090295  0.009456877  80.05 0.0003314702    1.289    0.224
        51 -12.1652     84.6590    110.2408   2.9150070403e+02   6.0206066779e+00   0.01254054  0.009994971  19.14  0.001393976    1.200    0.167
        52 -10.4465    205.6472    110.1072   2.8999015989e+02   5.3300911643e+00   0.01305973  0.009776215  14.10 0.0006505534    1.330    0.248
        53 -12.2137    117.9622    108.6159   2.9107597990e+02   5.8494200073e+00   0.01479472  0.009620838 -51.99    0.0014948    1.592    0.372
        54 -18.7881     61.9410    100.6116   2.9173233565e+02   6.2620408748e+00    0.8224917   0.04073088 -65.17   0.02269096   22.249    0.955
        55 -10.8088     17.9421    109.0000   2.9232764142e+02   6.4146794324e+00   0.01149304  0.003698694  24.54 0.0007984994    2.915    0.657
        56 -11.6079     23.8399    231.2504   2.9291370292e+02   4.9586703822e+00   0.01917086   0.01197337  31.59  0.001445539    1.470    0.320
        57 -10.9567    101.2682     98.2987   2.9122845476e+02   6.0647052575e+00   0.01506749  0.008643802  55.37  0.001347944    2.099    0.524
        58 -10.7947     41.5464     91.8172   2.9193958286e+02   6.4803716549e+00   0.01272172  0.008997754  22.93  0.000521066    1.335    0.251
        59 -10.1071     98.8240     80.8388   2.9116419752e+02   6.2816284580e+00  0.009971489  0.008940573  -3.93    0.0004408    1.136    0.119
        60  -9.9963     13.5122     59.9085   2.9211729556e+02   7.0106220119e+00  0.009575934  0.006855832 -66.59 0.0004519292    1.501    0.334
        61 -13.9200    154.6429     54.0000   2.9032105238e+02   6.2742731563e+00   0.04984134   0.03526069  11.52   0.00105324    1.455    0.313
        62 -10.3809     13.3071    244.9108   2.9311853113e+02   4.8594697140e+00   0.02028341  0.007016755 -52.08  0.001528074    2.853    0.650
        63 -12.3566    170.4183     30.9589   2.8999857550e+02   6.4513915548e+00   0.01885233   0.01605284 -41.64  0.000876976    1.234    0.190
        64 -10.5748    139.3249     31.9034   2.9039204706e+02   6.6186010439e+00   0.02117695  0.006545777  36.95  0.001525076    2.821    0.645
