#   1 NUMBER                 Running object number                                     
#   2 MAG_AUTO               Kron-like elliptical aperture magnitude                    [mag]
#   3 X_IMAGE                Object position along x                                    [pixel]
#   4 Y_IMAGE                Object position along y                                    [pixel]
#   5 X_WORLD                Barycenter position along world x axis                     [deg]
#   6 Y_WORLD                Barycenter position along world y axis                     [deg]
#   7 A_WORLD                Profile RMS along major axis (world units)                 [deg]
#   8 B_WORLD                Profile RMS along minor axis (world units)                 [deg]
#   9 THETA_WORLD            Position angle (CCW/world-x)                               [deg]
#  10 FWHM_WORLD             FWHM assuming a gaussian core                              [deg]
#  11 ELONGATION             A_IMAGE/B_IMAGE                                           
#  12 ELLIPTICITY            1 - B_IMAGE/A_IMAGE                                       
         1 -11.4188     14.7968     17.7578   7.5372210126e+01   6.9087427119e+01    0.3147325    0.1413436 -48.52 0.0004570272    1.678    0.404
         2 -10.3614     22.5167      5.7524   6.6932778231e+01   7.0431670592e+01    0.2775729    0.1589436  -8.00  0.001359286    1.974    0.493
         3  -9.8853     17.3061      5.1341   6.9108993600e+01   7.0975147603e+01    0.2577903   0.09104507 -37.68  0.001327734    2.200    0.545
         4  -8.9355      6.7019      3.2960   7.3466651693e+01   7.2050471438e+01    0.0883965   0.07798356 -55.24 0.0001698241    1.570    0.363
         5 -10.8705    113.7116    244.9886   8.9986819063e+01   1.1343675342e+01    0.4178907    0.3112085 -50.03  0.002201017    1.962    0.490
         6 -10.4849    169.7727    248.4828   8.1159622707e+01   1.9264948256e+00     0.263247    0.1858058  27.34  0.001754701    1.586    0.369
         7 -10.0231    163.1543    249.8824   8.2412792458e+01   2.8274609967e+00    0.1766686    0.1260202  57.40  0.001222905    1.255    0.203
         8  -9.6030    135.0408    250.3858   8.7056046425e+01   7.2638807567e+00    0.2736772     0.082409  45.17  0.001267789    2.497    0.600
         9 -10.0874     95.3064    249.8651   9.3349245824e+01   1.3327439803e+01    0.1883738      0.13892  51.48 0.0007697411    1.266    0.210
        10 -11.7474     91.3737    238.1432   9.2996830542e+01   1.5709928477e+01    0.5561325    0.2863666  68.07  0.003303372    1.862    0.463
        11 -11.4355    100.9375    244.7563   9.2026123267e+01   1.3286859035e+01    0.4543205    0.3132582 -85.30  0.002712865    1.529    0.346
        12 -10.9494    101.9777    226.9378   9.0204988910e+01   1.5969848116e+01    0.3271589    0.1733281  70.61 0.0008630704    2.053    0.513
        13 -11.4423     93.3032    224.8932   9.1486617870e+01   1.7607228573e+01    0.3790329    0.2585233  60.83  0.001600392    1.125    0.111
        14 -11.7734    104.1645    234.3022   9.0547200168e+01   1.4441231775e+01    0.3669473    0.2206955 -81.46  0.001193524    1.896    0.473
        15 -10.6212     82.2402    248.1061   9.5245628629e+01   1.5428750906e+01    0.3648227    0.1953727 -73.09   0.00231319    2.032    0.508
        16 -10.3675     77.7869    242.6302   9.5525465336e+01   1.6895049982e+01    0.2937579    0.1605313 -77.24  0.001953928    1.915    0.478
        17 -10.7522     98.8142    234.8003   9.1482066614e+01   1.5160491303e+01    0.2844603    0.2197087  58.35  0.001165027    1.136    0.120
        18 -11.2798     94.7645    231.7564   9.1876204507e+01   1.6250719468e+01    0.2585835    0.2177102 -83.50 0.0003967742    1.348    0.258
        19 -11.1759     90.3071    247.3470   9.3929081218e+01   1.4421133028e+01    0.3564598    0.2547636 -72.43  0.002700388    1.610    0.379
        20 -10.3201     86.8671    241.8899   9.4032793570e+01   1.5755646162e+01    0.1748778    0.1487626 -87.49 0.0004889361    1.385    0.278
        21  -9.5953     75.9520    250.4871   9.6385578578e+01   1.5915499051e+01    0.1465506   0.07801139  50.15 -2.140648e-05    1.445    0.308
        22  -9.7696     71.6383    250.1411   9.7016191865e+01   1.6542485719e+01    0.1625257    0.1140717  63.77 0.0005870883    1.058    0.054
        23 -16.2030     72.8075    199.5975   9.2676312883e+01   2.5079826417e+01       4.7142     3.829614  15.75    0.0302799    2.235    0.553
        24  -9.9895    134.0351    245.9722   8.6765552436e+01   8.0423173723e+00    0.1626835    0.1244193  30.85  0.000842893    1.640    0.390
        25  -8.8920    201.3088    245.6721   7.5598590988e+01  -2.9036969010e+00    0.1068649   0.08042994  62.59 0.0003877291    1.659    0.397
        26  -9.6956    128.0893    243.5108   8.7489572676e+01   9.3364635146e+00    0.1626534    0.1316004  65.52  0.000683093    1.123    0.110
        27  -9.6062    172.8163    243.3643   8.0028619814e+01   2.0757768461e+00    0.2499937    0.1151594  30.88  0.001142042    2.944    0.660
        28  -9.2434     70.9089    242.3471   9.6578189076e+01   1.7863880381e+01    0.1426557   0.09876868  61.50 0.0004193075    1.087    0.080
        29 -10.5909    159.6107    244.2012   8.2334228861e+01   4.1489630347e+00    0.1881994    0.1561822  22.10 0.0006452297    1.491    0.330
        30  -9.3432    144.6363    239.8723   8.4340281406e+01   7.2040422044e+00    0.2017444    0.1237429  42.84 0.0005824482    1.364    0.267
        31 -10.0681    217.1542    238.6830   7.2001617773e+01  -4.7057673782e+00    0.1772143     0.121071  49.42  0.000817136    1.439    0.305
        32 -10.5543    160.7260    238.9954   8.1522201658e+01   4.6666589051e+00    0.1588231    0.1323451  54.46 0.0008997886    1.107    0.096
        33  -9.6560    225.5482    228.4829   6.9069565865e+01  -4.9447177211e+00    0.2119922    0.1711002  31.24 0.0008337042    1.077    0.072
        34 -10.4050    231.2324    237.4433   6.9504326107e+01  -6.8419362360e+00    0.2646272    0.1625933  46.99  0.001084066    1.546    0.353
        35 -10.6731    227.2726    236.3183   6.9983380833e+01  -6.0882808941e+00     0.202246    0.1667409  17.65   0.00021781    1.145    0.127
        36 -10.6669    228.2039    232.9793   6.9322837729e+01  -5.8779512523e+00    0.2290077    0.1775809 -10.37 0.0004319901    1.431    0.301
        37 -11.2829    245.4965    235.0574   6.6824429796e+01  -8.8391336142e+00    0.3070109    0.2025769 -15.87  0.002067265    1.667    0.400
        38 -10.8410    188.5266    234.8829   7.6266006452e+01   5.1867510193e-01    0.2705761    0.1822514  55.93  0.001357673    1.486    0.327
        39 -10.0434    124.6853    235.6265   8.7237078653e+01   1.1053292517e+01    0.3038307    0.1854483  78.71  0.001787107    2.000    0.500
        40  -9.9918    122.7138    231.3315   8.7114600569e+01   1.2032125852e+01     0.181177    0.1221228  53.45 0.0005743575    1.149    0.129
        41 -10.9294    112.9072    235.7229   8.9225531645e+01   1.2883462274e+01    0.2742319    0.1462212  56.47  0.001641071    1.503    0.335
        42 -10.9130    176.4883    234.0923   7.8213218818e+01   2.6682583886e+00    0.4087456    0.1954036  37.65  0.001352289    1.867    0.464
        43 -10.1725    166.9743    235.2750   7.9995014549e+01   4.1243965159e+00    0.1724669    0.1257411  46.81 0.0005897883    1.061    0.057
        44  -9.5654    136.3875    234.9628   8.5181317791e+01   9.2681493071e+00    0.1660735    0.1122304 -60.34  0.001079221    1.823    0.451
        45  -8.9759    222.4742    234.4573   7.0495335128e+01  -5.1068011182e+00    0.1187675   0.08918388  30.28 0.0001479035    1.035    0.033
        46  -9.3956     81.2521    233.3399   9.4238344814e+01   1.7921813636e+01     0.168887    0.1401754 -73.52 0.0006227346    1.506    0.336
        47 -10.6010     82.4561    229.2572   9.3698855324e+01   1.8432323132e+01    0.3106954    0.1782093  38.54  0.001473665    1.979    0.495
        48  -9.9520    206.9248    231.8504   7.2711859294e+01  -2.2232078529e+00    0.2088782    0.1719886 -41.70  0.001160436    1.594    0.373
        49  -9.6328    150.6893    232.8859   8.2490701943e+01   7.2067255155e+00    0.1582851    0.1322975  59.88 0.0005885815    1.110    0.099
        50 -10.8503    237.0410    231.0626   6.7571629663e+01  -7.0965592331e+00    0.3640215    0.1419884  48.77   0.00170668    2.644    0.622
        51  -9.6111    168.2311    230.9724   7.9221499265e+01   4.5023964915e+00    0.1718718    0.1310765   5.83  0.001061982    1.942    0.485
        52  -9.8947    129.5918    229.3831   8.5718830786e+01   1.1227531096e+01    0.2326323    0.1672809 -75.54   0.00153716    1.626    0.385
        53 -11.0179    192.0381    229.6984   7.4938434290e+01   5.7972784561e-01    0.2061227    0.1738944 -39.32  0.000882476    1.505    0.336
        54 -13.6405      8.1624    163.4061   1.0164236133e+02   3.9478665696e+01     1.480394    0.9803295 -10.02  0.008533817    3.955    0.747
        55  -9.8947    118.1924    228.9420   8.7633912630e+01   1.3129534903e+01    0.1874405    0.1270793  68.72 0.0007660933    1.345    0.256
        56 -13.8384     13.4683    174.9828   1.0145820748e+02   3.6701343003e+01     1.509718    0.9577841 -40.04   0.00918704    3.106    0.678
        57 -11.0834    236.8024    226.1852   6.6836932560e+01  -6.5341365286e+00    0.2772977    0.2105045 -67.05  0.001310349    2.859    0.650
        58 -10.7186    208.8473    226.8068   7.1632338298e+01  -1.9402421437e+00    0.1975849    0.1611413  39.55 0.0002915499    1.105    0.095
        59 -10.5566    196.1468    226.9349   7.3830869203e+01   2.2599099944e-01     0.185124    0.1509673  56.97  0.001246753    1.326    0.246
        60 -14.0481     51.6007    247.0596   9.9818734384e+01   1.9570994739e+01     1.825677    0.8724242  39.47   0.01143176    2.346    0.574
        61 -13.3922     22.9659    218.0422   1.0249161761e+02   2.7699332380e+01    0.8135101    0.3929419  89.12  0.004202744    1.696    0.410
        62  -9.8689    186.1382    225.0930   7.5299160458e+01   2.2063386323e+00    0.1883029    0.1462693  29.46 0.0007772186    1.237    0.191
        63  -9.9866    169.8878    225.3523   7.8180117768e+01   5.0054758698e+00     0.370017    0.1310929  42.66  0.001431264    2.311    0.567
        64 -10.2160    107.7193    224.3314   8.8956076777e+01   1.5523303700e+01    0.1990078    0.1650965  76.58 0.0006829166    1.143    0.125
        65  -9.6910    107.6838    221.6472   8.8682726751e+01   1.5977768469e+01    0.2337726    0.1251555  36.56  0.001244201    2.170    0.539
        66 -11.0008    243.0537    223.7594   6.5414562265e+01  -7.2818116151e+00    0.2683947    0.1186996  37.45  0.001413546    1.826    0.452
        67 -10.2457     87.1927    220.9418   9.2160930120e+01   1.9174043120e+01    0.2638879    0.1456436  74.03  0.001528568    1.835    0.455
        68 -14.2630     36.2722    233.6036   1.0132425427e+02   2.3571870958e+01     1.050796    0.9819981 -21.20  0.008725965    2.318    0.569
        69 -10.1871     75.3421    223.2740   9.4375882452e+01   2.0438607407e+01    0.1889972     0.139177  56.42 0.0006458616    1.210    0.174
        70  -9.9265     78.2996    221.3161   9.3710121120e+01   2.0369695915e+01    0.1718335    0.1426502  59.88 0.0002982294    1.280    0.219
        71  -9.8743    122.7584    223.0182   8.6191169854e+01   1.3353331373e+01    0.2083911      0.16599 -86.75 0.0007970664    1.329    0.247
        72  -9.6043    122.8940    218.8136   8.5685360493e+01   1.4022682800e+01    0.1704599    0.1504888  49.63  0.001201301    1.262    0.208
        73 -10.4852    198.0433    218.3867   7.2215657379e+01   1.0098027437e+00    0.3399138    0.2467909  -1.16  0.002033476    1.811    0.448
        74  -9.5051    102.8897    220.3053   8.9380558258e+01   1.6945571294e+01    0.1577671    0.1225897  61.65 0.0003590701    1.058    0.054
        75 -10.7041     71.1818    219.2834   9.4740019115e+01   2.1700665012e+01    0.2118647    0.1378168  70.38 0.0004764273    1.217    0.178
        76 -13.7832      4.4823    194.9941   1.0419494399e+02   3.3675638599e+01     1.015323    0.3778548 -73.16  0.004928054    2.191    0.544
        77 -10.0351    222.3121    216.5963   6.7719971703e+01  -3.0060398836e+00    0.4272911    0.1580897  32.87  0.001734299    3.015    0.668
        78  -8.6728    139.3450    216.2742   8.2423095524e+01   1.1682446668e+01    0.1156323   0.08998815  27.47 0.0005541421    1.623    0.384
        79 -15.6009     34.1183    211.7705   1.0034209751e+02   2.7612716473e+01     2.735117     1.501612  73.83   0.01861812    1.433    0.302
        80 -10.0885     88.8086    215.7276   9.1385372801e+01   1.9850482709e+01    0.2149601    0.1867939  74.84  0.001596303    1.231    0.188
        81 -10.3156    234.4785    214.4816   6.5301470500e+01  -4.8284168300e+00     0.317275    0.1012334  44.57  0.001241959    2.676    0.626
        82 -11.5707    233.3260    210.1413   6.4759439806e+01  -4.1181500392e+00     0.578151      0.28586 -15.65  0.002636267    3.068    0.674
        83 -10.2185    166.4222    213.5430   7.7142055610e+01   7.3543689091e+00    0.3144642     0.201017 -50.58  0.001809589    1.912    0.477
        84 -13.2580     26.7164    232.5396   1.0269734454e+02   2.4811413653e+01    0.5040573    0.3191228 -70.50  0.002722084    1.788    0.441
        85 -13.6965      7.6056    209.2508   1.0442062368e+02   3.0790387836e+01    0.5499491    0.4521275 -59.52  0.003061691    1.937    0.484
        86  -9.7909    177.6749    214.1423   7.5195086116e+01   5.2424432074e+00    0.3249794    0.1353398  45.35   0.00140862    1.964    0.491
        87  -8.7799    128.0000    213.9718   8.4188806155e+01   1.3985512186e+01    0.1725581    0.0693413 -56.28 0.0007968287    2.904    0.656
        88  -9.4245    104.1340    213.7792   8.8471199993e+01   1.7880529337e+01    0.1831484    0.1291589  67.45 0.0006119463    1.194    0.162
        89  -9.7558    185.6964    213.0875   7.3592789045e+01   3.9481468897e+00    0.2645108    0.1445034  32.08  0.001323895    1.923    0.480
        90 -13.2870     30.4614    248.4654   1.0295698948e+02   2.1811909452e+01    0.4839741    0.2506057  43.00   0.00266684    1.952    0.488
        91  -9.2929    216.4371    212.4885   6.8058359355e+01  -1.4723595791e+00    0.1234846    0.1023785  33.60 6.064585e-05    1.058    0.055
        92  -9.1465    200.8242    212.1221   7.0740772759e+01   1.3548736974e+00    0.1723956    0.1270999  23.89 0.0005093432    1.349    0.259
        93  -8.8576    207.4650    210.5009   6.9303089383e+01   3.8059166573e-01    0.1273079    0.1031903  31.77 5.710539e-05    1.036    0.035
        94  -9.4090    221.7607    209.4596   6.6628435015e+01  -2.0252196781e+00     0.183492   0.09728907  34.51 0.0008102095    1.657    0.396
        95 -10.7201    129.1791    206.9422   8.3086788782e+01   1.4984006846e+01    0.3180375    0.2010676  49.32 0.0008776504    1.324    0.245
        96 -10.1913    100.6257    207.9323   8.8465854336e+01   1.9463178782e+01    0.2147664    0.1392427  56.19 0.0005372853    1.264    0.209
        97 -10.8644    109.6204    205.8569   8.6578437267e+01   1.8418013983e+01    0.2143633    0.1888788  37.37 0.0008081401    1.445    0.308
        98 -10.7630    241.1452    204.1568   6.2391561886e+01  -4.7387629132e+00    0.3053264    0.2044169  16.27 0.0009594059    1.457    0.314
        99  -9.6683    161.4118    200.6441   7.6153541014e+01   1.0304400064e+01     0.265265    0.1764951  55.75  0.001130899    1.383    0.277
       100 -15.2052      5.7980    227.3831   1.0552080940e+02   2.7817790277e+01    0.8921111    0.5898896 -62.63  0.006312629    2.161    0.537
       101 -11.1409    234.9323    202.6315   6.3176263111e+01  -3.4801396023e+00     0.355208     0.227115  -2.90 0.0009965015    1.879    0.468
       102 -11.6254    121.6247    199.4290   8.3529520234e+01   1.7597347121e+01    0.5652536     0.234078  59.30  0.002293963    2.916    0.657
       103 -10.0099    215.3733    196.8247   6.5564269730e+01   7.9407328116e-01    0.2981577    0.1710265 -22.78  0.001427387    2.191    0.543
       104  -9.4189    183.9478    198.0689   7.1518078380e+01   6.5007579914e+00     0.181404    0.1546096  57.83  0.001122517    1.190    0.159
       105  -9.8331    230.6798    195.8602   6.2693476874e+01  -1.8677693872e+00    0.2202341    0.1492984  30.39  0.000568799    1.290    0.225
       106  -9.5288    190.4645    194.8242   6.9758775668e+01   5.7645701134e+00    0.2968092    0.1322912 -40.43  0.001327297    2.612    0.617
       107  -9.6706    210.4744    195.0092   6.6121541032e+01   1.9578071424e+00    0.1826749    0.1283739 -31.98  0.001036622    1.607    0.378
       108  -8.7359    163.6634    193.3093   7.4575740799e+01   1.1101638914e+01    0.1343408   0.09656621  72.56 0.0007043472    1.681    0.405
       109 -14.0874      8.3906    246.5173   1.0593574625e+02   2.4444529309e+01    0.5333802    0.2049216  86.70  0.003513132    2.176    0.540
       110 -11.0770    242.6331    190.3167   5.9611232168e+01  -3.2891010723e+00    0.3598911    0.2317474 -10.17    0.0014924    1.722    0.419
       111 -10.4928    247.4934    190.7442   5.8869112622e+01  -4.1972491819e+00    0.2378485    0.1573705  38.57 0.0008220559    1.358    0.264
       112 -11.8030    128.3484    190.7821   8.1049858905e+01   1.8020082406e+01    0.2880131    0.2122988  64.63  0.001687692    1.243    0.196
       113  -9.0292    208.9473    190.1940   6.5534370881e+01   2.9366715322e+00    0.1789529   0.09146642  45.21 0.0005505388    1.724    0.420
       114 -12.1587    138.3200    186.1421   7.8396113510e+01   1.7089850377e+01     0.471431    0.2341105 -41.00  0.002068766    2.791    0.642
       115  -9.0431    227.7309    186.6772   6.1509715884e+01  -1.0197063742e-01    0.1307833   0.09112279  11.72 0.0001912178    1.568    0.362
       116 -11.5896    146.6794    185.8520   7.6693944947e+01   1.5598161084e+01    0.3415617    0.1787222  40.84  0.001602924    1.822    0.451
       117 -11.2681     45.2699    180.1309   9.5969661695e+01   3.2390746789e+01    0.4745142    0.1328522 -66.96  0.002127474    3.014    0.668
       118 -10.2220     42.2798    178.0237   9.6348011837e+01   3.3157457634e+01    0.1928454    0.1387686  59.19 0.0003493793    1.274    0.215
       119  -9.8849     40.5672    183.1415   9.7111648682e+01   3.2325653968e+01    0.2777361    0.1133655 -76.88  0.001460298    2.172    0.540
       120 -10.5069    214.9400    182.1510   6.2948158618e+01   2.9652318743e+00    0.2519288    0.2097564 -54.35 0.0005195444    1.552    0.356
       121  -9.5531    203.9966    183.5298   6.5222346174e+01   4.8821387390e+00    0.2082094      0.11903  44.55 0.0005565636    1.551    0.355
       122 -10.5662    191.0849    183.0778   6.7567221725e+01   7.4828228452e+00    0.2458774    0.1754965  47.47 0.0003313262    1.263    0.208
       123  -9.6126     24.9783    182.2595   9.9890510055e+01   3.4161905074e+01    0.2395188   0.09672727  78.24  0.001184031    2.657    0.624
       124 -10.7416     36.3736    179.6723   9.7600794520e+01   3.3481513626e+01    0.3042078    0.1260082 -60.16  0.001619247    2.464    0.594
       125  -8.7243    181.2157    179.9822   6.8900600186e+01   9.9409215426e+00    0.1536684     0.113268 -43.00 0.0008249197    1.528    0.346
       126  -9.5163     49.0437    179.9742   9.5238906591e+01   3.1979838210e+01    0.1370666    0.1048445  74.61 0.0003558063    1.067    0.063
       127  -9.1021    201.8727    178.9352   6.4757030543e+01   6.0090485939e+00     0.170996    0.1590348  76.93 0.0006155769    1.289    0.224
       128 -10.8895    145.2777    178.6136   7.5801767815e+01   1.7193934109e+01    0.2189559    0.1678357 -28.43 0.0009392868    1.805    0.446
       129 -11.3216     52.3840    176.2981   9.4244174795e+01   3.2324799188e+01    0.4299825    0.1200318  50.78  0.001812112    3.300    0.697
       130  -9.7344    206.7598    176.3505   6.3346909925e+01   5.4431415875e+00    0.2250276    0.1540238  35.18 0.0002746509    1.352    0.260
       131 -10.7785     29.0997    175.3976   9.8610980757e+01   3.5107567214e+01    0.2490666    0.2159903  70.71   0.00126268    1.315    0.240
       132 -14.3473      2.3577    246.2132   1.0673986495e+02   2.5084763544e+01    0.5720246    0.1800802 -88.12  0.003438138    2.763    0.638
       133 -11.2995    239.0543    173.5513   5.6972410332e+01  -4.1056865265e-01    0.2977521    0.2211579  24.14  0.000884668    1.243    0.196
       134  -9.4987     34.4640    169.9827   9.7135809251e+01   3.5648323050e+01    0.1739052   0.09003316 -74.87  0.001030506    1.599    0.375
       135 -10.1985     37.4703    171.4886   9.6687328415e+01   3.5018416230e+01    0.1597131   0.08663709  54.30 0.0006238404    1.678    0.404
       136 -11.4723    107.6529    171.5250   8.2438482597e+01   2.5335787502e+01    0.3115228    0.2093473 -83.71  0.001662973    1.621    0.383
       137 -15.4208     13.8098    240.9371   1.0495896989e+02   2.4788303419e+01     1.102674    0.5003212  84.26  0.007074001    1.744    0.427
       138 -11.7127     67.0919    168.2908   9.0438218870e+01   3.2113932819e+01    0.3001778    0.2338577  23.47  0.001317035    1.934    0.483
       139 -12.3177     58.7848    167.5617   9.2055892220e+01   3.3341214144e+01    0.4659162    0.1944094  46.64  0.002341306    2.238    0.553
       140 -11.3893     54.8456    163.9328   9.2461537161e+01   3.4591507995e+01    0.2438292    0.1564446 -69.27  0.001174146    1.398    0.285
       141 -11.4492    134.1712    171.1614   7.6844520709e+01   2.0708859569e+01    0.1936028    0.1881359  50.14 0.0006229903    1.189    0.159
       142 -10.0425      7.5185    170.8101   1.0226012481e+02   3.8053233617e+01    0.1750466    0.1115169  56.33 0.0007857659    1.451    0.311
       143 -11.2684    246.5215    168.8551   5.4741251658e+01  -1.1618264775e+00    0.4211018    0.1950473  32.99  0.001830621    2.292    0.564
       144 -10.0239    170.2848    168.8398   6.9004242687e+01   1.4077375184e+01    0.2658259    0.2092542  74.55  0.001407118    1.486    0.327
       145  -8.8597    177.6304    248.2792   7.9839860698e+01   6.6556380289e-01    0.1146395   0.07402561  60.95  0.000701123    1.689    0.408
       146 -11.9236     45.9404    166.2742   9.4521281608e+01   3.5152625580e+01    0.4164505    0.2544293  74.36  0.002544693    1.482    0.325
       147  -9.4234    210.6779    167.2634   6.0817906611e+01   6.0803476923e+00    0.2758856    0.1626652 -65.98 0.0009633529    4.194    0.762
       148 -10.7664    117.8521    168.0652   7.9765321699e+01   2.4288689963e+01    0.2101731     0.165974  77.18 0.0004879291    1.225    0.184
       149 -11.7161    151.7105    165.9292   7.2274904649e+01   1.8350757750e+01    0.4230417    0.2844781 -55.47  0.002136496    1.624    0.384
       150 -12.7644     95.8553    147.5302   8.1264700490e+01   3.2354014833e+01    0.4687455    0.4103048  50.71  0.002551633    1.227    0.185
       151 -13.9361     90.0481    153.7473   8.3561244207e+01   3.1919514353e+01    0.8179821     0.593454  48.27  0.003572391    1.381    0.276
       152 -14.3261     74.9521    158.3615   8.7533680710e+01   3.3147915795e+01     1.192663    0.6785212  72.12  0.005998867    1.990    0.498
       153  -9.1497    215.4637    165.7442   5.9618511422e+01   5.3490312607e+00    0.1859979    0.1310194 -17.99 0.0009446941    1.605    0.377
       154 -10.1527    201.5288    165.9545   6.2284522299e+01   8.1607689400e+00    0.2524236    0.1884652  45.31 0.0003880572    1.241    0.194
       155 -11.8774     74.3544    164.7089   8.8490155235e+01   3.1878637248e+01     0.326111    0.1927181  40.12  0.001788972    1.818    0.450
       156 -11.1637     37.0352    153.8690   9.5086739523e+01   3.8744272498e+01    0.2669294    0.1582684 -81.32  0.001629223    1.386    0.278
       157 -12.1990     37.8736    162.2596   9.5750003364e+01   3.6884887603e+01     0.542709    0.2036533 -70.56  0.002718476    2.211    0.548
       158  -9.9368    226.0229    162.0117   5.6917383179e+01   3.7946746819e+00    0.2331815    0.1827395  41.72 0.0003953105    1.218    0.179
       159 -12.0851    123.7623    159.9408   7.7155740270e+01   2.4891939982e+01    0.4706791    0.3404561 -18.88  0.002193827    2.507    0.601
       160 -10.4529    248.1618    161.2001   5.2880849355e+01  -4.1174112606e-01    0.1664041     0.161354 -41.10 0.0003656869    1.318    0.241
       161 -12.3149     47.7266    159.2811   9.3426518999e+01   3.6419311485e+01    0.4364943    0.2305157  43.90  0.001331316    1.914    0.478
       162  -9.6916    207.1221    158.5974   5.9704398199e+01   8.2110281813e+00    0.2199665    0.1890482 -43.74 0.0003614483    1.289    0.224
       163 -10.5720    249.1837    157.6704   5.1965297273e+01  -1.1102034062e-01    0.2436632     0.171605  61.20  0.001257302    1.919    0.479
       164 -11.3179    132.4108    154.9933   7.4390026398e+01   2.4292923694e+01    0.5939564    0.3316885 -27.05  0.001977741    4.452    0.775
       165 -10.3998    173.3008    155.9622   6.5864881059e+01   1.5814559545e+01    0.2014127    0.1900843 -42.56  0.000682028    1.139    0.122
       166 -10.5633    137.8605    155.8623   7.3362904694e+01   2.3063717160e+01    0.2088739    0.2009812  -0.13  0.001229907    1.255    0.203
       167 -13.1446     15.1356    199.3344   1.0269006985e+02   3.1873745624e+01    0.9476875    0.3590265 -79.03  0.004849308    2.153    0.536
       168 -10.2015    227.6779    153.7003   5.4856594762e+01   4.7327398664e+00    0.4251027    0.2271431  21.43  0.001605986    2.963    0.662
       169 -11.1476     10.8588    138.7826   9.9166845336e+01   4.4347997030e+01    0.2889353    0.2164772  53.29   0.00147546    1.451    0.311
       170 -10.5691      2.1779    153.0808   1.0206311862e+02   4.2053694174e+01    0.2403619    0.1519655 -88.69  0.001192762    1.140    0.123
       171 -10.5612      1.4890    147.5435   1.0180144692e+02   4.3239063801e+01    0.4212672   0.08289819 -76.98  0.001644463    3.991    0.749
       172 -12.0441      6.1565    146.7532   1.0080552429e+02   4.3047453397e+01    0.6826464    0.2921378 -84.23  0.002671658    1.870    0.465
       173 -11.7778     12.2416    145.5250   9.9462055737e+01   4.2818285183e+01     0.515435     0.186566 -75.09  0.002132438    2.115    0.527
       174 -10.2728    236.5173    152.5055   5.3031268746e+01   3.1212345171e+00    0.2310954      0.13071  46.88 0.0008211563    1.740    0.425
       175  -9.2341    250.6580    153.2883   5.0784012561e+01   2.2621154419e-01    0.1235425    0.1093623 -76.24 0.0002279629    1.646    0.392
       176 -12.3456     55.5426    151.5090   9.0865439099e+01   3.7163988682e+01    0.3308123    0.2464795  32.26  0.001987509    1.731    0.422
       177 -11.2216     44.1906    151.1999   9.3284017480e+01   3.8545693331e+01    0.2369509    0.1405621 -75.45 0.0007561506    1.402    0.287
       178 -11.3211     47.9660    150.5223   9.2392994447e+01   3.8268078109e+01    0.1883148     0.156407  20.31 0.0006530436    1.779    0.438
       179  -9.7187    211.1778    150.6578   5.7239879149e+01   8.6680052536e+00    0.3990073     0.160437  50.97  0.001484303    2.519    0.603
       180 -11.2958    111.8732    150.6523   7.8168503601e+01   2.8979848575e+01    0.2309637    0.1841534 -53.91 0.0006260927    1.320    0.243
       181  -9.5540     17.0906    150.8486   9.8922268382e+01   4.1293596166e+01    0.1829969    0.1151153  80.83 0.0007981217    1.309    0.236
       182  -9.2164    226.8085    149.7574   5.4157162738e+01   5.5260763877e+00    0.1770719    0.1672923 -71.09 0.0003663362    1.311    0.237
       183 -10.6565    234.3490    166.0057   5.6261908994e+01   1.5574997849e+00    0.2624569    0.1847625  40.12 0.0005320865    1.327    0.246
       184  -8.8887    144.6581    148.2755   7.0412376524e+01   2.3259264149e+01    0.1478861    0.1089911  77.29 0.0002448359    1.619    0.382
       185 -11.9955     51.1154    143.2953   9.0818924221e+01   3.9479633868e+01    0.3216796    0.2303346 -50.74  0.001127215    1.619    0.382
       186  -9.4938    182.1374    147.1595   6.2200178799e+01   1.5554162896e+01    0.1977064    0.1730177  84.87 0.0002384016    1.321    0.243
       187 -11.0749    119.3717    146.7835   7.5778140097e+01   2.8460874033e+01    0.2454433     0.175451 -48.72 0.0009478264    1.487    0.328
       188 -12.0281     28.6245    144.1089   9.5870560244e+01   4.1670853556e+01    0.3959342    0.2542671  57.54  0.002582685    1.531    0.347
       189 -11.6988     92.7043    142.7690   8.1193874782e+01   3.3901593166e+01    0.3982548    0.1973565 -56.92  0.001835886    1.909    0.476
       190 -12.4351     89.7890    136.0676   8.0727406430e+01   3.5844856560e+01    0.3974548    0.3098479  79.55  0.002261942    1.281    0.219
       191  -9.5986    208.8406    144.1515   5.6250395822e+01   1.0262510895e+01    0.2107893    0.1972214  75.69 0.0004581038    1.227    0.185
       192 -10.5975    134.0491    143.0444   7.1730638717e+01   2.6461017029e+01    0.2364447    0.1719638  85.78 0.0007791688    1.701    0.412
       193  -9.4329    220.8082    156.8237   5.6772928823e+01   5.6558912874e+00    0.1917128    0.1612334  60.92  0.001055012    1.384    0.277
       194 -11.9781     71.9207    146.6859   8.6580057763e+01   3.6105754782e+01    0.4979454    0.2482949  77.24  0.001974944    3.273    0.694
       195 -11.4627     41.8696    140.1784   9.2513070044e+01   4.1189561094e+01    0.2789103    0.1639574  54.19  0.001636863    1.725    0.420
       196 -10.9615     36.3457    141.2331   9.3870818305e+01   4.1533413704e+01    0.2667718    0.1058323  44.53  0.000704715    2.535    0.605
       197 -10.6452     20.2087    140.2549   9.7300344112e+01   4.3261518023e+01    0.2338341    0.1942111 -31.69  0.001471479    1.823    0.451
       198  -9.9129    151.9553    243.8803   8.3572232705e+01   5.4475785860e+00    0.3338767    0.2035985  43.93  0.002123324    1.299    0.230
       199  -9.3133    212.0518    138.7124   5.4412953275e+01   1.0484351181e+01    0.2008093    0.1768447  38.46 0.0002815067    1.096    0.087
       200 -11.1354     73.2910    138.8536   8.5091979378e+01   3.7649867869e+01    0.2329676    0.1628904  59.12  0.001326217    1.435    0.303
       201  -9.8756    143.2526    138.0159   6.8612937798e+01   2.5658768379e+01    0.2701519    0.2130568  18.15  0.001321365    1.683    0.406
       202  -9.8964    102.3007    138.3577   7.8171645367e+01   3.3303809732e+01    0.1345149    0.1086672 -27.74   0.00070371    1.711    0.416
       203  -8.9916    158.6468    146.7407   6.7052440278e+01   2.0676818951e+01      0.14479    0.1140326  18.90  0.000156915    1.612    0.380
       204 -11.3486     27.4918    137.8533   9.5461356532e+01   4.3124537374e+01    0.3432295    0.1523451  37.60  0.001883141    2.466    0.594
       205 -10.5691      4.2035    136.2223   1.0035898579e+02   4.5390692215e+01    0.3830047    0.2132869 -37.98   0.00219996    3.036    0.671
       206 -10.3212     10.5419    126.4956   9.8086730937e+01   4.6986130721e+01    0.2278356    0.2128358 -11.50  0.001841402    1.589    0.371
       207 -10.5937      5.1258    130.7943   9.9692982195e+01   4.6467304381e+01    0.3511248     0.199705  50.38  0.001908414    1.848    0.459
       208  -9.4984      6.3868    127.1915   9.9086814624e+01   4.7140962364e+01    0.1872203    0.1188173 -79.75  8.54755e-05    1.161    0.139
       209 -10.9662    156.7372    247.0134   8.3138220410e+01   4.2453009795e+00     0.246496    0.1836092 -73.77  0.001713958    1.805    0.446
       210 -11.4474     40.8781    134.8891   9.2089130747e+01   4.2454539338e+01    0.2708058    0.1611566  64.33  0.001076675    1.751    0.429
       211 -11.7934     66.1847    133.9143   8.6008302451e+01   3.9706159293e+01    0.3561616    0.2855184  67.32  0.002226896    1.226    0.184
       212  -9.2368    232.9999    134.0056   4.9517403453e+01   6.7114123696e+00    0.1770192    0.1585712 -15.07 0.0008697288    1.071    0.066
       213 -10.5746    133.2341    133.8015   7.0010813659e+01   2.8578526507e+01    0.1982501    0.1794367  -9.90  0.001070369    1.374    0.272
       214  -9.4354    167.6422    133.6808   6.2258993751e+01   2.1313729310e+01    0.1558485    0.1195509  11.86 0.0007044715    1.759    0.432
       215 -12.1606     98.3478    129.5721   7.7469615626e+01   3.5915030909e+01    0.4155679    0.3716223 -16.86  0.001395804    1.480    0.324
       216 -10.5021    172.0776    131.0025   6.0689010957e+01   2.0850414328e+01    0.2258085    0.2191198  64.45 0.0003037697    1.021    0.020
       217 -11.1096    157.8062    129.8569   6.3542015856e+01   2.4243930997e+01    0.4361373    0.1957095  38.59  0.001550928    2.575    0.612
       218  -9.3783     15.8704    129.3317   9.7167901148e+01   4.5965635854e+01    0.1997466    0.1188628 -87.17 0.0007463351    1.372    0.271
       219  -9.7968     34.8366    135.3469   9.3528744025e+01   4.2967496319e+01    0.1363848    0.1150046  17.64 0.0004397124    1.723    0.420
       220 -11.7117     19.1703    120.5166   9.5445127112e+01   4.7609387222e+01    0.4668882    0.1796527 -66.77  0.001709084    1.941    0.485
       221 -11.9626     24.8565    127.9398   9.4961296910e+01   4.5514645958e+01    0.3983594    0.2293838 -86.26   0.00238108    1.506    0.336
       222 -10.5031     20.8993    127.8026   9.5859780906e+01   4.5883835860e+01     0.260783     0.147146 -56.93  0.001295706    1.679    0.405
       223 -11.1701    127.8412    127.7848   6.9983163532e+01   3.0939360776e+01    0.4054942    0.2030171  44.23  0.001670289    2.014    0.503
       224 -10.1207     50.9176    125.7418   8.8459083058e+01   4.3394678322e+01     0.450031    0.1809041 -78.73  0.001164323    3.293    0.696
       225  -9.8171    219.9244    245.2830   7.2496728288e+01  -5.8646446637e+00    0.2038014    0.1634898 -55.18  0.001442163    2.003    0.501
       226  -8.6848    109.6775    124.2775   7.3626852937e+01   3.5133819597e+01    0.1440746    0.1066303  80.40 0.0003467736    1.583    0.368
       227 -10.3383     90.0412    123.9842   7.8442637947e+01   3.8511098460e+01    0.2103544    0.1903112  67.00 -0.002661949    1.130    0.115
       228 -10.6368     93.5167    122.3479   7.7251085280e+01   3.8324240486e+01     0.309423    0.2093049 -56.47  0.000851171    1.375    0.273
       229 -10.0840    249.5007    122.0645   4.3964812544e+01   5.0763249827e+00    0.3217245    0.1892698  31.70  0.001444653    1.974    0.494
       230  -9.6135      2.8801    121.8366   9.9375272547e+01   4.8521286262e+01    0.1661446    0.1201188 -68.48  0.001222836    1.222    0.182
       231  -9.0199    228.9807    121.7580   4.7345378299e+01   9.5645008125e+00    0.1904364    0.1223737  49.42 0.0008751169    1.577    0.366
       232  -9.6309     61.8300    121.3714   8.5063865888e+01   4.3079923492e+01    0.1526029    0.1262657  21.72 0.0005057611    1.609    0.379
       233  -9.5180    179.2063    118.3949   5.6143339673e+01   2.1663535543e+01    0.2107636    0.1464219  59.67 0.0004567206    1.536    0.349
       234  -9.9340     54.0010    118.4767   8.6567603845e+01   4.4672590069e+01    0.1671843    0.1237173  41.60 0.0004204242    1.543    0.352
       235  -9.1526    139.5167    117.4953   6.4852364292e+01   3.0755689689e+01    0.1489075    0.1453555 -87.21 0.0008103285    1.023    0.023
       236 -10.2076    194.5117    113.9907   5.1893099675e+01   1.8886593687e+01    0.3118216    0.1967884 -86.03  0.001039199    3.440    0.709
       237 -10.5250    211.6957    113.2156   4.8380679681e+01   1.4964693475e+01     0.383563    0.1579917  44.22  0.001179434    2.516    0.602
       238  -9.8296    113.3195    112.9887   7.0227833875e+01   3.6962647841e+01    0.2158159    0.1821512 -59.63  0.001133998    1.128    0.114
       239 -11.0137     39.2109    112.7973   8.9456086364e+01   4.7527898296e+01    0.2223443    0.1716999 -76.51  0.001121913    1.053    0.050
       240 -10.8120     32.9560    112.5124   9.1014717998e+01   4.8186109049e+01    0.3015193    0.1203319 -55.65  0.001476021    2.117    0.528
       241 -11.0577     27.8744    113.5528   9.2445554031e+01   4.8409589649e+01    0.2437449    0.1100211  33.32   0.00129929    2.602    0.616
       242 -11.9547     30.9161    128.6209   9.3630751644e+01   4.4817403411e+01    0.3403275    0.2393032  24.71  0.001775739    1.957    0.489
       243 -10.1627    217.8715    111.8678   4.6909126316e+01   1.3752160644e+01    0.2258731    0.1998902   5.33 0.0004120254    1.182    0.154
       244  -9.9276    130.4888    112.5226   6.5833748211e+01   3.3698093873e+01    0.1490024    0.1425973 -80.53 1.781666e-06    1.007    0.007
       245  -9.4793     68.6619    112.3219   8.1695329941e+01   4.4246281746e+01    0.1366179   0.09419424  80.20 0.0003111937    1.715    0.417
       246 -10.4044    163.8261    109.8898   5.7340980616e+01   2.6915369548e+01    0.2414259     0.217933   5.24 0.0007645814    1.252    0.201
       247 -10.0128     64.4404    124.4523   8.4922258117e+01   4.2055844566e+01    0.1307504     0.108293 -83.32 -2.610087e-05    1.057    0.054
       248 -10.1939     52.4851    109.6785   8.5487162139e+01   4.6825870755e+01    0.1965667    0.1185607  34.05  0.001075321    1.970    0.492
       249  -9.7009    104.9919    107.9795   7.1204870049e+01   3.9587604660e+01    0.2077065    0.1941705 -73.31  0.001195238    1.013    0.013
       250 -10.1774     72.3324    107.8765   7.9852687587e+01   4.4755985789e+01    0.2820611    0.1155208 -65.24  0.001102899    2.593    0.614
       251 -10.5645      9.6783    104.8090   9.5925083612e+01   5.1719549492e+01    0.3261563    0.1915108 -62.04  0.001628251    1.365    0.267
       252 -10.9729    139.8972    105.8012   6.1860297312e+01   3.3140045516e+01    0.2375576    0.2191298   7.05  0.001249832    1.232    0.188
       253  -9.6313    187.6935    105.6793   5.1138682388e+01   2.2058031148e+01    0.1589017    0.1227645  12.55  0.000349703    1.638    0.389
       254 -10.3221    132.8504    104.7089   6.3304632401e+01   3.4875441868e+01    0.3036587    0.1959714 -70.41  0.001238578    2.152    0.535
       255 -10.2424    112.1380    104.8460   6.8596433342e+01   3.8972241084e+01     0.285526    0.2068269   5.19 0.0009680732    2.271    0.560
       256  -9.7078    100.4900    103.9919   7.1452547717e+01   4.1261485313e+01    0.2270894    0.1324231 -53.64  0.001035831    1.603    0.376
       257  -9.3472     62.3061    104.6480   8.1924183914e+01   4.6794078656e+01      0.13419   0.09299302  84.63  0.000704205    1.710    0.415
       258 -10.4086     18.3104    102.9665   9.3464087443e+01   5.1508191699e+01    0.1729974    0.1213094 -70.70  0.001164731    1.088    0.081
       259 -10.0199    121.4485    100.6411   6.5134997086e+01   3.8082469496e+01    0.2756916    0.1843674  41.30 0.0007421865    1.584    0.369
       260 -10.0862     65.1380    100.1189   8.0236514042e+01   4.7454854673e+01     0.329048    0.1478985 -68.31  0.001355219    2.494    0.599
       261 -10.3165     23.1028     99.3752   9.1682680234e+01   5.1927316835e+01    0.2279876    0.1247563  75.90  0.001188171    2.359    0.576
       262  -9.7718     92.4502     96.4780   7.1823355435e+01   4.4280093126e+01    0.1406395    0.1276464 -58.90 8.624398e-05    1.006    0.006
       263  -8.9874    235.8046     95.3737   3.9687442886e+01   1.2301390061e+01    0.2004056    0.1341952  44.19 0.0004831859    1.570    0.363
       264  -9.6493    148.9951     95.0091   5.6803012437e+01   3.3332152647e+01    0.1851746    0.1800042 -51.64 0.0003965833    1.019    0.019
       265  -9.1878     42.5660     93.7922   8.5347099260e+01   5.1432882444e+01    0.1824602     0.103273 -74.83 0.0009481609    1.739    0.425
       266 -11.4550    174.4797     92.0288   5.0225922768e+01   2.7843516012e+01    0.3653401    0.2232308  50.48  0.001395402    1.625    0.385
       267 -10.7963     92.2929     90.8759   7.0469652886e+01   4.5534773100e+01    0.3283736    0.1869644  49.75  0.001499647    1.997    0.499
       268 -10.1628     49.9219     91.3004   8.2747644654e+01   5.1221250439e+01    0.1695737    0.1535103 -55.87 0.0007602936    1.125    0.111
       269  -9.9991    139.2353     90.0287   5.7779284039e+01   3.6544245774e+01     0.203777    0.1265615 -41.64 0.0004811467    1.585    0.369
       270  -9.5700    121.3236     91.6880   6.2794127937e+01   4.0011942471e+01    0.1513624    0.1175862 -86.45  0.000283322    1.657    0.396
       271 -11.5278    152.4807     85.9407   5.3427789944e+01   3.4320070404e+01    0.4519498    0.2758345 -46.67  0.001602136    1.664    0.399
       272 -10.9390    109.0372     87.2202   6.4853171138e+01   4.3358768595e+01    0.3498651    0.2336732 -77.53  0.001477359    2.299    0.565
       273 -10.6769     17.0766     85.0743   9.1150727363e+01   5.5490942749e+01    0.2670389    0.1601529  32.52  0.001238835    2.080    0.519
       274 -10.3006    198.4338     82.4642   4.2755799813e+01   2.3582919181e+01    0.2595515    0.2520078  54.86 0.0001729096    1.037    0.036
       275  -9.7152     67.1499     82.9888   7.5797980876e+01   5.0989010771e+01    0.2380013    0.1355843 -34.12  0.001106492    2.139    0.532
       276  -9.5300     57.7099     83.6695   7.8794366049e+01   5.2020662335e+01    0.1315417   0.08776379 -36.16 0.0002643496    1.624    0.384
       277 -10.1897    119.9581     82.0016   6.0428882274e+01   4.2300928049e+01    0.2406901    0.1857436  -3.94 0.0008630757    1.724    0.420
       278 -11.2319     45.9759     79.6803   8.1457710984e+01   5.4191095068e+01     0.331991    0.1887918 -24.47  0.001567509    2.776    0.640
       279 -10.2082     11.0053     77.5903   9.1716699865e+01   5.7495570614e+01     0.236611    0.1539553  62.15  0.001041185    1.940    0.485
       280 -11.3230    155.1288     77.1340   5.0228410627e+01   3.5371197698e+01    0.3610848    0.2266957  51.58 0.0008256826    1.597    0.374
       281 -10.6190     56.1496     74.1285   7.6979098712e+01   5.4269941689e+01    0.1769195    0.1413988 -75.80 0.0005709874    1.358    0.263
       282  -9.7444     33.7341     70.9555   8.3365015663e+01   5.7233795461e+01    0.1679531     0.132049 -60.30 0.0003707428    1.051    0.048
       283 -10.8243     24.6068     69.4091   8.5966162232e+01   5.8306418758e+01    0.3754009    0.1175484 -63.46  0.001633057    2.564    0.610
       284 -11.0386    147.2732     71.4171   5.0331223190e+01   3.8316166649e+01    0.3008438     0.215253 -35.42  0.001283091    1.394    0.283
       285  -9.1409      1.5227     59.4391   9.1553990802e+01   6.1821916869e+01    0.1131576   0.07888167 -56.71 0.0002020196    1.090    0.083
       286  -9.0903    237.5289     57.0141   2.9537480269e+01   1.7809571792e+01    0.2162509    0.1360734 -34.09 0.0003765385    1.499    0.333
       287  -9.9617    119.1269     56.8364   5.2774284595e+01   4.7329535430e+01    0.2139874    0.1966671 -61.78 0.0003956694    1.214    0.176
       288  -9.6506    163.6679     56.6617   4.2015485188e+01   3.6858607891e+01    0.1643887    0.1187427  20.70 0.0007051906    1.742    0.426
       289  -9.6574    200.5124     55.4622   3.4697915306e+01   2.7470646835e+01    0.1507646    0.1488749  72.40 1.584603e-05    1.027    0.026
       290  -9.6803    150.6726     54.6836   4.4219491112e+01   4.0436866030e+01     0.160039    0.1173159  19.66 0.0006649061    1.676    0.403
       291  -8.6559    125.3315     54.2530   5.0251687436e+01   4.6442896378e+01    0.1478547    0.1114924  18.34 0.0002250892    1.557    0.358
       292  -9.8674     35.3915     53.2184   7.8425550813e+01   6.0772489017e+01    0.1749756   0.09977318 -62.76 0.0009577019    1.692    0.409
       293  -9.6212    111.0178     49.2405   5.2399728531e+01   5.0354873684e+01    0.1946505    0.1839246   0.20 0.0003007413    1.030    0.029
       294  -9.9704     88.4452     48.4825   5.8850892555e+01   5.4744142937e+01    0.2524779    0.2200251 -49.85 0.0006261487    1.246    0.197
       295 -10.5873     42.9581     48.4328   7.4333256968e+01   6.0994035156e+01    0.2693827    0.1490524 -67.65  0.001287738    2.527    0.604
       296  -9.2714    165.0096     46.9439   3.8626889234e+01   3.8055327137e+01    0.1806715    0.1787104  -5.73 0.0004403515    1.026    0.025
       297  -9.3741     16.9605     46.4752   8.3313781392e+01   6.3569950958e+01    0.1420902   0.08578009  52.79 0.0008099886    2.617    0.618
       298 -10.6839    110.8129     43.6548   5.0464988854e+01   5.1338543384e+01    0.3264515     0.230166 -20.85 0.0005704506    1.466    0.318
       299  -9.7732    100.9810     43.0194   5.3062927940e+01   5.3406166129e+01    0.2069298     0.194228 -25.19 0.0003292912    1.096    0.087
       300  -9.8766     36.6573     43.3150   7.5076312627e+01   6.2608936742e+01    0.1099003   0.09135845 -88.52  0.000363379    1.709    0.415
       301  -9.4081      8.6867     43.5520   8.5660387485e+01   6.4657790716e+01    0.1117632    0.1069375  36.90 0.0003196583    1.408    0.290
       302  -9.6041    206.2748     42.0267   2.9892374938e+01   2.7931728174e+01    0.2071937    0.1898371 -43.18 0.0003516062    1.089    0.082
       303  -9.9922    158.3350     36.9979   3.6700469187e+01   4.1230527883e+01     0.206512      0.19449 -16.15 0.0004194927    1.088    0.081
       304  -9.1827     68.3140     35.3192   6.0719493517e+01   6.0263598209e+01    0.1328418   0.09068432 -10.48 0.0002997277    1.651    0.394
       305  -9.8113     58.5382     35.7541   6.4375330552e+01   6.1545227746e+01    0.2927279    0.1061639  31.27  0.001067124    3.418    0.707
       306  -9.2180    108.6845     33.3059   4.7212234389e+01   5.3406179298e+01    0.1340849    0.1114657 -67.57 0.0003352264    1.625    0.385
       307 -10.5545    199.2118     28.7929   2.7079034118e+01   3.1571609332e+01    0.2477054    0.2297914  53.40 0.0002408107    1.100    0.090
       308  -8.7818     31.6937     29.7063   7.2507014200e+01   6.5606247945e+01    0.1194211   0.07224056 -26.84 0.0002274255    1.581    0.368
       309  -9.5994    159.0138     28.0059   3.3534042271e+01   4.2270935345e+01     0.220659    0.2077366  51.45 0.0003143015    1.017    0.017
       310  -9.4131     67.5529     24.6918   5.6780795141e+01   6.2108938843e+01    0.1648394     0.109768 -41.36 0.0008071546    1.502    0.334
       311 -10.1561    189.2031     23.8328   2.7063994972e+01   3.4849783124e+01    0.2349316    0.2193602 -88.78 0.0002772765    1.045    0.043
       312  -9.8006     45.8617     24.1967   6.4747571291e+01   6.5087819845e+01    0.1736312     0.148072 -37.75 0.0007603554    1.244    0.196
       313  -9.1818    230.9559     22.9554   2.1411667254e+01   2.4048188155e+01    0.1679453    0.1538934 -68.64 0.0003875095    1.014    0.014
       314  -9.2148     76.6704     21.6832   5.2361588994e+01   6.1113357791e+01    0.1350425   0.09056707   3.79 0.0006533449    1.682    0.405
       315  -9.1874     28.4730     19.2632   6.9960175592e+01   6.7719673165e+01    0.1507153   0.09522767 -51.77 0.0007475775    1.606    0.377
       316  -8.8631    206.5055    249.4632   7.5258947421e+01  -4.1663039953e+00    0.1147602    0.0849182  37.51 6.438394e-06    1.013    0.013
       317  -9.3369    192.7945    246.2396   7.7077860434e+01  -1.5766107552e+00    0.1653134    0.1113141  74.48 0.0009266182    2.629    0.620
       318  -9.3750     24.6903     14.3983   6.9659809199e+01   6.8867595206e+01    0.1423235   0.09521788   0.50 0.0009435455    1.603    0.376
       319  -9.7477    142.1981    248.9548   8.5742329274e+01   6.3280368184e+00    0.1668013     0.156042   8.08 0.0008722164    1.543    0.352
       320 -10.9258    121.4514    247.0671   8.8929595166e+01   9.8523357625e+00    0.4995962    0.2435055  64.81  0.002706953    2.261    0.558
