#   1 NUMBER                 Running object number                                     
#   2 MAG_AUTO               Kron-like elliptical aperture magnitude                    [mag]
#   3 X_IMAGE                Object position along x                                    [pixel]
#   4 Y_IMAGE                Object position along y                                    [pixel]
#   5 X_WORLD                Barycenter position along world x axis                     [deg]
#   6 Y_WORLD                Barycenter position along world y axis                     [deg]
#   7 A_WORLD                Profile RMS along major axis (world units)                 [deg]
#   8 B_WORLD                Profile RMS along minor axis (world units)                 [deg]
#   9 THETA_WORLD            Position angle (CCW/world-x)                               [deg]
#  10 FWHM_WORLD             FWHM assuming a gaussian core                              [deg]
#  11 ELONGATION             A_IMAGE/B_IMAGE                                           
#  12 ELLIPTICITY            1 - B_IMAGE/A_IMAGE                                       
         1 -14.6036    201.8773     25.4389   4.6479842653e+01   3.1578819953e+01     5.039177     2.719777  60.99     0.013993    1.756    0.431
         2 -16.6135    245.1178     52.8932   4.8384792429e+01   1.7605942101e+01     7.775348     4.669724  44.62   0.03600093    2.104    0.525
         3 -15.2420    248.0664     27.0986   4.2039193090e+01   2.0361185174e+01     2.833829     1.345912 -61.54    0.0104464    2.284    0.562
         4 -15.1095    220.2818     78.7448   5.8141865209e+01   1.9391741090e+01     8.586989     3.204685 -54.09   0.02343648    4.885    0.795
         5  -8.8570    142.2029     13.5245   5.1682599397e+01   4.8154070096e+01    0.6367183    0.2158231 -12.13  0.001790021    5.664    0.823
         6  -8.2888    155.4379     14.2799   4.9674048380e+01   4.4724558847e+01    0.2363824    0.1423141 -13.52  0.001096876    1.986    0.497
         7 -10.1835    119.2112      9.9443   5.4921542692e+01   5.4121250032e+01    0.6308769    0.3568581  40.90  0.003049405    1.657    0.396
         8  -7.9979    134.9757     12.2720   5.2580582741e+01   5.0078482785e+01     0.185175    0.1549589  49.13 0.0002284554    1.079    0.073
         9  -8.7462    204.2648      7.6649   4.1438727725e+01   3.2960306351e+01    0.2245707    0.1739956  -4.27 0.0009327665    1.672    0.402
        10  -9.2386    181.2345      5.9413   4.3491014521e+01   3.8939177191e+01    0.3463854    0.2175122  72.49  0.001265113    1.440    0.306
        11 -10.1674    243.3472      4.2596   3.7245885433e+01   2.4050000193e+01    0.1967856    0.1766259 -61.15 0.0004106056    1.143    0.125
        12 -11.1298    247.8668      1.8344   3.6388719682e+01   2.3302890770e+01    0.4643172    0.2975154  73.06  0.002329098    1.532    0.347
        13  -8.7676    208.4412      4.2850   4.0151415410e+01   3.2271540511e+01    0.1774295    0.1391111  30.35 0.0008939077    1.656    0.396
        14  -8.4468    244.2128    183.2424   7.8133180039e+01  -2.4001584785e+00    0.1566018    0.1485905 -11.58 0.0004516057    1.317    0.241
        15  -8.5823    191.9816    250.2040   9.8953649614e+01  -3.0686591341e+00    0.1852373    0.1191053  55.50  0.001029039    2.016    0.504
        16  -8.9538     70.6781    180.8505   1.1416132068e+02   2.8624890993e+01     0.181774    0.1658418  58.84 0.0004087263    1.195    0.163
        17  -8.6823    194.2122    178.4064   8.6530662367e+01   7.3524415511e+00      0.26937    0.1289185  52.62   0.00105522    2.550    0.608
        18 -11.2796    225.3522    172.7518   7.9382831447e+01   2.4555143641e+00    0.5896344    0.3885366  29.40  0.003070552    1.493    0.330
        19  -9.4215      4.6423    176.8528   1.2790337845e+02   3.6691857401e+01    0.2295719   0.06900132 -69.71   0.00109342    2.610    0.617
        20 -11.4008    240.5102    171.7787   7.6468621902e+01  -9.3594684883e-02    0.5846437    0.5602774 -65.86  0.003737863    1.466    0.318
        21 -11.4542     16.8253    165.8290   1.2457959156e+02   3.8050116095e+01    0.6669655     0.347495  46.17  0.003704282    1.859    0.462
        22 -10.9395     21.0062    159.6954   1.2313639210e+02   3.9048248766e+01    0.5526385    0.3290344 -88.58  0.003284275    1.408    0.290
        23 -11.0430     16.7596    159.1101   1.2404189705e+02   3.9553655167e+01    0.4478447    0.3341638 -47.18    0.0025531    1.700    0.412
        24  -8.8277    206.0169    167.9852   8.2065046988e+01   6.8802610903e+00    0.2056709    0.1891614  10.44  0.001198627    1.027    0.026
        25  -9.3476    230.1771    166.8333   7.7276838229e+01   2.5114391306e+00    0.1962863    0.1865942 -27.84 0.0006406037    1.241    0.194
        26  -8.4206    213.4625    167.3865   8.0499064237e+01   5.5487940267e+00    0.2434795     0.160111  46.27 0.0006020084    1.576    0.365
        27  -7.8068    184.3290    167.6547   8.6386135067e+01   1.1213714877e+01    0.1439873    0.1171274  87.47 0.0007050393    1.752    0.429
        28  -8.5282     71.0200    165.0890   1.1206575676e+02   3.2129616951e+01    0.1896696    0.1671358  87.70  0.000276254    1.037    0.036
        29 -10.4712    236.8858    162.0338   7.5071983430e+01   2.0446769787e+00    0.5799997    0.2980703  53.78     0.002504    2.603    0.616
        30 -10.0129    117.8597    244.8744   1.1183680582e+02   9.2695918516e+00    0.1893896    0.1778812  80.26 0.0003854382    1.252    0.202
        31 -13.3095    240.3210     73.1337   5.3862540715e+01   1.5698953143e+01    0.8562441    0.4560076 -50.05  0.001203657    1.876    0.467
        32  -7.3907    120.5291    230.4527   1.0973092871e+02   1.1259052252e+01    0.1241277    0.1010934  51.83 8.949284e-05    1.013    0.013
        33  -8.8431    144.2925    150.8209   9.1773606089e+01   2.2726401519e+01     0.299648    0.1980468  64.53 0.0009718733    1.911    0.477
        34 -10.4226    173.0646    146.3790   8.4215896314e+01   1.7651609857e+01    0.4531908    0.2978139 -49.56 0.0009660076    1.622    0.383
        35  -7.9555    163.4489    140.5204   8.5033910795e+01   2.0904620479e+01    0.1511198    0.1483429  15.36 7.092879e-05    1.010    0.010
        36  -9.0427    211.4032    137.3330   7.4245065476e+01   1.1191585037e+01    0.4248086    0.2422297 -58.53   0.00160671    2.802    0.643
        37  -9.4634    221.8351    135.9091   7.1976372171e+01   9.2723190270e+00     0.492611    0.2245421 -50.14  0.001777613    2.911    0.657
        38 -10.4682    192.0163    125.9769   7.5353560950e+01   1.7509359522e+01    0.5225065    0.3524514 -53.09  0.002323042    1.674    0.403
        39 -10.9861    198.4309    133.3658   7.5841954817e+01   1.4694850630e+01    0.6156214    0.4681866  34.76  0.002988795    1.354    0.261
        40  -9.6793    133.2191    143.3228   9.2845346218e+01   2.6595334305e+01      1.01765    0.2394709 -54.84  0.002195949    7.048    0.858
        41 -10.4031    136.0334    127.6300   8.8580320713e+01   2.9521647480e+01    0.6023732     0.199543 -49.54   0.00186931    3.108    0.678
        42 -11.1959    196.8330    128.5742   7.5011114077e+01   1.5945006355e+01    0.8219662    0.3917393 -47.58  0.003088761    2.295    0.564
        43 -14.0162    238.5660     44.4716   4.7093435797e+01   2.0251244063e+01    0.6159064    0.4487183 -70.85  0.001126506    1.386    0.279
        44  -8.1539    210.4216    125.2488   7.1564195251e+01   1.3573817268e+01    0.2159279    0.1348869 -45.26  0.000728453    1.628    0.386
        45  -8.3249    229.7715    220.4174   8.7545119546e+01  -5.1309852572e+00    0.1751427    0.1519751  -8.55   0.00121038    1.233    0.189
        46  -9.9213    160.6471    128.7267   8.2884030421e+01   2.3976823476e+01    0.3884967    0.3031825 -88.46   0.00176025    1.728    0.421
        47  -8.5052    215.1453    116.9906   6.8681454052e+01   1.4017146757e+01    0.2516255    0.2149927  50.91 0.0005565585    1.248    0.198
        48  -9.2277    151.5851    116.9926   8.2092505573e+01   2.8474135441e+01    0.2866887    0.2291215  44.96 0.0003554552    1.259    0.206
        49 -10.2304    134.8547    113.2025   8.5289676919e+01   3.2967118682e+01    0.4604523    0.2088069 -49.27  0.001656002    2.245    0.555
        50 -12.0286    133.9042    102.0631   8.2556985248e+01   3.5596159815e+01     1.234716    0.4589525 -51.03  0.003366284    3.110    0.678
        51  -8.4468    156.0000    153.9749   8.9717463182e+01   1.9671408236e+01     0.243098   0.08587377 -46.16 0.0004105326    2.923    0.658
        52 -10.5746    126.0672    110.1096   8.6789597538e+01   3.5509557989e+01    0.5834639    0.3000476 -58.28  0.002119915    2.402    0.584
        53  -8.5258    114.0554    112.5478   9.0676281933e+01   3.7381009116e+01    0.2216767    0.1501588  44.84 0.0003638586    1.524    0.344
        54  -9.1777    140.9522    107.2960   8.2170624090e+01   3.2918553271e+01    0.2214742    0.2161233  35.63  0.001163794    1.040    0.038
        55 -10.8258     45.9186    150.3976   1.1624282073e+02   3.8688488497e+01    0.3698206    0.3355536 -44.82  0.001067956    1.363    0.266
        56 -10.8900    146.6548    104.1710   7.9896010510e+01   3.2299969052e+01      0.62178    0.4040571  61.15  0.002453024    1.819    0.450
        57 -11.5798    122.3470    102.6067   8.5793385249e+01   3.7944871161e+01    0.7695768    0.4646116  57.28  0.003144809    1.987    0.497
        58 -10.1112    113.8706    103.6606   8.8425059603e+01   3.9430120848e+01    0.3426109    0.2765117  11.36  0.001654873    1.528    0.346
        59 -10.5395    155.4844    100.7866   7.6825100090e+01   3.0962690655e+01    0.5799022    0.3265585  41.96   0.00147836    1.856    0.461
        60 -10.4509    139.8818     95.5148   7.9175944418e+01   3.5647219503e+01    0.3728662    0.3326487 -70.45 0.0006581619    1.229    0.186
        61 -12.0396    116.8311     93.3594   8.4742824417e+01   4.1103127179e+01    0.9972786    0.8306884  23.55  0.005002277    1.327    0.247
        62 -11.6576    132.0722     83.7208   7.7729460570e+01   3.9826230323e+01    0.6123351    0.5341136  35.35  0.003115429    1.173    0.148
        63 -10.4606    153.5639     91.9889   7.4795748456e+01   3.3185628825e+01    0.3358137    0.3112067  -1.91 0.0004724281    1.147    0.128
        64  -8.7087     96.6691     93.0886   9.0567754797e+01   4.5055112258e+01    0.2220754    0.2010887  57.18 0.0002348064    1.208    0.172
        65 -10.7263    138.9596     82.1640   7.5474980026e+01   3.8559601143e+01    0.7300176    0.2608689  37.79  0.002009313    4.127    0.758
        66  -9.8267    129.0022     78.1677   7.6836053107e+01   4.1621062606e+01    0.3369157    0.2268279  32.46   0.00105308    1.674    0.402
        67 -10.0529    112.0604     72.3747   7.9719913999e+01   4.6437725697e+01    0.2628822    0.2173097 -35.36 0.0002845288    1.173    0.148
        68  -9.3077    124.8964     70.5074   7.5503424315e+01   4.4020223932e+01    0.2420613    0.2050246 -34.67 0.0009056458    1.164    0.141
        69 -11.8225     53.8832    147.1436   1.1381829809e+02   3.8534673858e+01    0.8575479    0.7526847  59.28  0.005472011    1.188    0.158
        70  -9.7189    135.3568     58.9353   6.8961049832e+01   4.3679878958e+01    0.3407737    0.2801855 -53.80   0.00122674    1.341    0.254
        71  -8.9582    151.9293     49.7394   6.2086924923e+01   4.1095534828e+01    0.2940273    0.1881888  62.33  0.001168102    1.596    0.373
        72  -8.4946    136.7787     48.7776   6.5170608708e+01   4.4989893416e+01    0.2018294    0.1761216 -65.21 0.0007882624    1.315    0.239
        73 -10.0319    227.7440    202.6188   8.4752299394e+01  -2.4206176236e+00    0.3039798    0.2734666 -82.62  0.001498275    1.863    0.463
        74  -8.8633    122.1949     36.3747   6.4309896801e+01   5.0294903676e+01    0.3964452    0.2091498 -18.90  0.001485521    2.290    0.563
        75  -8.0228    133.4727     32.0946   6.0066303624e+01   4.8177751873e+01    0.2049366    0.1428761 -24.99 0.0006259113    1.505    0.335
        76 -12.6046     60.7932    143.6739   1.1154450550e+02   3.8507115568e+01     1.505374     1.194998   9.01  0.005055017    1.760    0.432
        77 -13.7987    234.9149     80.3853   5.6385825771e+01   1.5775961750e+01     2.290556     1.279616 -70.83  0.001069935    3.168    0.684
        78  -8.0268    136.2775     17.4500   5.4197715380e+01   4.9223643079e+01    0.2303492      0.12476 -23.50 0.0006356171    1.988    0.497
        79  -9.9025    216.1338    197.4221   8.5926634755e+01   2.8942875572e-01      0.28042    0.2143133  42.56  0.001124189    1.360    0.265
        80 -12.1087    217.0987    192.6887   8.4857391887e+01   8.3486929719e-01     1.008296     0.898935  45.96  0.002646079    1.343    0.255
        81 -10.2875    247.3691    195.3451   7.9932720199e+01  -4.5868014518e+00    0.2245947    0.1911697  11.75 0.0002098192    1.128    0.113
        82  -9.1700    191.2927    192.2151   8.9757305679e+01   5.5477660644e+00    0.4405501    0.2650355 -70.58  0.001471143    5.134    0.805
        83 -10.6469    217.6926    188.0238   8.3852677732e+01   1.4442855579e+00    0.3393063    0.2270797  35.28 0.0006914215    1.385    0.278
        84 -10.6948    207.0107    182.5289   8.4816807020e+01   4.2508280019e+00    0.4396751    0.3260871  73.74  0.002128399    2.337    0.572
        85 -10.2195    185.3786    184.1231   8.9431964891e+01   8.0360233584e+00    0.2465328    0.2342819  13.64 0.0002885547    1.070    0.066
        86  -8.1857    137.7203    184.3079   9.9631155736e+01   1.6980133489e+01    0.1718648    0.1569414  -3.10 0.0003785837    1.298    0.230
