#   1 NUMBER                 Running object number                                     
#   2 MAG_AUTO               Kron-like elliptical aperture magnitude                    [mag]
#   3 X_IMAGE                Object position along x                                    [pixel]
#   4 Y_IMAGE                Object position along y                                    [pixel]
#   5 X_WORLD                Barycenter position along world x axis                     [deg]
#   6 Y_WORLD                Barycenter position along world y axis                     [deg]
#   7 A_WORLD                Profile RMS along major axis (world units)                 [deg]
#   8 B_WORLD                Profile RMS along minor axis (world units)                 [deg]
#   9 THETA_WORLD            Position angle (CCW/world-x)                               [deg]
#  10 FWHM_WORLD             FWHM assuming a gaussian core                              [deg]
#  11 ELONGATION             A_IMAGE/B_IMAGE                                           
#  12 ELLIPTICITY            1 - B_IMAGE/A_IMAGE                                       
         1 -13.5814    194.5215     31.6899   6.5746517919e+01   3.3081549166e+01      2.07835     1.336842  41.32   0.01049967    2.000    0.500
         2 -13.2098    211.2239     12.2150   5.9316249409e+01   3.1441544340e+01    0.8121361    0.6362518  -7.21  0.001454855    1.965    0.491
         3 -12.0156      2.4637     14.3038   1.1349871566e+02   7.0832641926e+01    0.7354132    0.2098338 -49.52  0.003248107    4.078    0.755
         4 -12.9576    204.5853     17.3448   6.1153686644e+01   3.2406537311e+01     1.037444    0.4615566 -33.16  0.004399327    2.443    0.591
         5 -12.7366     37.0620    226.2994   1.4209480020e+02   2.3037224518e+01    0.3481234    0.3003713 -81.17 0.0007677025    1.318    0.241
         6 -10.4522    249.4943    248.5026   1.0363125010e+02  -1.4323109392e+01    0.1994016    0.1399261 -12.31  0.001309561    1.293    0.227
         7 -10.5134    163.3383    249.7907   1.2003094045e+02  -1.1066859268e+00      0.31047    0.1710266  59.83  0.001407126    2.518    0.603
         8 -11.9944    139.0920    248.9044   1.2467661677e+02   3.1451426768e+00    0.4228555    0.3167259  44.40  0.002546859    1.134    0.118
         9 -11.2075    101.1504    249.1939   1.3211247487e+02   9.3261222043e+00    0.3528443    0.3104789  62.78  0.002204882    1.127    0.113
        10 -12.6646    108.0028    246.4706   1.3047426625e+02   8.7452575215e+00    0.8022729    0.2680059  47.38    0.0032994    2.533    0.605
        11 -11.2952     96.2138    244.5959   1.3255318246e+02   1.0982490189e+01    0.2962609    0.2629577 -87.43  0.001712833    1.206    0.171
        12 -10.4691     93.1696    250.1469   1.3373998223e+02   1.0393010535e+01    0.3062549    0.2607225  24.71  0.001821648    1.605    0.377
        13 -12.2477     88.9166    244.3736   1.3393850432e+02   1.2158527159e+01    0.6110887    0.3400195  77.87  0.002357296    2.204    0.546
        14 -12.6725      5.3588    246.0132   1.4893728528e+02   2.2610810183e+01     1.155903    0.5770569  72.08  0.007338997    1.572    0.364
        15 -14.6729     27.1443    244.7045   1.4524261580e+02   2.0470593155e+01     10.79106     2.774299  31.14    0.0273679   12.146    0.918
        16  -9.9197     26.2159    203.8241   1.4228259676e+02   2.9148440356e+01    0.1845622    0.1297516  76.56   0.00071001    1.172    0.147
        17 -10.1293    193.1470    195.0729   1.0461540872e+02   3.3697499705e+00    0.7032563    0.3365716 -63.85  0.001705445    7.634    0.869
        18 -11.5836     63.4332    193.5023   1.3332320723e+02   2.6910879912e+01    0.3843646     0.248438 -47.09  0.001435992    1.911    0.477
        19 -15.6401      8.9825    208.9200   1.4600748126e+02   2.9809535597e+01      10.7282     1.398419 -73.40   0.02278172    5.751    0.826
        20  -8.4882    181.5260    192.4003   1.0652023244e+02   6.1301067605e+00    0.1439158    0.1354161  25.77 0.0001266628    1.026    0.026
        21 -14.0156     44.2237    217.2276   1.3992624137e+02   2.4094199988e+01     1.104422     0.707065  63.83  0.005406964    1.358    0.264
        22 -11.7070     68.9680    186.2482   1.3111744099e+02   2.7834110242e+01     0.303355     0.240329 -53.41 0.0005303652    1.394    0.283
        23 -11.0930     78.5992    174.3680   1.2709262432e+02   2.9253750860e+01    0.2565268    0.2309055 -79.53 0.0002805094    1.064    0.060
        24 -13.2195     65.7541    171.8118   1.2982218281e+02   3.1744552853e+01    0.5309041    0.2830317 -45.32  0.001498159    2.260    0.558
        25 -12.0975     85.8321    165.5697   1.2385380924e+02   3.0259354615e+01    0.9825364    0.6156694  61.92  0.004502144    1.818    0.450
        26 -12.8212     67.5915    144.4472   1.2484712263e+02   3.8158484390e+01     1.016743    0.6430952  89.31  0.002979346    2.057    0.514
        27 -11.9842     57.7377    131.3390   1.2512700414e+02   4.2646473563e+01     2.107985    0.7188913 -72.07  0.004501089    8.864    0.887
        28 -11.1889    150.3097    229.1304   1.1956583441e+02   4.8083519676e+00    0.3915815    0.1903022  41.72  0.001761475    1.826    0.453
        29  -9.8887     98.8114    150.0034   1.1759591337e+02   3.1882075800e+01    0.3129721    0.2648297 -47.74 0.0007511917    1.204    0.169
        30  -9.3799    101.7408    146.0458   1.1600992826e+02   3.2324347077e+01    0.3008312    0.1865025 -36.50   0.00126364    1.979    0.495
        31 -11.9914     87.2989    149.0276   1.2043828869e+02   3.4061624823e+01    0.3000051     0.248101 -44.95 0.0005999554    1.265    0.209
        32  -9.8515     39.1572    146.8703   1.3280145149e+02   4.1068721399e+01    0.2018731    0.1591768  86.67 0.0004843561    1.231    0.188
        33 -11.5383     51.9790    236.4922   1.4017556820e+02   1.9033368866e+01    0.4380847    0.2460389  85.51  0.002128031    1.722    0.419
        34  -9.4749    109.9758    135.7166   1.1155954629e+02   3.3290831516e+01    0.3559652    0.2490333 -24.48    0.0014103    1.971    0.493
        35 -10.5635     97.3108    132.7142   1.1431554350e+02   3.6318817317e+01    0.2764128    0.2350121 -25.99 0.0003675156    1.349    0.259
        36 -11.6887     22.0657    236.6969   1.4557830749e+02   2.2645330769e+01    0.2709342    0.2154717 -54.19  0.001286831    1.848    0.459
        37  -9.0118    107.0878    122.8734   1.0931824578e+02   3.6856823435e+01    0.2088139    0.1938794 -84.97  0.001111752    1.116    0.104
        38 -10.9656    168.0011    112.9929   9.1537464839e+01   2.5874516282e+01     0.370776    0.3084956 -80.41 0.0006671533    1.349    0.259
        39 -10.9771     54.3696    229.6365   1.3910777382e+02   2.0133650530e+01    0.4544697    0.1898323  63.60  0.001996067    2.658    0.624
        40 -14.6974     52.7754    208.6279   1.3735167550e+02   2.4893685889e+01     4.981706     1.004394  50.99   0.01438839    5.818    0.828
        41  -9.3824    203.6995    111.3884   8.3934449314e+01   1.7891901241e+01    0.3593875    0.2298903  24.07  0.001392066    2.682    0.627
        42 -11.0974    242.7044     94.3077   7.3718747615e+01   1.2427868231e+01    0.2646739    0.2011601 -66.24  0.001450885    1.280    0.219
        43 -11.3332      1.8919     80.9035   1.3267140675e+02   5.9002839725e+01    0.4596943   0.09508747 -62.48   0.00178191    3.388    0.705
        44 -12.3986    100.2591    237.4809   1.3093964177e+02   1.1735869242e+01    0.5802318    0.3722576  70.45  0.002334444    1.618    0.382
        45 -10.2966    228.3006    205.0785   9.9651344893e+01  -4.7318476253e+00    0.2646601    0.2168679 -53.61 0.0006664293    1.532    0.347
        46 -10.6329    191.6510    250.0996   1.1457428612e+02  -5.8587457997e+00    0.2925405    0.1499222  31.43  0.001449046    1.827    0.453
        47 -11.1091    189.8553     15.6409   6.2424248629e+01   3.6063113797e+01    0.2382612    0.1775934 -52.04 0.0009712713    1.369    0.270
