#   1 NUMBER                 Running object number                                     
#   2 MAG_AUTO               Kron-like elliptical aperture magnitude                    [mag]
#   3 X_IMAGE                Object position along x                                    [pixel]
#   4 Y_IMAGE                Object position along y                                    [pixel]
#   5 X_WORLD                Barycenter position along world x axis                     [deg]
#   6 Y_WORLD                Barycenter position along world y axis                     [deg]
#   7 A_WORLD                Profile RMS along major axis (world units)                 [deg]
#   8 B_WORLD                Profile RMS along minor axis (world units)                 [deg]
#   9 THETA_WORLD            Position angle (CCW/world-x)                               [deg]
#  10 FWHM_WORLD             FWHM assuming a gaussian core                              [deg]
#  11 ELONGATION             A_IMAGE/B_IMAGE                                           
#  12 ELLIPTICITY            1 - B_IMAGE/A_IMAGE                                       
         1 -16.7239    174.3272     68.4339   6.9905303081e+01   3.2515632800e+01     4.836587     3.298776  56.93   0.02061322    1.486    0.327
         2 -16.7689    182.7966    107.6003   7.9151352646e+01   2.3418784831e+01     2.891655     1.874208  -1.94     0.010967    2.626    0.619
         3 -19.0869    187.8771    132.2871   8.4168221822e+01   1.7719720150e+01     8.778734     5.823057  50.34    0.0411154    1.477    0.323
         4 -12.7779    244.8165      9.1234   4.2736916985e+01   2.2509460341e+01    0.4064043    0.2652342 -85.51  0.002102004    1.579    0.367
         5 -11.8753    227.7248      6.0211   4.3548296505e+01   2.7071844228e+01    0.2236881    0.1750011 -62.53 0.0006239538    1.228    0.186
         6 -10.8684     26.1972      7.7381   9.2206592614e+01   6.9745653124e+01    0.2074195    0.1573663  -3.29  0.001168311    1.273    0.214
         7 -11.8145    248.6578      4.5891   4.1282111306e+01   2.2070732410e+01    0.3504989    0.2614196 -13.37  0.001913913    1.586    0.370
         8 -12.5496    240.7319      2.7601   4.1507358861e+01   2.4178889305e+01    0.7092688    0.1811509  67.34  0.002491068    3.390    0.705
         9  -9.9892    178.4505      5.4620   4.9160991249e+01   3.9944580827e+01     0.251749    0.1125177 -36.11  0.001001698    2.259    0.557
        10  -9.7069     90.5638    241.2460   1.1928095008e+02   1.6119387790e+01    0.1164634   0.09470571 -75.77 0.0003900599    1.472    0.320
        11 -14.1704    234.4434    245.2037   9.6524078609e+01  -6.8865603063e+00     1.732058    0.4964573  39.49  0.008019049    2.655    0.623
        12 -12.1242    201.9421    249.7027   1.0230236482e+02  -2.2470896700e+00    0.3762864    0.1659729  42.32   0.00155728    1.682    0.406
        13 -12.6100    191.1622    248.8369   1.0391728009e+02  -4.2972012965e-01    0.6348906    0.2067269  42.50  0.002456849    2.312    0.567
        14 -12.8597    190.0822    241.8247   1.0318978407e+02   5.5705338492e-01    0.5127501    0.2051746  43.30  0.002676333    1.898    0.473
        15 -12.2496    127.3157    238.2931   1.1310167281e+02   1.1154425816e+01    0.2902795    0.1818498  51.32 0.0007759246    1.219    0.180
        16 -12.2608    182.8231    237.4227   1.0380864448e+02   2.2857897268e+00    0.4631573    0.1613522  39.94  0.002140503    2.431    0.589
        17  -9.7463     80.5591    238.4880   1.2062867178e+02   1.7913437524e+01    0.1058726   0.07811311  65.93 6.405758e-05    1.047    0.044
        18 -10.1499     43.3898    238.2084   1.2626848724e+02   2.2587123260e+01    0.1360919   0.07113541  85.85  0.000893723    1.664    0.399
        19 -12.6192    233.4606    236.1563   9.5348486856e+01  -5.8366583259e+00    0.3649106    0.1982299  29.33  0.002194365    1.583    0.368
        20 -10.2709    102.2846    235.4615   1.1691007734e+02   1.5347053711e+01    0.1910151    0.1138178  82.01  0.001197922    1.858    0.462
        21 -10.6261     32.9797    235.4946   1.2764752584e+02   2.4188385227e+01     0.139383   0.07410676  50.29 0.0004942745    1.545    0.353
        22 -11.6077    216.2945    232.8917   9.7646431770e+01  -2.7210477185e+00    0.2609983    0.1387792 -24.59   0.00115106    2.504    0.601
        23 -11.0482    208.1974    233.2256   9.9027905588e+01  -1.4236282679e+00    0.1711836    0.1275334  32.34 0.0006332052    1.089    0.082
        24 -12.0336    175.9727    230.8222   1.0408528796e+02   4.2755553855e+00    0.3602921    0.2640102 -12.35  0.002268531    2.078    0.519
        25 -10.3178    249.6294    231.7784   9.2101941630e+01  -7.9270369680e+00    0.1339963    0.1009621 -29.40 0.0009484719    1.674    0.403
        26 -10.3513    187.3019    230.3026   1.0210239810e+02   2.4303750315e+00    0.1641445   0.09832409  35.55 0.0002249615    1.462    0.316
        27 -11.5480    183.4806    228.9867   1.0256677488e+02   3.2459275358e+00    0.2471182    0.1770236  49.53 0.0004421395    1.187    0.157
        28 -10.3220     69.3571    230.1327   1.2175284789e+02   2.0732366583e+01    0.1646074    0.1179568  53.66 0.0003820747    1.276    0.216
        29 -12.0966    197.0293    226.9620   9.9988920272e+01   1.2005447313e+00    0.2510918    0.2242781 -24.31  0.001203919    1.379    0.275
        30  -9.5757     52.4588    228.4139   1.2428508851e+02   2.3121471334e+01    0.1049734     0.072584  69.75 0.0001157644    1.020    0.019
        31 -13.1458    245.6185    221.9534   9.1166874583e+01  -6.3082488122e+00    0.3990398    0.2628568  16.24 0.0009773739    1.408    0.290
        32 -11.7444    203.4497    225.3911   9.8675375073e+01   3.0216232748e-01    0.2878329    0.1989548  41.14   0.00111573    1.149    0.130
        33 -10.3424    206.0342    222.0026   9.7730274269e+01   2.7629535752e-01    0.1908253    0.1491294  35.53 0.0005710687    1.014    0.014
        34 -11.3396    170.2235    224.5779   1.0423107378e+02   6.0953598073e+00    0.2070844    0.1855597  36.82 0.0008157769    1.165    0.142
        35 -11.5207    163.5320    223.9702   1.0530424309e+02   7.3218844820e+00     0.370213    0.1793793  48.02  0.001712755    1.661    0.398
        36 -12.2715    175.9448    221.8019   1.0286226166e+02   5.4962833678e+00     0.306059    0.2338438 -57.41  0.002013167    1.693    0.409
        37 -11.8949    182.6736    221.8029   1.0169919586e+02   4.3327668263e+00    0.3577973    0.2342842  34.62   0.00145651    1.389    0.280
        38 -11.1119    187.2097    221.4002   1.0085912647e+02   3.6011399370e+00    0.2805996    0.2098732  63.24  0.001778615    1.530    0.346
        39 -12.4787    131.0138    221.6309   1.1064875516e+02   1.3091830660e+01    0.4718829    0.2943922  49.55  0.002932068    1.288    0.224
        40  -9.9813    217.1892    222.1140   9.5867758451e+01  -1.6368375121e+00     0.149341    0.1285785  50.27 0.0004077579    1.330    0.248
        41 -11.6690    230.2768    219.6366   9.3296162401e+01  -3.5502946568e+00    0.5559047     0.243716  53.07  0.002520042    2.889    0.654
        42 -11.7186    128.3429    210.9044   1.0983450927e+02   1.5256318897e+01    0.2278792    0.1630946 -73.49  0.000901774    1.584    0.369
        43 -10.9738    121.2094    218.0399   1.1194157336e+02   1.5238509308e+01    0.2364139    0.1688704 -78.35 0.0009809241    1.558    0.358
        44 -12.7082    124.7442    215.6006   1.1103947658e+02   1.5070198360e+01    0.5058531    0.3536434  89.40  0.002951803    1.626    0.385
        45 -11.6326    213.2135    217.5275   9.5819913405e+01  -4.0874975577e-01    0.3857657    0.2146029  26.65    0.0018729    1.909    0.476
        46 -13.6143    218.9169    209.3447   9.3523569775e+01  -3.9081561616e-01    0.4989628    0.2942162  30.91  0.002106925    1.542    0.352
        47 -11.6991    226.1731    209.8781   9.2378563287e+01  -1.7180533947e+00    0.3730874     0.186089  42.05   0.00127193    1.665    0.400
        48 -12.1937    142.9687    216.0195   1.0786897758e+02   1.1996677117e+01    0.3306111    0.2659777 -83.97 0.0008967301    1.418    0.295
        49 -12.0424    138.1653    215.5325   1.0865810830e+02   1.2878432771e+01    0.3569525    0.2378799 -48.21  0.002195467    1.886    0.470
        50 -11.4749     59.5360    215.7800   1.2224559773e+02   2.4408756373e+01    0.2941885    0.2702112  37.01  0.002365796    1.722    0.419
        51 -10.6980    234.8740    215.2665   9.1821224340e+01  -3.8250098563e+00    0.2611068    0.1683996  22.75  0.001197111    1.427    0.299
        52 -16.1128    170.2613    199.0824   1.0052428794e+02   9.8473099518e+00     2.947024      1.60333  49.07   0.01277721    1.593    0.372
        53 -16.8194    147.2254    193.3629   1.0395968126e+02   1.4966807737e+01     4.436183     2.639057  69.15   0.02148071    2.220    0.550
        54 -11.1596    172.6865    246.9826   1.0666848217e+02   2.7616180317e+00    0.2381129    0.1303068  50.50  0.001402497    1.468    0.319
        55 -13.2412     81.3952    150.7607   1.1107921809e+02   3.4175754930e+01    0.6856509    0.3064578 -67.83  0.002817219    2.241    0.554
        56 -13.2092     97.1744    149.7123   1.0743423436e+02   3.2024683547e+01    0.5546408     0.282727 -64.87  0.001723978    1.979    0.495
        57 -12.3051    102.5119    150.4335   1.0637035554e+02   3.1015850322e+01    0.4099535    0.2238678  46.68  0.002009944    1.791    0.442
        58 -13.5806     90.6940    149.6582   1.0886157625e+02   3.3040227516e+01    0.6425401    0.3375692 -64.46  0.003157723    1.835    0.455
        59 -12.8296    100.1411    140.0937   1.0514189728e+02   3.3605251131e+01    0.3203703    0.2941423  25.77 0.0006802988    1.361    0.265
        60 -11.0891     76.9047    202.0363   1.1807934001e+02   2.4603048755e+01     0.265398    0.1450276 -76.51  0.001192709    1.814    0.449
        61 -11.0956     57.0051    145.5489   1.1572906504e+02   3.8491256450e+01    0.2195608    0.1507029 -75.14 0.0003464485    1.236    0.191
        62  -9.6823     11.8519    143.1612   1.2510920597e+02   4.3462359599e+01    0.1356982    0.1026837 -71.44 0.0002670386    1.263    0.208
        63 -11.5408     86.9380    140.4264   1.0823347683e+02   3.5589236284e+01    0.2385193    0.1753564 -66.60 0.0003740039    1.248    0.198
        64 -12.2860    247.4072    137.4344   7.4423090697e+01   4.0304420089e+00    0.3157108     0.302738 -48.80 0.0009602396    1.274    0.215
        65 -10.3111     84.1242    192.8465   1.1582528553e+02   2.5303984909e+01    0.1880174    0.1289296  71.49 0.0005649718    1.274    0.215
        66 -11.4820     71.0524    137.7466   1.1146880859e+02   3.8411240725e+01    0.3031632    0.1700082  60.92    0.0015148    1.992    0.498
        67 -10.0666     42.0420    138.4866   1.1816164138e+02   4.1683265183e+01     0.152135    0.1152914  40.60  0.001016413    1.556    0.357
        68 -11.9432     79.5351    128.5513   1.0797432314e+02   3.9264644146e+01    0.5196283     0.216185 -45.55  0.002086702    2.929    0.659
        69  -9.5397     69.3263    203.3142   1.1953796521e+02   2.5382765435e+01   0.09420869   0.08885831 -50.89 0.0007043016    1.668    0.400
        70 -11.6798     87.5279    128.2526   1.0599372625e+02   3.8161211056e+01    0.3008846    0.2331848 -18.09  0.001606008    2.011    0.503
        71 -13.0101    101.7163    126.2300   1.0218087877e+02   3.6354941752e+01    0.4681074    0.3523381  71.44  0.002499744    1.450    0.310
        72 -11.4667     94.9322    124.0492   1.0340266809e+02   3.7938083964e+01    0.3275293    0.1664921  57.24  0.001371295    2.427    0.588
        73 -10.9872     45.7741    201.2327   1.2343912051e+02   2.8664658750e+01    0.2208627    0.1470849 -73.37  0.001078358    1.460    0.315
        74  -9.2489     63.6940    122.2951   1.1077618600e+02   4.2758432821e+01    0.1276047   0.08796029  79.74 0.0002853722    1.583    0.368
        75  -9.7466     68.6701    120.7311   1.0928006709e+02   4.2472283266e+01    0.1197009   0.09602547 -34.58   0.00025145    1.582    0.368
        76 -10.8984     34.1770    118.1222   1.1739430635e+02   4.6879072256e+01    0.1754404    0.1324977 -64.30  0.000332152    1.180    0.153
        77 -11.3869     92.7515    116.5440   1.0244366726e+02   3.9937072274e+01    0.3402108    0.2308943   5.87  0.001345683    2.887    0.654
        78 -15.1697    207.0379    179.9422   9.0433463391e+01   5.8083755156e+00     2.424982     1.113105 -21.69  0.005277717    4.070    0.754
        79 -11.2945    249.3762    114.2505   6.8717235858e+01   7.0382220576e+00    0.3774034    0.2736553  13.55  0.001898734    1.574    0.365
        80 -10.9374      5.6148    113.7964   1.2372832355e+02   5.0069471951e+01    0.1598727   0.08015595 -84.06 0.0004055426    1.637    0.389
        81 -11.0968     85.5171    101.2430   1.0103946841e+02   4.4431194121e+01    0.4237335    0.1606349 -58.44  0.001607778    2.629    0.620
        82 -11.1941    241.5127    104.0890   6.7500594637e+01   1.0290910379e+01    0.2676968    0.2277419 -14.48 0.0004825078    1.134    0.118
        83 -10.8075     91.4688    190.4953   1.1418595158e+02   2.4683787459e+01     0.121663   0.09815606  73.45 1.611618e-05    1.004    0.004
        84 -10.0733    245.8042    100.8787   6.6030456714e+01   9.8250796153e+00    0.1956359    0.1677846 -34.52 0.0002595791    1.128    0.113
        85 -13.4050    243.1916     95.5110   6.5101660535e+01   1.1224972982e+01    0.4585099    0.3673295  67.24 0.0007280562    1.441    0.306
        86 -15.9154    231.5961    122.2134   7.3565200983e+01   9.6660172983e+00          1.7     1.471872  70.22  0.007644826    1.392    0.282
        87 -10.0608     72.5424     97.7080   1.0378813382e+02   4.7068369593e+01    0.1864133    0.1160428 -68.01 0.0009412257    1.605    0.377
        88 -11.6509     33.0947     94.8057   1.1415291534e+02   5.2080574999e+01    0.2156683     0.151623 -64.61 0.0002928122    1.122    0.108
        89 -10.8741     74.9650     93.3722   1.0214650597e+02   4.7689875944e+01    0.2260945    0.1907398 -73.45 0.0003699327    1.161    0.138
        90 -10.4721     31.8088    187.0982   1.2479785416e+02   3.2844794631e+01    0.1608489    0.1069451  75.96 0.0003491484    1.149    0.130
        91 -10.6888    248.9506    185.1488   8.4106017218e+01  -2.6889915405e+00    0.3967413    0.1212857  37.16  0.001483892    3.283    0.695
        92  -9.6874    242.9521     88.3934   6.3344916625e+01   1.2359586001e+01    0.1926596    0.1799667  -5.16  0.001086311    1.055    0.052
        93 -11.2457    226.6702    198.9209   9.0409511127e+01  -4.5313797849e-01    0.2864771    0.2514566  52.29   0.00146516    1.365    0.268
        94  -9.9115    230.3452     85.7387   6.4627737543e+01   1.5717101589e+01    0.2884334    0.1768538  31.03 0.0004739533    2.054    0.513
        95  -9.7092     96.3244    185.2935   1.1263704226e+02   2.4947466252e+01    0.1058068   0.09945071  -6.91 0.0003023571    1.618    0.382
        96 -12.9783    156.9623    244.5025   1.0893092625e+02   5.6053489794e+00    0.3151186    0.2754064  34.93  0.002448203    1.284    0.221
        97 -10.8982    107.3058     82.8985   9.0449806531e+01   4.4720687230e+01    0.2014061    0.1731846 -41.08 0.0004166978    1.095    0.087
        98 -12.6961    222.5789     76.9102   6.3536743662e+01   1.8975925009e+01    0.4303663    0.3299682 -67.45  0.001223044    1.566    0.361
        99 -13.1293    109.8006     76.7687   8.8004026879e+01   4.5507820682e+01    0.6219003    0.4112236  57.88  0.002821013    1.839    0.456
       100 -12.0187    106.9682     69.5134   8.6603130998e+01   4.7485763573e+01     0.428454    0.3265853 -85.40  0.000922491    1.936    0.484
       101 -10.6108     92.4588    183.4681   1.1316187374e+02   2.5881541629e+01    0.1230687    0.1013648  75.21 4.317105e-05    1.006    0.006
       102 -10.3032    225.4741     72.1213   6.1785018129e+01   1.9003817171e+01    0.3391891    0.1466377 -28.70  0.001239562    2.332    0.571
       103 -10.1483    240.9466     72.6295   5.9596002763e+01   1.5187299654e+01    0.2424883    0.1964982 -13.58 0.0008130923    1.290    0.225
       104 -11.9433    118.5519     70.9666   8.3876487403e+01   4.4941061743e+01    0.2952369    0.2733362 -23.76 0.0006151994    1.048    0.046
       105 -10.8567    100.1754     71.3579   8.9089804044e+01   4.8362497870e+01    0.2467574    0.2107187 -47.25   0.00040283    1.108    0.097
       106 -11.5058     85.8009    180.9777   1.1415668143e+02   2.7345294262e+01    0.2992597    0.1694128  69.80  0.001252039    1.874    0.466
       107 -13.3227     87.3897    174.0477   1.1298996935e+02   2.8487209918e+01    0.4907623    0.2998931 -59.28   0.00278416    1.672    0.402
       108  -9.5134     63.4345     68.4926   9.9348016386e+01   5.4544913610e+01    0.1312358    0.1095233 -45.19 4.608701e-05    1.028    0.027
       109  -9.6137     43.6950     68.7164   1.0568649477e+02   5.6722307491e+01    0.1222763   0.08045109 -35.42 0.0002387154    1.560    0.359
       110 -11.4278    243.1016     65.9121   5.7548842394e+01   1.5656702430e+01    0.4800403    0.2872918 -88.49  0.001922653    2.650    0.623
       111 -11.5966      7.2252     72.6304   1.1791058984e+02   5.8703270900e+01    0.3010785    0.1429982 -67.33  0.001017218    1.551    0.355
       112 -10.2934    229.9077     62.5598   5.8536388065e+01   1.9342558510e+01     0.320874    0.2105335 -61.32   0.00142309    1.839    0.456
       113 -10.1749     48.2896    180.9720   1.2131605746e+02   3.2221221956e+01    0.1557955    0.1162869 -88.45 0.0003660327    1.107    0.097
       114  -9.7734     75.4579     62.5269   9.3836108966e+01   5.4130623979e+01    0.1341759    0.1162862 -38.76 8.542619e-05    1.005    0.005
       115 -10.6364     23.6184    198.9075   1.2699313176e+02   3.1478432956e+01     0.170561     0.112494  63.22 0.0003180289    1.222    0.182
       116 -12.5518    132.1607     59.8722   7.6783635892e+01   4.4101484864e+01    0.4415298     0.293067   3.47  0.001251166    2.293    0.564
       117 -10.3063    102.0220     60.7511   8.5233722054e+01   5.0096348777e+01    0.1873436    0.1768584 -16.82 0.0002371078    1.041    0.039
       118  -9.3858     34.2836    197.7257   1.2513441334e+02   3.0588553017e+01    0.1076049   0.05861853  70.40  0.000171111    1.504    0.335
       119 -15.8474    225.0061    178.2584   8.6882362363e+01   2.5998842972e+00     1.669588     1.428661 -31.43   0.01009199    1.313    0.238
       120 -16.6098    188.9697    169.3604   9.1808512873e+01   1.1038671504e+01     2.807395     1.855375  34.95   0.01429861    1.485    0.327
       121 -12.0379     93.4361    214.3551   1.1638362447e+02   2.0086423942e+01    0.2853273    0.2242013  46.27  0.001120737    1.372    0.271
       122  -9.7101     62.6120    173.7646   1.1787342783e+02   3.1923469945e+01    0.1570006     0.094299 -84.68 0.0003518925    1.532    0.347
       123 -10.2408    249.4398     53.0928   5.3414284930e+01   1.5955725753e+01    0.1958511    0.1843976 -68.69 0.0004259873    1.069    0.064
       124 -10.7331     56.7849     52.9759   9.7018842656e+01   5.8504812623e+01    0.1864299    0.1694752 -16.90 0.0002895058    1.151    0.131
       125 -16.3590    172.7337    155.1362   9.2211846075e+01   1.6821110802e+01     2.729957     1.514438  23.43  0.009897877    3.301    0.697
       126 -13.3802    140.5306     48.4000   7.0885447850e+01   4.4112790714e+01     0.819379    0.4728685 -44.63  0.003081236    1.852    0.460
       127  -9.5812     51.5361    245.5017   1.2549964050e+02   2.0486550623e+01     0.101583   0.06816811  68.45 3.995335e-05    1.009    0.009
       128 -12.2453    242.5384     48.4446   5.3074072064e+01   1.8240737987e+01    0.3121355    0.2674356  39.57  0.000621977    1.294    0.227
       129 -10.3042     42.4947    158.9921   1.2033706575e+02   3.7303609423e+01     0.175116   0.09390527 -74.39  0.000437636    1.562    0.360
       130 -10.4686     62.6280     47.9014   9.3398185108e+01   5.8750629648e+01     0.206417    0.1652806   2.86   0.00061083    1.389    0.280
       131 -10.4350    230.1708     47.1859   5.4343700983e+01   2.1460019703e+01    0.2088661     0.194559  23.80 0.0004803911    1.175    0.149
       132 -11.1707     79.0102    171.5519   1.1436286197e+02   3.0189376799e+01    0.2135845    0.1545744 -56.58 0.0004284973    1.548    0.354
       133  -9.7407    244.8690    170.7798   8.1972158134e+01  -1.1837543082e-01    0.1856104    0.1467002  14.99 0.0003687103    1.139    0.122
       134 -11.1019    213.8815     44.9173   5.5996155887e+01   2.5918608519e+01    0.4425355    0.2161438  33.47  0.001495678    3.249    0.692
       135 -12.3919    155.8239     44.2527   6.6058710453e+01   4.1040266500e+01    0.4412789    0.2729856 -30.11  0.001720175    1.622    0.383
       136 -11.3415    195.1859     43.7900   5.8561578388e+01   3.0947631978e+01     0.276552     0.241691  45.41 0.0003366998    1.156    0.135
       137 -10.5984    149.0538     38.4765   6.5537972592e+01   4.3564295348e+01    0.2640038    0.2044899  -4.05 0.0003648218    1.423    0.297
       138 -11.9412    148.9805     41.9874   6.6764034678e+01   4.3069389543e+01    0.4669409    0.2844656 -58.92  0.001197183    2.345    0.574
       139 -11.1529    145.7113     42.6995   6.7734206600e+01   4.3758967925e+01    0.2760814    0.2344428 -11.19 0.0005901206    1.204    0.169
       140 -11.1709    117.3164     39.9428   7.3702418359e+01   5.0665330863e+01    0.3255098    0.2235804  24.07 0.0003080878    1.657    0.396
       141 -11.0265    191.9358     40.2701   5.8026189342e+01   3.2288909352e+01    0.2049841    0.1968863  64.16 0.0006125696    1.025    0.025
       142 -11.3577    166.9111     38.9416   6.2052261793e+01   3.8999423730e+01    0.3215348    0.2738846  36.57 0.0004409768    1.178    0.151
       143 -11.2396    166.6904     32.4286   5.9936244617e+01   3.9942143934e+01    0.3939934    0.2156918 -36.66  0.001296059    1.840    0.456
       144 -12.3970    132.4949     33.9962   6.7696366706e+01   4.8168622702e+01    0.4857811     0.326043  47.17  0.002356766    1.451    0.311
       145 -10.0696     56.5468    170.5101   1.1871977783e+02   3.3330845669e+01    0.1178197   0.09269662  84.56 5.702068e-05    1.011    0.011
       146 -11.3016    181.9754     36.9764   5.8676339344e+01   3.5353225677e+01    0.2852297    0.2366646  62.97 0.0003266682    1.185    0.156
       147 -10.2249    233.2355     35.9955   5.0935612333e+01   2.2180364102e+01    0.1999926    0.1791802 -39.31 0.0004618339    1.084    0.078
       148 -11.8014     84.8587     35.2375   8.1417843938e+01   5.7650909085e+01    0.2579159    0.2005743 -27.23 0.0003155658    1.147    0.128
       149 -13.0014    199.0882     32.5195   5.4560815525e+01   3.1436046317e+01     0.344747    0.3343036 -52.47 0.0005730802    1.039    0.037
       150 -10.1655    187.8403     33.1959   5.6513334479e+01   3.4312468600e+01    0.2031536     0.169704  32.42 0.0004244022    1.273    0.214
       151 -11.5043    131.5173     37.4553   6.9188042537e+01   4.7893898928e+01    0.4533876     0.201659 -38.13  0.001779274    2.239    0.553
       152 -11.5194    214.4277     31.7278   5.2162489007e+01   2.7523744750e+01     0.261627    0.2459907  81.13 0.0003055191    1.042    0.041
       153 -10.3952    118.0455     30.6984   7.0048887620e+01   5.1887211335e+01    0.2022641    0.1793065  35.73 0.0006437001    1.118    0.106
       154 -11.1302    203.9872     27.0266   5.2224187418e+01   3.0836486377e+01    0.2867379    0.2196519 -13.70  0.000771674    1.452    0.311
       155 -11.5714    201.2559     22.5078   5.1264150876e+01   3.2097756103e+01    0.3410976    0.2119435 -32.50 0.0009265346    1.605    0.377
       156  -9.7407    234.2901     28.6865   4.8861457004e+01   2.2837351949e+01     0.148724   0.09815623 -59.54 0.0002292756    1.589    0.371
       157 -10.6986    188.6595     27.0805   5.4483395841e+01   3.4870619735e+01    0.2051681    0.1943274 -23.92 0.0007612539    1.095    0.087
       158 -11.5009    210.4558     25.3647   5.0868121792e+01   2.9344624028e+01    0.3105688    0.2162278  76.59  0.001053251    1.460    0.315
       159 -10.3113    174.9989     22.6455   5.5250453790e+01   3.9002863696e+01    0.2104079    0.1769769  62.53 0.0004389976    1.142    0.124
       160 -11.6109    229.2103     19.2210   4.6907867439e+01   2.5245098184e+01    0.3358046    0.1789572 -32.41  0.001092156    1.793    0.442
       161 -11.4837    214.2665     19.6952   4.8768841692e+01   2.9021803729e+01    0.2492723     0.229699  51.55 0.0002665256    1.132    0.116
       162 -10.5384     20.6194     18.1758   9.8995501384e+01   6.8516440500e+01    0.1583422    0.1389325 -23.26 0.0005986807    1.228    0.186
       163  -9.8555    188.6640     17.7241   5.1577419443e+01   3.5970759889e+01    0.1519793    0.1026454  38.20 0.0003911003    1.607    0.378
       164 -16.1951    213.8856    138.3113   8.0511722840e+01   1.0945910773e+01       2.2983    0.9799079  59.08  0.007778383    3.360    0.702
       165 -10.4546     50.1535     16.1628   8.5865724640e+01   6.5807457357e+01    0.1568125    0.1331373 -36.35 0.0007720164    1.321    0.243
       166 -12.4736     84.6018    166.9881   1.1264538860e+02   3.0322524872e+01    0.4212629    0.2004032  67.24  0.001800493    2.881    0.653
       167  -9.9027     12.6019     14.7704   1.0125737775e+02   6.9696503178e+01    0.1499521   0.08658587 -55.13 0.0009155162    1.620    0.383
       168  -9.7129      1.7016     15.0248   1.0628329040e+02   7.0315131410e+01    0.1510265   0.09914958 -45.92 0.0003136373    1.082    0.076
       169 -10.6195     89.8802     13.8369   7.1037981671e+01   5.9853223773e+01    0.2008398    0.1564302   5.26 0.0004420518    1.190    0.159
       170 -10.6982    222.0005     13.0350   4.6025274113e+01   2.7776770808e+01    0.1703151    0.1561775 -86.64   0.00041135    1.025    0.025
       171 -11.8287    248.2271    159.3110   7.9048963624e+01   7.9103361121e-01    0.2184569    0.2068665 -20.33 0.0003352064    1.250    0.200
       172 -12.0993     86.4608    158.9843   1.1116522673e+02   3.1705991794e+01    0.2446644    0.1800886  49.70 0.0008059481    1.348    0.258
       173 -12.4485    214.2343    243.3859   9.9482205082e+01  -3.5297456201e+00    0.2662296    0.1708684  36.38  0.001787682    1.177    0.151
       174 -11.3060    201.8120    243.0914   1.0144780767e+02  -1.4983828280e+00    0.1644493    0.1285798  46.53 0.0003572854    1.187    0.158
       175 -10.0879    120.9988    243.0063   1.1459933437e+02   1.1435778849e+01    0.1868061    0.1043619  65.57  0.001136196    1.773    0.436
       176 -11.6398    101.5360    194.7673   1.1279336462e+02   2.2367935139e+01    0.2267867    0.1456164  49.23 0.0006341333    1.382    0.277
       177 -10.1547      2.3021    242.9137   1.3227137156e+02   2.6119807137e+01     0.128139   0.08049284  80.94  0.001130316    1.152    0.132
       178 -11.6485    208.1631    240.9741   1.0012822460e+02  -2.2915523664e+00    0.2551261    0.1282253  39.13 0.0009513822    1.531    0.347
