#   1 NUMBER                 Running object number                                     
#   2 MAG_AUTO               Kron-like elliptical aperture magnitude                    [mag]
#   3 X_IMAGE                Object position along x                                    [pixel]
#   4 Y_IMAGE                Object position along y                                    [pixel]
#   5 X_WORLD                Barycenter position along world x axis                     [deg]
#   6 Y_WORLD                Barycenter position along world y axis                     [deg]
#   7 A_WORLD                Profile RMS along major axis (world units)                 [deg]
#   8 B_WORLD                Profile RMS along minor axis (world units)                 [deg]
#   9 THETA_WORLD            Position angle (CCW/world-x)                               [deg]
#  10 FWHM_WORLD             FWHM assuming a gaussian core                              [deg]
#  11 ELONGATION             A_IMAGE/B_IMAGE                                           
#  12 ELLIPTICITY            1 - B_IMAGE/A_IMAGE                                       
         1 -11.5833    191.6722     22.2104   6.7653418783e+01   3.4065556693e+01    0.5790625    0.4240255 -11.74  0.002625644    1.658    0.397
         2 -14.4371    201.1594     13.8065   6.4154950269e+01   3.2493790584e+01     2.916665     1.584394  31.26   0.01198917    2.831    0.647
         3 -11.7669      2.0935     24.6452   1.2825381896e+02   7.0371694603e+01    0.3934761    0.1509878 -54.38  0.002139833    1.920    0.479
         4 -13.5941      3.5005      7.5729   1.2104922615e+02   7.3307656125e+01     1.308936     0.808717 -27.42  0.009107479    1.263    0.208
         5 -12.3798    248.7578    240.5119   1.0836718089e+02  -9.5669330405e+00    0.4559097    0.3408839  17.28  0.003310402    1.063    0.059
         6  -9.0745    205.3269    250.3163   1.1735953879e+02  -4.1063843294e+00    0.1209856   0.07372344  18.09  0.000704483    1.674    0.403
         7  -9.5669    184.1626    250.5863   1.2117603632e+02  -7.9257783197e-01    0.1738217   0.08672059  32.81 0.0004242192    1.681    0.405
         8 -12.3703    147.7037    248.5944   1.2756461434e+02   5.3507817586e+00     1.009186    0.4276063  34.40  0.004823721    2.262    0.558
         9 -12.1586    145.6292    241.6665   1.2711771164e+02   6.6920140396e+00    0.6440698    0.3606418  29.33   0.00187347    1.950    0.487
        10 -12.0576     96.4191    239.2347   1.3603241299e+02   1.4789164360e+01    0.7216097    0.4150646  84.81  0.004043777    2.255    0.557
        11 -11.3951    104.6939    238.2378   1.3440132141e+02   1.3717916392e+01    0.4674776    0.2529886  42.34   0.00269707    1.498    0.332
        12 -12.7579    134.0952    225.9434   1.2737187801e+02   1.1059254494e+01    0.6022527    0.4565052 -84.41  0.003712102    1.683    0.406
        13 -12.7482    109.6039    230.2699   1.3264180458e+02   1.4299018987e+01     1.206571    0.3563985  47.86  0.004965383    2.761    0.638
        14 -12.2682    111.6744    248.4168   1.3412708875e+02   1.1027476082e+01     0.953411    0.3034506  42.98  0.004414191    2.338    0.572
        15 -11.8634     99.8452    246.7893   1.3611079644e+02   1.3050680495e+01    0.5076505    0.3883821  60.80  0.003644306    1.082    0.075
        16 -11.1478    124.7831    249.4355   1.3184996326e+02   8.8588613600e+00     0.567974    0.1990794  38.59  0.002600234    2.416    0.586
        17 -12.6737    125.4235    241.8058   1.3091060989e+02   9.9268284585e+00    0.7135311    0.5384297  15.98  0.004452896    1.887    0.470
        18 -11.7571    135.6725    241.0372   1.2890732873e+02   8.4051634042e+00    0.3595581    0.2805387  28.44  0.001536189    1.381    0.276
        19 -12.0541    135.0969    236.7195   1.2850582602e+02   9.1650869429e+00    0.3556968    0.3439344  69.26  0.001518416    1.260    0.206
        20 -10.7270    109.8833    222.6884   1.3174405255e+02   1.5566483778e+01    0.3659382    0.2154346  45.75 0.0009602842    1.374    0.272
        21 -10.1755    104.9462    218.9331   1.3229467626e+02   1.7013859541e+01     0.211807    0.1589777  59.68 0.0002998744    1.125    0.111
        22 -11.1610     92.6595    226.0101   1.3545624068e+02   1.7622354200e+01    0.5725136    0.2468606  58.71  0.002560087    2.422    0.587
        23 -12.4857     98.9245    223.3580   1.3396815675e+02   1.7152113740e+01    0.8255394    0.3750944  53.86  0.001435876    1.963    0.491
        24 -11.3066     87.6208    249.4057   1.3852071209e+02   1.4391032102e+01    0.4741544    0.3316843  58.42  0.003357995    1.079    0.073
        25  -9.6512     83.6010    242.2438   1.3863704548e+02   1.6130496045e+01    0.2269502     0.196951 -34.94  0.001358695    1.897    0.473
        26 -11.2883     90.2887    236.2899   1.3689088329e+02   1.6181354713e+01    0.5440781    0.2013091  50.43  0.002649259    2.168    0.539
        27  -9.6417     83.5143    238.4362   1.3832739909e+02   1.6784255255e+01    0.3240827    0.1228331  50.60   0.00163275    2.072    0.517
        28  -9.3588     86.3179    237.2781   1.3771268404e+02   1.6583900865e+01    0.1947215    0.1423498  57.97 0.0002877709    1.037    0.036
        29 -14.6428     26.8130    156.8597   1.4258541089e+02   4.0011813570e+01     2.899384     1.346393 -48.11   0.01354087    2.811    0.644
        30  -9.4305    119.4081    237.7092   1.3158762393e+02   1.1527452067e+01    0.3246368    0.1708944  76.23  0.001374006    3.769    0.735
        31 -10.2932     73.4649    238.3221   1.4013919960e+02   1.8191878237e+01    0.3958965    0.1317209  57.51  0.001728185    3.087    0.676
        32 -10.9578     98.5721    231.5373   1.3488071129e+02   1.5772391839e+01    0.2895382    0.2469655  82.83 0.0008788156    1.222    0.182
        33 -14.6942     27.5329    247.6100   1.4856242196e+02   2.2210834997e+01     1.635055    0.6639239  37.35  0.009748077    2.376    0.579
        34 -10.4868    165.5493    235.4796   1.2256644603e+02   4.2875416991e+00    0.2218722    0.2167799  12.01  0.001312951    1.268    0.211
        35 -10.6751    162.0139    232.8155   1.2287366886e+02   5.2713421433e+00    0.2836912    0.1748734  62.28  0.001402777    2.144    0.534
        36 -11.5912    121.9455    233.0434   1.3058364289e+02   1.1882215389e+01    0.3313833    0.2301941  48.79  0.001117253    1.128    0.114
        37 -10.2123    108.2680    242.4769   1.3416231568e+02   1.2484071208e+01    0.1887831    0.1587675 -85.66    0.0013679    1.358    0.264
        38 -10.8551    156.7637    231.4679   1.2369514680e+02   6.3615444495e+00    0.2145764    0.1929225  39.74 0.0002940582    1.140    0.123
        39 -11.4073    141.8205    230.4118   1.2643676759e+02   9.0447485942e+00    0.3605497    0.2630472 -32.72  0.001672877    1.922    0.480
        40 -10.6003     84.5974    229.9064   1.3736523330e+02   1.8107050886e+01    0.2245653    0.2094581  55.78 0.0009213473    1.339    0.253
        41 -10.6181     73.9153    230.9052   1.3944732628e+02   1.9423647197e+01    0.3178425    0.1834215  30.22  0.001781003    2.207    0.547
        42 -10.9041    165.4289    227.3202   1.2144936006e+02   5.5032912379e+00    0.4207452    0.2604006 -67.05  0.002113018    2.835    0.647
        43 -10.0602    160.5617    224.0216   1.2192301444e+02   6.8453103085e+00    0.2337438    0.1801341  20.43 0.0008063496    1.405    0.288
        44  -9.3190    164.5484    220.4454   1.2062103333e+02   6.7024291439e+00    0.2067972    0.1613596 -24.90 0.0006087479    1.621    0.383
        45  -9.4329    150.8392    229.9076   1.2462685334e+02   7.6038609298e+00    0.2543662     0.132617  56.47  0.001226386    2.156    0.536
        46  -9.9774    190.8886    228.0781   1.1670646276e+02   1.0299978567e+00    0.1864627    0.1476593  32.64 0.0002921383    1.025    0.024
        47  -9.7396    180.8427    229.6432   1.1883836299e+02   2.5237979413e+00    0.1694682    0.1409645  20.26 0.0005411938    1.166    0.142
        48 -10.9133    117.2763    224.3797   1.3048475933e+02   1.4089475710e+01    0.2542759    0.1900517  42.29 0.0004064461    1.184    0.155
        49  -8.8806    219.9936    223.5011   1.1060001058e+02  -3.2399655115e+00    0.1768059    0.1007386  37.32 0.0009824745    1.445    0.308
        50  -9.3213    155.9626    223.5051   1.2275012521e+02   7.7228712210e+00    0.1952463    0.1046662  42.24 0.0003420051    1.500    0.333
        51 -10.2963    150.0219    222.5444   1.2378467850e+02   8.9028898560e+00    0.2136729    0.2042904 -30.05  0.001473206    1.296    0.228
        52  -8.7162    149.5293    218.5459   1.2332150473e+02   9.6360771297e+00    0.1312894    0.1068472  43.36 0.0001041731    1.006    0.006
        53 -12.0096    142.1705    221.2631   1.2516359906e+02   1.0462994344e+01    0.3638501    0.3389487  64.64   0.00249122    1.178    0.151
        54 -11.5160    138.7591    214.0406   1.2485644548e+02   1.2268107594e+01    0.5606117    0.3116252  29.68   0.00189407    2.059    0.514
        55  -9.6136     34.8625    219.4499   1.4575529208e+02   2.6369109997e+01    0.3101592     0.106703 -62.41  0.001565179    3.119    0.679
        56 -12.4141     42.0484    236.7740   1.4556364185e+02   2.2424562968e+01    0.5170929    0.2146562  60.29  0.001252254    1.982    0.495
        57  -9.8354    101.2136    216.1850   1.3272932504e+02   1.8096717100e+01    0.2388209    0.1572747  64.97  0.001110519    1.451    0.311
        58 -10.5562    102.2470    212.1427   1.3205608250e+02   1.8681990055e+01     0.370367    0.2074181  66.24  0.001436605    2.027    0.507
        59 -10.6762     88.3496    212.9842   1.3496135448e+02   2.0647729851e+01    0.2403942    0.1953001  83.83   0.00040756    1.186    0.157
        60 -12.2682    131.8804    211.6348   1.2592708809e+02   1.3877593552e+01    0.3403915    0.2815662  13.53 0.0003815519    1.548    0.354
        61  -9.5466    152.1235    211.8938   1.2183256986e+02   1.0279333104e+01    0.1972723    0.1587027  57.22 0.0005086251    1.230    0.187
        62 -13.0922     13.9935    239.0727   1.5034388505e+02   2.5070029912e+01    0.3626966    0.2020434  48.00  0.001954185    1.463    0.316
        63  -8.9361    197.7880    208.1757   1.1215901289e+02   2.6310794639e+00    0.1731589    0.1284733  21.67 0.0002931925    1.244    0.196
        64 -10.6429    174.4537    205.8741   1.1636871377e+02   7.2199163847e+00    0.3559968     0.273842  24.26  0.001247326    1.265    0.209
        65 -11.6636     92.9458    205.0414   1.3314275330e+02   2.1474054622e+01     0.630454    0.3036756  46.44  0.001602961    1.744    0.427
        66 -11.5626    247.3386    205.3650   1.0259434118e+02  -5.4267946908e+00    0.4384347     0.234677  20.68  0.002262102    1.912    0.477
        67  -9.2253    163.9908    206.4670   1.1858193534e+02   9.0395394333e+00    0.2630302    0.1692615  83.08  0.001058621    3.586    0.721
        68  -9.8617    125.8015    205.8255   1.2638416816e+02   1.5970178721e+01    0.1819593    0.1355511  62.45 0.0004157498    1.303    0.233
        69 -10.2278    120.4334    199.8116   1.2667900340e+02   1.8015074483e+01    0.5321452    0.2268292  57.74  0.001936863    3.111    0.679
        70  -9.2940    113.3888    203.7211   1.2870282404e+02   1.8462818378e+01    0.4348204    0.1828688 -71.19  0.001548186    4.385    0.772
        71 -10.1844    115.2004    200.4197   1.2787749850e+02   1.8788280712e+01    0.2144189    0.1788068 -86.24 0.0002029894    1.283    0.220
        72  -9.9441    149.5361    204.2853   1.2121002333e+02   1.2043397292e+01    0.2726959    0.2054052  -0.96  0.001061174    1.933    0.483
        73 -10.8343    103.0177    202.9466   1.3078559506e+02   2.0303293790e+01    0.7029563    0.2864582  57.51  0.002552069    3.007    0.667
        74  -9.2968    100.4946    198.4208   1.3075047945e+02   2.1588837804e+01    0.2459746    0.2089201  18.23 6.719247e-05    1.560    0.359
        75 -10.7948     99.1406    195.1173   1.3061882678e+02   2.2459825349e+01     0.468175    0.2973273  26.55  0.001530096    2.045    0.511
        76  -9.1983     75.6678    203.3824   1.3653267814e+02   2.4336058159e+01    0.3470454    0.1904831  30.95  0.001777468    2.184    0.542
        77  -9.3045    224.9194    202.6628   1.0607867236e+02  -1.3708387493e+00    0.1789815    0.1364798  29.45 0.0003819529    1.125    0.111
        78  -9.3204    166.9604    203.0503   1.1742253412e+02   9.0598477977e+00    0.1897371    0.1549322  41.25 0.0003005649    1.050    0.048
        79 -10.3192    169.7946    200.2090   1.1637011573e+02   9.0061355459e+00    0.2333185    0.1941594  28.40 0.0003546673    1.116    0.104
        80  -9.8436    133.1491    202.7706   1.2440866634e+02   1.5249336840e+01    0.2003909    0.1978415  33.29 0.0002213112    1.197    0.165
        81 -10.2918    133.9814    197.7657   1.2348868085e+02   1.6024435959e+01     0.295612    0.2133642 -77.42 0.0003848982    1.772    0.436
        82 -10.5457    197.3570    200.8704   1.1096668120e+02   3.7903164883e+00    0.3858623    0.1957853  43.26   0.00183056    1.734    0.423
        83  -8.9712    158.5264    199.5204   1.1858347593e+02   1.1220685840e+01    0.1378106     0.117518  42.40 4.111194e-05    1.016    0.016
        84 -10.3333     86.0608    197.0962   1.3366677943e+02   2.4081790556e+01    0.4285987    0.1743385 -65.87  0.001263914    2.665    0.625
        85 -10.0506     82.8771    193.6954   1.3395026356e+02   2.5241305793e+01    0.3130582    0.2253582   6.48  0.001012736    2.612    0.617
        86  -9.4204    192.2066    198.0069   1.1146868077e+02   5.1781399949e+00    0.1796525    0.1598878  22.47            0    1.066    0.062
        87 -11.9821     70.3315    194.7457   1.3674240917e+02   2.6810968639e+01    0.4244528    0.3111331 -36.84  0.001720633    2.163    0.538
        88 -12.0163     75.1212    187.9305   1.3496099477e+02   2.7548724960e+01      0.32818    0.2814586  61.63 0.0008956773    1.094    0.086
        89 -10.4757    113.0314    193.5405   1.2739217327e+02   2.0490017651e+01    0.4575203    0.2575761 -66.64  0.001284133    2.096    0.523
        90  -9.3517    107.4889    196.0450   1.2893838746e+02   2.0922478813e+01    0.1793832     0.128297 -65.85 0.0006102966    1.528    0.345
        91 -10.2536    159.5989    194.1750   1.1746972948e+02   1.1953007094e+01    0.3168847    0.1967671  50.79 0.0009372989    1.528    0.346
        92 -10.8380    120.5027    193.1384   1.2570704096e+02   1.9286771621e+01    0.3453029    0.3332397 -48.50 0.0008282373    1.247    0.198
        93 -10.4708     38.4970    192.8804   1.4316934398e+02   3.1143643395e+01    0.2829956    0.1805751 -68.97  0.001804148    1.547    0.354
        94  -9.1993     30.7234    194.9071   1.4487853321e+02   3.1574756814e+01    0.1574675    0.1172928  74.21 0.0003850007    1.032    0.031
        95 -10.2347    248.5129    194.0102   1.0027934298e+02  -4.2044635729e+00    0.2875249    0.1288722  26.48  0.001266405    2.494    0.599
        96  -9.1658    177.7767    193.8282   1.1363106378e+02   8.5646282962e+00    0.2455751    0.1472045  10.15 0.0009749024    2.984    0.665
        97  -9.8089    172.9660    192.4983   1.1438654284e+02   9.7043596440e+00    0.2457073    0.1897787 -13.33 0.0008477776    1.590    0.371
        98  -9.6183     47.3726    192.8403   1.4135336175e+02   3.0133478650e+01    0.1567787     0.123744 -87.23 0.0006015374    1.162    0.139
        99  -9.7936     25.9812    192.4161   1.4563894788e+02   3.2567192269e+01    0.2111893    0.1237887  85.23  0.001329901    1.447    0.309
       100 -10.2816    191.4858    191.4449   1.1042184937e+02   6.3468286251e+00    0.2632301    0.2112994  16.43 0.0005949347    1.220    0.180
       101  -9.7142     26.0119    184.2470   1.4504571843e+02   3.4233383934e+01    0.2346547    0.1697789  42.72  0.001621946    1.452    0.311
       102  -9.8514     29.9774    182.5470   1.4409776332e+02   3.4185130589e+01     0.347097    0.1764605  60.64  0.001972302    1.772    0.436
       103 -10.7063     30.9283    190.1069   1.4448424869e+02   3.2526566969e+01    0.3535477    0.2652981  50.54  0.001408422    1.294    0.227
       104  -9.3149     29.3214    186.6534   1.4454989198e+02   3.3401674635e+01    0.2074847    0.1520512  71.13  0.000925051    1.092    0.084
       105  -9.4011    135.3346    190.1294   1.2201032073e+02   1.7219001418e+01    0.1798807    0.1676188  78.14 0.0004849166    1.131    0.116
       106 -11.5247    249.7550    187.6567   9.8848196714e+01  -3.5936450187e+00    0.3584738    0.2324579 -11.19  0.002023375    1.517    0.341
       107 -15.2737      5.8022    242.1831   1.5176303649e+02   2.5346405358e+01     1.567909    0.6217378 -81.22   0.01007077    2.249    0.555
       108  -9.6095     46.1779    187.5166   1.4112952918e+02   3.1372360692e+01    0.2323582    0.1576431  15.96  0.001315974    2.394    0.582
       109 -10.0075    175.8571    186.9843   1.1279354060e+02   1.0089365748e+01    0.2101697    0.1863587  32.53 0.0004128092    1.018    0.018
       110  -9.4710     67.4994    186.8433   1.3649974872e+02   2.8829338285e+01    0.2169223    0.1614414  21.81 0.0007716889    1.857    0.462
       111  -9.2643    154.7029    184.9778   1.1692877142e+02   1.4546143120e+01    0.1836629    0.1824287   5.95  0.000559246    1.133    0.118
       112 -10.4754    140.0644    183.1238   1.1981665756e+02   1.7687447651e+01    0.2311448    0.2026986 -73.21 0.0004073158    1.284    0.221
       113  -9.1188     86.9025    183.6057   1.3182453548e+02   2.6725803502e+01    0.4411471    0.1757104  35.97  0.001842599    2.561    0.610
       114  -9.6634     37.2348    184.1775   1.4271547169e+02   3.3077599223e+01    0.2485543    0.1362978  43.48  0.001460392    1.697    0.411
       115  -9.2427    217.4039    183.2743   1.0381120897e+02   2.7223872579e+00    0.1635124    0.1273745 -38.52 0.0003015112    1.479    0.324
       116  -9.9828     65.9827    181.9895   1.3629445394e+02   3.0056701573e+01    0.1833132    0.1560601  71.75  0.001200874    1.043    0.042
       117 -10.9983    131.9805    181.0142   1.2126552309e+02   1.9611149802e+01    0.6300445    0.3031578  33.55  0.001914969    2.307    0.567
       118 -10.0600    128.5978    179.4888   1.2177415454e+02   2.0540180982e+01    0.2277157    0.2150936  17.53 6.551734e-05    1.213    0.175
       119  -9.4741    104.1047    180.6898   1.2753198118e+02   2.4596270562e+01    0.1827963     0.153601  50.80 0.0002918445    1.098    0.089
       120  -9.5255    175.9958    179.9997   1.1146091292e+02   1.1275473353e+01    0.2152264    0.1637154   8.16 0.0003872531    1.571    0.363
       121  -9.2645     81.8079    183.8872   1.3299967546e+02   2.7429242913e+01    0.1774412    0.1487327  81.57 0.0003049668    1.081    0.075
       122 -10.3123    114.9340    177.5679   1.2457794579e+02   2.3391651955e+01    0.4210358    0.1911054 -56.60  0.001786345    2.388    0.581
       123  -9.3087     48.0852    179.6236   1.3998167063e+02   3.2809650362e+01    0.1668255    0.1052076  42.31 0.0005331034    1.546    0.353
       124 -11.6953     84.0453    175.8717   1.3145349743e+02   2.8801605358e+01    0.3670473    0.3263744  78.49  0.001033029    1.049    0.047
       125 -10.2138     29.6858    177.2422   1.4373315592e+02   3.5328125670e+01    0.2668536    0.1535717  45.49 0.0005460207    1.629    0.386
       126 -10.8087     68.9911    167.3436   1.3384363148e+02   3.2825075749e+01    0.2622279    0.1918044 -69.75            0    1.311    0.237
       127  -9.9459     77.2212    175.7325   1.3300603264e+02   2.9836521500e+01    0.2046427    0.1627567 -81.43 0.0006119974    1.197    0.165
       128 -12.1253     70.4754    174.1637   1.3435856076e+02   3.1127607343e+01    0.3600897    0.3240296  14.33 0.0009777673    1.499    0.333
       129  -9.4183    109.0975    176.1266   1.2569625303e+02   2.4706154767e+01    0.1895244    0.1484416  71.47 0.0003554022    1.287    0.223
       130  -9.6656    179.0087    174.9835   1.0985736499e+02   1.1558118567e+01    0.2099136    0.1722791  74.45  0.001095126    1.593    0.372
       131 -10.7134     80.7622    163.5459   1.3050941988e+02   3.1989631384e+01    0.2509894    0.2236704  83.31 0.0002732666    1.029    0.029
       132 -10.5906     95.7659    173.4341   1.2838762912e+02   2.7499403663e+01    0.2941235    0.2048769 -62.87  0.001132892    1.478    0.323
       133 -12.6944     89.3715    166.9755   1.2894200862e+02   2.9918453032e+01    0.8737606    0.6679705 -69.31  0.004968691    1.302    0.232
       134  -9.9508     89.5445    160.5030   1.2791123445e+02   3.1322558366e+01    0.2472093    0.1757823  78.19 0.0007749922    1.541    0.351
       135 -10.4012    236.4427    145.9792   9.2505975770e+01   4.7460543976e+00    0.3509777    0.1904521  44.07  0.001623274    1.842    0.457
       136 -11.6289    247.3116    122.9936   8.5511046970e+01   6.1010357224e+00    0.7631704    0.5453401 -87.86  0.003545023    2.510    0.602
       137 -12.0158    248.2865    113.8820   8.3259425045e+01   7.2870982409e+00     0.818543    0.4549025 -34.89  0.003856931    1.646    0.393
       138 -12.3030    248.2881    101.4837   8.0361509381e+01   9.1644441847e+00    0.9000444    0.4710543 -27.99  0.004012581    1.865    0.464
       139 -12.3943    248.9362    171.6482   9.5806440309e+01  -1.3150357733e+00    0.5392716    0.4467824  38.14  0.003343023    1.324    0.245
       140 -13.5258    244.7530    157.7853   9.3634473629e+01   1.3966896386e+00     1.944133    0.9315035 -39.91  0.008736758    2.198    0.545
       141 -12.4135    248.4709    134.3751   8.7902900117e+01   4.1541951098e+00    0.8643766    0.7024561 -37.10  0.004984524    1.255    0.203
       142  -9.6283    139.0953    173.4924   1.1835230082e+02   1.9765561230e+01    0.2183399    0.1300894  43.92 0.0004689613    1.516    0.341
       143 -13.2914     46.1803    229.0443   1.4434861500e+02   2.3306604985e+01    0.6898124    0.3605187  73.59   0.00161867    1.749    0.428
       144 -11.3329      2.0411    168.5371   1.4891328741e+02   3.9613341878e+01    0.4702899    0.1227417 -85.30  0.001870099    3.834    0.739
       145  -9.2036    183.5332    171.4480   1.0820472677e+02   1.1267087329e+01    0.1449576    0.1299071  30.98 9.325844e-05    1.011    0.011
       146  -9.1325    100.6305    170.7478   1.2683920353e+02   2.7280733900e+01    0.1845463    0.1256746 -75.02 0.0009363245    1.606    0.377
       147  -9.5262     31.5248    171.5791   1.4285683343e+02   3.6347512011e+01    0.1184604    0.0936637  79.76 7.855543e-05    1.017    0.017
       148  -8.8802    167.2077    170.0412   1.1141756022e+02   1.4845105055e+01    0.1843554    0.1186969 -42.31 0.0008617687    1.708    0.415
       149 -10.8150     43.8617    168.9338   1.3985517323e+02   3.5600451666e+01     0.317381    0.2704617 -57.97  0.001440811    1.388    0.279
       150 -10.1346     47.6944    168.3210   1.3891772686e+02   3.5296898066e+01     0.270669    0.1564147 -87.77 0.0005836087    1.685    0.407
       151  -9.6733    107.3339    168.2186   1.2484915847e+02   2.6689648150e+01    0.2212804    0.1773977  38.32 0.0004313206    1.266    0.210
       152  -9.4666     58.7255    167.7236   1.3630066321e+02   3.4091426232e+01    0.1733792    0.1247497  71.48 0.0005290841    1.287    0.223
       153 -13.0708     61.5859    245.8725   1.4279328629e+02   1.8475077627e+01      1.40561     0.584474  49.82  0.008158702    1.762    0.433
       154  -8.8904    175.6954    166.3218   1.0883152077e+02   1.3792456487e+01      0.14206      0.11638  81.35 0.0002059674    1.636    0.389
       155  -9.6213    136.2415    165.5217   1.1754831615e+02   2.1932808599e+01    0.2368213    0.2024192 -59.70 0.0002800087    1.266    0.210
       156  -9.7600     48.1358    163.9710   1.3834348888e+02   3.6203472896e+01    0.3342347     0.143963  44.62  0.001623119    2.169    0.539
       157 -12.1625    248.0361    142.6079   8.9800270812e+01   3.0107580644e+00    0.7479336    0.5612763 -26.25  0.004205149    1.234    0.190
       158  -9.8010     37.0393    162.8096   1.4079678600e+02   3.7684082252e+01    0.1903663    0.1333497  70.27 0.0006601369    1.282    0.220
       159  -9.7622    123.1927    160.8346   1.1976885438e+02   2.5413099323e+01    0.2376062    0.2174682  10.78 0.0002634954    1.284    0.221
       160 -11.0347     96.1760    158.6546   1.2598174368e+02   3.0665377032e+01    0.3658323    0.2632791 -55.96  0.001937889    1.432    0.302
       161 -10.3479     73.6974    159.7041   1.3167781871e+02   3.3872825061e+01    0.3779705     0.251667  62.02  0.001040564    1.502    0.334
       162 -10.8614     74.0380    156.6813   1.3115902609e+02   3.4505414290e+01    0.4867207    0.1852723  40.72  0.002021901    2.484    0.597
       163  -9.7774     79.0610    159.0019   1.3025913611e+02   3.3256505656e+01    0.2020542    0.1765834  79.42 0.0003823971    1.026    0.025
       164  -9.3346     52.1625    158.4693   1.3675263242e+02   3.6956343771e+01    0.1746862    0.1189195  39.70  0.001009648    1.527    0.345
       165  -9.5932     47.7205    157.8270   1.3774516963e+02   3.7619330105e+01    0.2016505    0.1683579  62.39  0.000799532    1.148    0.129
       166 -11.3344    133.7355    142.5088   1.1353041269e+02   2.7280900361e+01    0.9690679    0.3531699 -50.00  0.003298415    2.907    0.656
       167 -10.0079    132.1758    152.2390   1.1593847290e+02   2.5511901712e+01    0.2474622    0.2248775 -85.18 0.0003568954    1.163    0.140
       168  -9.1162    228.3694    155.2813   9.5980405987e+01   4.8971202792e+00    0.1841106    0.1254359 -38.97 0.0005099152    1.549    0.354
       169 -11.7376     13.7641    153.9186   1.4533209414e+02   4.1800624455e+01    0.2480495    0.1959537  74.80  0.001112376    1.112    0.100
       170 -10.3248    113.1713    152.0051   1.2057974856e+02   2.9187874816e+01    0.3462803    0.2984758  54.45   0.00100425    1.097    0.089
       171 -10.7456    102.1043    151.1043   1.2319643107e+02   3.1353122649e+01    0.3528309    0.3125371 -88.87  0.001370977    1.107    0.097
       172 -10.0583    104.8271    145.9369   1.2154652194e+02   3.2038887154e+01    0.4333332     0.253471 -64.71  0.001926861    1.880    0.468
       173  -9.7915     61.7617    152.0320   1.3356111577e+02   3.7222816899e+01    0.2345076    0.1564257  62.32 0.0008731202    1.509    0.337
       174 -10.1732     95.8953    152.6210   1.2503325356e+02   3.2061320411e+01    0.2721541    0.2045879   2.08 0.0009110934    2.108    0.526
       175 -10.8182     90.6043    150.1015   1.2594361461e+02   3.3492899373e+01    0.2383106    0.2254238 -87.88 0.0003767775    1.070    0.065
       176 -11.4979     55.2852    149.0112   1.3478010753e+02   3.8722103885e+01    0.5395348    0.3191511  73.93  0.002700408    1.938    0.484
       177 -13.2115     67.5059    144.0666   1.3092815056e+02   3.8291679253e+01    0.8506613     0.558056 -84.04  0.004414945    1.607    0.378
       178 -11.0144     33.6630    135.8775   1.3864610569e+02   4.4079899709e+01    0.2169664    0.1883205  19.42 0.0009139907    1.470    0.320
       179 -12.9635     20.1661    232.5927   1.4903812723e+02   2.5566472026e+01    0.6426531    0.3058387  87.05  0.002869228    1.850    0.460
       180 -12.7985     32.1651    141.3551   1.3967925224e+02   4.2975021592e+01    0.4410822    0.3573861 -44.53  0.002501443    1.481    0.325
       181 -14.8789     10.9395    208.5994   1.4943377967e+02   3.0865048048e+01       2.1595     1.035894 -79.98   0.01374794    1.792    0.442
       182 -14.7750     53.9683    217.2369   1.4206700356e+02   2.4532423598e+01     2.055109     1.447478  60.10   0.01420429    1.112    0.101
       183 -13.1767     28.0957    225.5007   1.4731653916e+02   2.5998099899e+01     1.414637    0.5311663  57.32   0.00791068    2.107    0.525
       184 -12.3055      2.5868    143.8341   1.4711305296e+02   4.4833924191e+01    0.4275045    0.2541516 -83.09  0.002751058    1.316    0.240
       185 -11.9995      2.9981    138.9830   1.4663773249e+02   4.5863830800e+01    0.7184037    0.2477905  63.78  0.003018311    3.724    0.731
       186 -10.6207    166.0201    241.5882   1.2329943476e+02   3.3462520725e+00    0.3421771    0.1627862  29.51  0.001205361    2.317    0.568
       187 -11.2935    133.7060    249.3482   1.3021363672e+02   7.4735520362e+00    0.6184227    0.2287947  50.61  0.002854013    2.407    0.585
       188 -10.9498     53.1127    139.6193   1.3404045352e+02   4.1140220310e+01    0.3738294    0.1961939  70.37   0.00126384    2.583    0.613
       189 -10.9143     26.4289    139.7707   1.4095175721e+02   4.3863596787e+01    0.2059766    0.1675334  39.94  0.001397899    1.401    0.286
       190 -12.1659     74.0320    138.8497   1.2836087375e+02   3.8592125177e+01    0.6821062    0.4700723 -78.71  0.003564032    1.493    0.330
       191 -11.5427     58.8189    133.3255   1.3156413100e+02   4.1908450583e+01     0.318742    0.2454089 -43.24  0.001241103    1.465    0.318
       192  -9.8413    119.2280    138.2352   1.1628611428e+02   3.1099077929e+01    0.2754691    0.2175001  -3.29  0.001175953    1.776    0.437
       193 -10.5329     13.3767    137.7850   1.4401095270e+02   4.5386356720e+01    0.1732251   0.08304696 -66.01 0.0009490263    1.710    0.415
       194 -10.7617    112.4340    136.2720   1.1763878295e+02   3.2830335197e+01    0.4167418    0.3281964  36.23  0.001470208    1.311    0.237
       195  -9.9244    134.4855    155.5510   1.1604244772e+02   2.4352680378e+01    0.2612518    0.1472824 -54.57 0.0005149468    1.944    0.486
       196 -12.4890     45.6252    131.5153   1.3488074220e+02   4.3864344379e+01    0.5655713    0.4031972  69.28  0.003106454    1.458    0.314
       197 -11.6351      2.5429    131.3412   1.4611687725e+02   4.7571947718e+01    0.4343683     0.188338 -80.79  0.002323748    1.873    0.466
       198 -12.0984      2.0839    122.9142   1.4548595893e+02   4.9463316507e+01    0.6630511    0.1253764 -76.60  0.002256942    4.544    0.780
       199 -12.0791     66.8558    127.9003   1.2843342958e+02   4.2135232892e+01    0.5163814    0.4232695  58.69  0.001668291    1.251    0.201
       200  -9.7547    117.5219    128.9769   1.1471001457e+02   3.3491399844e+01    0.2129973      0.12768 -28.53 0.0008098964    2.520    0.603
       201 -12.1801     31.7898    126.8265   1.3800136848e+02   4.6331692910e+01    0.3682648    0.2564789  41.26  0.001879217    1.566    0.362
       202 -10.4230    209.7711    125.9041   9.2721788989e+01   1.3648987381e+01    0.2944914    0.2380389 -24.24 0.0005418037    1.238    0.192
       203  -8.7127     93.3902    127.5346   1.2094960124e+02   3.8210026059e+01    0.1421892    0.1325232 -79.43 0.0001448198    1.028    0.028
       204  -9.8445     85.9239    126.7094   1.2286023108e+02   3.9620240249e+01    0.2862197    0.2178076   6.86  0.001297094    1.841    0.457
       205 -11.9312      9.5899    126.2521   1.4385551978e+02   4.8235668440e+01    0.2923504     0.148506 -70.60  0.001670954    1.548    0.354
       206 -11.6846     37.6105    123.5354   1.3594375003e+02   4.6539589082e+01    0.4290947      0.18609 -54.04  0.001516617    2.088    0.521
       207  -9.8457     50.4010    123.1413   1.3227404203e+02   4.5282775043e+01    0.1885341    0.1129139 -79.27 0.0009402831    1.714    0.416
       208 -11.3537     20.9460    120.6777   1.4019530780e+02   4.8662067180e+01    0.2909323    0.1251411 -57.36  0.001463608    1.973    0.493
       209 -12.3063     31.2859    117.2356   1.3683273209e+02   4.8586259053e+01    0.4706355    0.2699825 -48.18  0.001907635    1.756    0.431
       210 -10.9213     31.9092    110.9094   1.3571572251e+02   4.9989725809e+01    0.2404129    0.1645187  44.95   0.00125141    1.625    0.385
       211 -11.0316     12.7964    120.1767   1.4236574856e+02   4.9379097447e+01    0.1649208    0.1170569 -56.11 0.0005924414    1.348    0.258
       212 -10.6483    173.1851    239.9209   1.2174115116e+02   2.3890860099e+00    0.2371875    0.1994563 -59.74 0.0008830124    1.655    0.396
       213  -9.0468    106.1956    129.6792   1.1789786474e+02   3.5473560992e+01    0.3053868    0.1210732  47.11  0.001084351    2.616    0.618
       214  -9.3792    154.6931    172.6773   1.1468759434e+02   1.6867515797e+01     0.268297    0.1680347  28.39  0.001159027    1.817    0.450
       215  -9.6437    238.7343    122.0652   8.6677633544e+01   7.9986358494e+00    0.2327438    0.1549997  -2.37  0.001067693    1.920    0.479
       216 -11.1027    168.2469    113.4886   9.8249417578e+01   2.5618034002e+01    0.4000271    0.3308396 -83.58 0.0008727564    1.521    0.342
       217  -8.7140     72.3561    115.3105   1.2445019063e+02   4.4314601802e+01    0.1410728    0.1046105 -25.55 0.0007043342    1.732    0.423
       218 -10.3147    115.7915    239.9908   1.3251151067e+02   1.1727073924e+01    0.2201867    0.1425968  54.01 0.0007789698    1.253    0.202
       219  -9.2058    203.6725    111.6531   9.0364073077e+01   1.7525687751e+01    0.1614241    0.1173927  12.92   0.00070499    1.752    0.429
       220 -11.7040     57.0997    110.6800   1.2809908867e+02   4.7404638477e+01    0.4521984    0.2631308  19.22  0.002155691    2.295    0.564
       221 -10.4432    134.8380    105.1624   1.0420285163e+02   3.5052208408e+01    0.4083245    0.1140255 -41.14  0.001132816    3.809    0.737
       222 -10.6619     27.3116    106.0442   1.3634851886e+02   5.1501568055e+01    0.2173864    0.1488433  48.53  0.001304612    1.650    0.394
       223  -9.6072    106.1244    102.9897   1.1157025398e+02   4.1492902995e+01    0.2128046    0.2078114 -64.90 0.0002952396    1.027    0.026
       224  -8.8882     42.7284    103.6632   1.3120129434e+02   5.0635713161e+01    0.1320657   0.08515555 -42.13 0.0003324974    1.601    0.375
       225  -9.3663     62.6949     99.6791   1.2407769990e+02   4.9248104533e+01    0.1388422   0.09781772 -31.27 0.0003077252    1.635    0.388
       226 -10.6912     47.1147     90.0356   1.2704384882e+02   5.3300418841e+01    0.3366065    0.2079265  14.09 0.0009184278    2.102    0.524
       227  -9.0831     16.5687     90.5071   1.3728921145e+02   5.5829059330e+01    0.1204927   0.09699678 -68.84   5.6098e-05    1.035    0.034
       228 -10.1600      1.8116     88.6023   1.4176486762e+02   5.7101549306e+01    0.2323089   0.06346434 -68.79  0.001009038    2.598    0.615
       229 -10.0454    169.3446    248.7848   1.2362614625e+02   1.8258775071e+00    0.2604408    0.1491906  18.83 0.0007742156    2.508    0.601
       230  -9.6931    199.6973    245.9314   1.1773568856e+02  -2.7046130054e+00    0.1562611    0.1302377  23.81 0.0004009324    1.134    0.119
       231 -11.3016     81.1599    246.2508   1.3940360654e+02   1.5806253595e+01    0.4910707    0.2442005 -85.06  0.002708778    2.605    0.616
