#   1 NUMBER                 Running object number                                     
#   2 MAG_AUTO               Kron-like elliptical aperture magnitude                    [mag]
#   3 X_IMAGE                Object position along x                                    [pixel]
#   4 Y_IMAGE                Object position along y                                    [pixel]
#   5 X_WORLD                Barycenter position along world x axis                     [deg]
#   6 Y_WORLD                Barycenter position along world y axis                     [deg]
#   7 A_WORLD                Profile RMS along major axis (world units)                 [deg]
#   8 B_WORLD                Profile RMS along minor axis (world units)                 [deg]
#   9 THETA_WORLD            Position angle (CCW/world-x)                               [deg]
#  10 FWHM_WORLD             FWHM assuming a gaussian core                              [deg]
#  11 ELONGATION             A_IMAGE/B_IMAGE                                           
#  12 ELLIPTICITY            1 - B_IMAGE/A_IMAGE                                       
         1 -14.3339     51.3065     55.5170   9.1827199537e+01   6.0133877953e+01     1.760563     1.270934 -41.32   0.00747766    1.205    0.170
         2 -14.6234    148.1586     50.7300   6.0568502174e+01   4.1727027251e+01     2.751438      1.92857  82.41   0.01242749    1.820    0.450
         3 -14.5441    113.2579     69.1068   7.5468654007e+01   4.6768638214e+01     2.036949     1.409825 -51.98  0.006269713    1.605    0.377
         4 -16.0781     34.5582    110.1986   1.1133269919e+02   4.9612281563e+01     3.574301     1.363341 -66.98   0.01398247    2.255    0.557
         5 -14.9484     59.5594    114.1482   1.0444297800e+02   4.5896194715e+01     3.360553     1.798703  79.83   0.01109715    4.355    0.770
         6 -14.6653    105.5168     93.3579   8.5271436596e+01   4.3364656025e+01     2.679905     1.412686 -49.99   0.01041684    1.872    0.466
         7 -15.6967     71.4741     77.3481   9.1394798799e+01   5.2795067385e+01     2.991049     1.866209  34.30   0.01137065    1.750    0.429
         8 -13.4984    190.3020     78.2673   6.0587301297e+01   2.6662356004e+01     1.507243     1.170671  74.84  0.007011671    1.424    0.298
         9 -14.9201    182.9294     98.2897   6.7505440928e+01   2.4831277344e+01     2.685773      1.47534 -55.81  0.008740173    2.309    0.567
        10 -12.6212    214.9382     25.3783   4.2787242621e+01   2.8324756917e+01     1.021692    0.5639973  30.51   0.00288406    3.433    0.709
        11 -12.8950    176.7782     34.1037   5.0104755800e+01   3.6772941652e+01    0.9522077    0.6029788  75.95   0.00293302    1.634    0.388
        12 -13.9148    199.2084     41.7523   4.9025874769e+01   3.0087756787e+01     1.778011     1.493184 -75.88  0.007598381    1.163    0.140
        13 -14.4372    174.0993     52.0432   5.5923485977e+01   3.4969618915e+01     1.772423      1.07129 -30.91  0.005730914    1.703    0.413
        14 -13.3021    192.2596     52.3220   5.2983113941e+01   3.0329897427e+01     1.519477    0.7744498 -55.87  0.005561928    2.377    0.579
        15 -14.1512     15.1981     27.6817   9.7691025831e+01   6.9068097009e+01     1.089737    0.7968245  -5.62  0.004947781    1.337    0.252
        16 -14.7574    135.6696     73.3289   7.0824189539e+01   4.0928491246e+01     2.485647     1.893768 -66.77  0.009446664    1.646    0.393
        17 -12.6885     29.0697     12.5984   8.4049876772e+01   7.0203336620e+01    0.6947373    0.4589247 -34.88  0.003692943    1.398    0.284
        18 -13.5691     39.6502     19.3435   8.2269651672e+01   6.7927422650e+01    0.9469109    0.5409865 -22.95  0.003682053    1.626    0.385
        19 -14.0467     42.3487      6.7971   7.4793573940e+01   6.9261469382e+01    0.8981279    0.7284663  32.46  0.003541848    1.417    0.294
        20 -14.5085    231.3125     13.5014   3.8342747953e+01   2.5856624222e+01     1.591039    0.9432879 -75.99  0.005932735    1.676    0.403
        21 -12.4285    191.3662     10.6696   4.1477539684e+01   3.5765890789e+01    0.8387726    0.5525274  53.54  0.004440301    1.549    0.354
        22 -10.7483    186.6105      4.6347   4.0339306049e+01   3.7548685778e+01    0.2693516    0.2151373 -75.92  0.001255667    1.180    0.152
        23 -10.8601     82.7228    160.5167   1.0639083082e+02   3.1415010041e+01    0.4554616    0.2197965 -57.25  0.001488144    1.964    0.491
        24 -11.9448    234.1832    249.6095   8.9275213229e+01  -9.6706356774e+00    0.5355704    0.2494296  33.41   0.00304964    1.753    0.430
        25 -12.1239    240.6798    246.9680   8.7755593004e+01  -1.0263932860e+01     0.410122    0.3521657  21.00  0.002072259    1.372    0.271
        26 -14.5582     56.5428    213.4259   1.1859823727e+02   2.3337199380e+01     1.108709    0.9544989  39.65  0.007735949    1.411    0.291
        27 -14.2076      3.3870    125.3129   1.2230613303e+02   4.8436016479e+01     2.687447    0.5090914 -74.82  0.008920108    4.292    0.767
        28 -14.5319     24.7033    141.0719   1.1846647722e+02   4.3094809094e+01     1.870203     1.090055   8.05  0.009527867    2.798    0.643
        29 -14.4903     86.5723    245.8995   1.1579976841e+02   1.3154006249e+01     1.401759    0.9036422  50.14   0.00750379    1.223    0.182
        30 -15.5598     78.4858    220.5967   1.1494058484e+02   1.8959642688e+01     5.468462     1.552677  53.30   0.01952546    3.920    0.745
        31 -15.0945     23.5893    161.1952   1.2084590302e+02   3.8478579163e+01     1.891783    0.5972323 -69.45  0.005980914    2.508    0.601
        32 -15.2012     10.8032    162.9202   1.2390626889e+02   3.9211237892e+01     1.160204    0.7241169  87.43  0.004107109    1.303    0.233
        33 -14.8733     52.4758    247.9359   1.2200922280e+02   1.7306054171e+01    0.8585311    0.4013045  48.47  0.002391732    1.638    0.390
        34 -15.5374     36.1523    246.8596   1.2471552905e+02   1.9440306454e+01     1.406148    0.3722368  48.47  0.006840189    2.602    0.616
        35 -14.5367     20.6894    227.7576   1.2627256577e+02   2.4655817266e+01    0.7185205    0.3379561  71.10  0.003421485    1.812    0.448
        36 -16.5060     17.9319    210.4277   1.2576405710e+02   2.8336522649e+01     1.844828    0.9210339  68.70   0.01097509    1.693    0.409
        37 -15.6205     26.2562    198.1785   1.2335627337e+02   3.0015938428e+01     1.184046    0.5778275  78.85  0.006361847    1.950    0.487
        38 -12.8408     63.5192    159.7410   1.1105437682e+02   3.4327960345e+01     1.124581    0.5265195 -78.58  0.004611786    2.510    0.602
        39  -9.3937      3.7365    246.9655   1.2996611934e+02   2.2852753398e+01    0.1366785   0.08698374  77.99 0.0003528716    1.150    0.131
        40  -9.6937     63.4347    238.5936   1.1939149731e+02   1.7593819541e+01    0.1752029   0.09984533 -83.27 0.0005851119    1.797    0.444
        41 -10.8076    159.4941    235.7687   1.0083852913e+02   3.5881469963e+00    0.2473913    0.2274656 -87.48  0.001117482    1.361    0.265
        42 -15.0912    212.6161    185.4187   8.1920116171e+01   2.5089387770e+00     2.234387    0.9355001 -39.71  0.008477379    2.437    0.590
        43 -16.1655    202.3526    214.4444   8.9253939333e+01  -2.5800729355e-01     2.046438     1.690652  27.54  0.007836447    1.081    0.075
        44 -15.7515    197.6434    184.6867   8.4689644432e+01   5.3560908807e+00     2.715351      1.40372 -44.76    0.0103396    2.119    0.528
        45 -14.5404    119.9155     93.3731   8.1155462487e+01   4.0430056504e+01     1.732051     1.370481 -29.53  0.005491948    1.317    0.241
        46 -15.2379     74.4636    104.5422   9.7728170913e+01   4.6147849828e+01     2.153399     1.587984  56.34  0.007664534    1.596    0.373
        47  -9.2896     39.8956    233.8455   1.2326897913e+02   2.1380318219e+01    0.1441071   0.09374267  70.85 0.0003443626    1.205    0.170
        48 -14.0683     60.3608    141.4474   1.0912893007e+02   3.9140383309e+01    0.8631697    0.7669885  79.57  0.002895496    1.094    0.086
        49 -11.3348    189.1767    156.4449   8.0536157761e+01   1.2135927790e+01    0.6953741     0.390599 -30.66  0.002921883    1.970    0.492
        50 -13.4242    244.9789    139.4489   6.6383749596e+01   4.1127191433e+00    0.9857973     0.850132 -31.88   0.00291815    1.106    0.096
        51 -12.3544    233.4591    130.0642   6.6158272480e+01   7.8814828568e+00    0.7489735    0.5175086 -32.72  0.003046856    1.311    0.237
        52 -11.9294    220.6358    116.4090   6.5111187257e+01   1.2895644813e+01    0.6773396    0.5010483 -29.44  0.002131867    1.286    0.222
        53 -13.7418    212.9745    147.5190   7.3816624224e+01   8.9427138533e+00     1.347767     1.110606 -64.46  0.004938698    1.563    0.360
        54 -13.7416    212.5643    126.6098   6.9015089880e+01   1.2800037336e+01     1.122249    0.9950187 -79.22  0.003218883    1.373    0.271
        55 -13.1786    224.6748    125.7291   6.6642930665e+01   1.0408978797e+01    0.9816096    0.5547054 -34.06  0.003103079    1.644    0.392
        56 -10.8134    194.4855    146.5892   7.7230701808e+01   1.2913947728e+01    0.3740694    0.3546231  31.93  0.001353552    1.082    0.076
        57 -10.4646    134.0252    144.9998   9.0534747917e+01   2.5929059157e+01    0.3517302    0.3004834  46.03  0.001447021    1.166    0.142
        58 -11.5726    133.0704    138.1085   8.9232551148e+01   2.7678638970e+01    0.7309486    0.3489238 -51.21  0.002255668    2.124    0.529
        59 -11.3450    223.7357    142.1173   7.0609037213e+01   7.7433851757e+00    0.3618033    0.3087793  42.45  0.002019858    1.263    0.208
        60 -11.7084    109.0798    132.1091   9.4107987256e+01   3.3746737738e+01    0.6206226    0.4886025  54.53  0.001812451    1.326    0.246
        61 -14.7627    155.4071    105.9419   7.5623549343e+01   2.9831508580e+01     2.161555     1.815197 -82.15  0.006202386    1.426    0.299
        62 -13.4602    139.0204    111.6354   8.1177969754e+01   3.2332842252e+01     1.314511     1.023685 -88.88  0.005265384    1.706    0.414
        63  -8.9780     96.4988    128.5174   9.6748410117e+01   3.6853633546e+01    0.1488496    0.1395004 -47.20 -3.362074e-05    1.094    0.086
        64 -11.5996    156.5506    128.8838   8.1316719504e+01   2.4725991888e+01    0.7809142    0.5520858 -61.02  0.002941965    1.654    0.395
        65 -11.1895     14.0324    123.7356   1.1925993028e+02   4.8079896243e+01    0.4209661    0.1590689 -74.20  0.001792893    2.177    0.541
        66 -12.0973    219.6793     87.6124   5.8114287936e+01   1.8082960941e+01     1.153903    0.4123833 -39.71  0.004128112    2.492    0.599
        67 -13.4775    233.5650    108.1934   6.0998114778e+01   1.1567446946e+01     1.111954    0.8249447 -61.10   0.00565525    1.576    0.366
        68 -13.6501    225.6206     99.5574   6.0159207528e+01   1.4734384273e+01     1.298743    0.9030363  38.24  0.004243135    1.669    0.401
        69 -11.9551    249.3977    107.2239   5.8389706354e+01   8.5010309148e+00    0.7082179    0.2749989 -36.75  0.002757688    2.202    0.546
        70 -11.9901    143.4997    232.0017   1.0342469942e+02   6.8052289831e+00    0.2523155    0.2441548 -78.60  0.001775237    1.220    0.181
        71 -13.7125    172.2378     80.3076   6.4642127453e+01   3.0762466262e+01      1.87358    0.6815063 -45.95  0.005963678    2.963    0.662
        72 -10.4409    199.2508    102.8517   6.5547654883e+01   2.0127606544e+01    0.3695556    0.2864587 -27.24  0.001521488    1.308    0.236
        73 -15.9994    156.7799    206.4377   9.6971243140e+01   8.9692345713e+00     2.259951     1.362396 -54.85  0.009301096    1.983    0.496
        74 -13.8470    231.3388     85.8824   5.5921258198e+01   1.5749968099e+01     1.413456     0.995297 -83.26  0.005547935    1.882    0.469
        75 -11.5278    233.1700     67.3585   5.1117698716e+01   1.8259647039e+01    0.3505563    0.2370158  46.93  0.001766376    1.722    0.419
        76 -11.7426     90.5064     62.0038   7.9988009444e+01   5.2694387137e+01    0.3773984    0.3131554  81.24  0.001951249    1.727    0.421
        77 -11.7188     87.5109     57.4996   7.9377459348e+01   5.4092516935e+01    0.5349544    0.4429711 -67.72  0.002483625    1.613    0.380
        78 -15.8521     38.1118    204.1346   1.2146212940e+02   2.7474239164e+01     1.012599    0.7367516 -75.14  0.004297562    1.328    0.247
        79 -12.5732    127.0358    176.2294   9.8368748667e+01   2.0349323634e+01     2.028266     1.171792  85.92  0.006638418    4.204    0.762
        80 -13.1160    126.6723    184.2627   9.9830841054e+01   1.8703669779e+01     1.623463    0.9800637 -88.42  0.006345765    3.036    0.671
        81 -11.7808    120.6695    180.6710   1.0059844813e+02   2.0537208358e+01     0.602842    0.3381925 -52.02  0.002096648    1.866    0.464
        82 -12.3915    145.6904    178.1536   9.4461856047e+01   1.6466171809e+01    0.7954772    0.5016682 -61.03  0.003656778    1.884    0.469
        83 -12.0922    249.0855     57.1722   4.6785643604e+01   1.6264713046e+01    0.9034368     0.358889 -30.74  0.003669473    2.481    0.597
        84 -11.6199    242.6350     54.0507   4.6769850718e+01   1.8110094220e+01    0.5504771    0.2080794 -34.11  0.002226627    2.369    0.578
        85 -14.6972     74.0560    138.2133   1.0487362590e+02   3.8060300500e+01     1.663958    0.9963881 -57.06  0.005348676    1.529    0.346
        86 -13.4555    150.6089    167.9708   9.1396216698e+01   1.7626503336e+01     1.001961    0.7519526 -67.88  0.003081493    1.608    0.378
        87 -10.7712     60.5955     36.0331   8.0784435800e+01   6.2377225047e+01     0.352222    0.2391233   9.93   0.00140666    1.611    0.379
        88 -13.7115    142.6581    166.8354   9.2997090534e+01   1.9420440295e+01     1.120218    0.8320991 -28.33  0.003740707    1.637    0.389
        89  -9.9359     83.3146     33.3330   7.1432058965e+01   5.8877492779e+01    0.1432591   0.09716307   9.21 0.0004869329    1.685    0.406
        90 -10.5566     61.9988    181.0246   1.1414644451e+02   2.9590796744e+01    0.3590351    0.2452752 -32.87  0.001827617    2.403    0.584
        91 -11.1825     77.3939    177.7931   1.1020621958e+02   2.8196649441e+01    0.3843118    0.2580798  48.87  0.001124751    1.415    0.293
        92 -10.5102     83.5353    176.5751   1.0860455808e+02   2.7566158159e+01    0.3326676    0.2324781 -64.61  0.001050142    1.393    0.282
        93 -10.7571     67.1449    175.4148   1.1227934512e+02   3.0180325230e+01    0.2412965    0.1987085 -56.03 0.0006840947    1.352    0.260
        94 -10.2296     76.9578    165.2758   1.0854398964e+02   3.1152195261e+01    0.2179817    0.1773886 -72.11    0.0004204    1.149    0.130
