#   1 NUMBER                 Running object number                                     
#   2 MAG_AUTO               Kron-like elliptical aperture magnitude                    [mag]
#   3 X_IMAGE                Object position along x                                    [pixel]
#   4 Y_IMAGE                Object position along y                                    [pixel]
#   5 X_WORLD                Barycenter position along world x axis                     [deg]
#   6 Y_WORLD                Barycenter position along world y axis                     [deg]
#   7 A_WORLD                Profile RMS along major axis (world units)                 [deg]
#   8 B_WORLD                Profile RMS along minor axis (world units)                 [deg]
#   9 THETA_WORLD            Position angle (CCW/world-x)                               [deg]
#  10 FWHM_WORLD             FWHM assuming a gaussian core                              [deg]
#  11 ELONGATION             A_IMAGE/B_IMAGE                                           
#  12 ELLIPTICITY            1 - B_IMAGE/A_IMAGE                                       
         1 -12.5694    207.6697      3.3871   6.1646959007e+01   3.2978344820e+01     1.112505    0.6265631  63.09  0.003701393    1.592    0.372
         2 -13.1705    185.8150     27.4135   7.0368665061e+01   3.5672911364e+01     1.590858     1.240449 -17.82  0.005249926    1.567    0.362
         3 -13.0478    194.1589     21.0655   6.7556259290e+01   3.4354461546e+01     1.222814    0.9344473 -61.50  0.005495538    1.317    0.241
         4 -12.0095    200.0661     12.3202   6.4624999494e+01   3.3880415979e+01    0.6073087    0.4696426  60.67  0.001184291    1.259    0.206
         5 -10.8429     32.7018     29.9327   1.1157540710e+02   6.5473183386e+01    0.5918375   0.08749678 -44.60  0.001848749    5.940    0.832
         6  -9.3626     58.7576      9.2274   9.3157598438e+01   6.4858620435e+01    0.1857117   0.08446426 -16.23 0.0009013807    2.489    0.598
         7 -11.0478     40.1068      8.2232   9.9681142886e+01   6.7557865928e+01    0.2817152       0.1346 -23.92  0.001600673    1.927    0.481
         8 -16.0229      7.1177    238.0261   1.5120414564e+02   2.4713363449e+01     15.78862      1.05279 -73.73   0.02312314    8.410    0.881
         9 -11.7329    139.8710    246.3793   1.2891921589e+02   4.5194899938e+00    0.7331982    0.3735402 -50.21  0.003793593    2.373    0.579
        10 -10.9530    109.0742    246.0227   1.3455410246e+02   9.6889881128e+00    0.4637215    0.1477513  44.74  0.001348729    2.559    0.609
        11  -9.9213     94.0132    250.4400   1.3771427547e+02   1.1263253493e+01      0.25199    0.1604247  43.91 0.0004849318    1.469    0.319
        12 -10.6046    101.8511    249.3616   1.3621490408e+02   1.0242512298e+01    0.3670969     0.284011  58.59   0.00247316    1.062    0.059
        13 -11.5911    101.8318    243.5668   1.3560399306e+02   1.1282387520e+01    0.6805337    0.4497381  15.29  0.003057101    3.834    0.739
        14 -11.0927     96.9380    244.5043   1.3658994647e+02   1.1878351639e+01     0.397163     0.231906  57.90  0.001981205    1.435    0.303
        15 -10.8219     83.2884    244.3529   1.3901353720e+02   1.3977632324e+01    0.3363809    0.1746341 -70.59  0.001736025    2.017    0.504
        16 -14.0718     49.5359    232.0767   1.4384752005e+02   2.0986508311e+01     2.231938       1.3622  70.42  0.008224144    1.344    0.256
        17 -12.3714     51.7822    222.7612   1.4265705456e+02   2.2540796389e+01     0.498569    0.3680094 -81.25  0.001256146    1.238    0.192
        18 -14.8048     59.2725    210.6012   1.4011013565e+02   2.4053475905e+01     8.299777     1.965677  50.76   0.02731544    4.029    0.752
        19  -9.4471    167.3307    223.3174   1.2032571382e+02   3.6013591903e+00    0.1327988    0.1015173  12.01 0.0007047125    1.686    0.407
        20 -10.3091    174.1533    221.0174   1.1860557086e+02   2.7460337612e+00    0.3286725    0.1789727  62.45  0.001344326    2.802    0.643
        21 -11.3112     34.1641    205.7531   1.4440447138e+02   2.8182587201e+01    0.3398967    0.2128883  64.07  0.001444056    1.376    0.273
        22  -9.3143    226.3433    201.4306   1.0495424628e+02  -3.5729032355e+00    0.2413837      0.21453 -63.34 0.0005403216    1.511    0.338
        23 -10.2135    193.2105    195.1368   1.1018033555e+02   3.7142488038e+00     0.842111     0.400551 -62.20  0.002358487    6.004    0.833
        24  -9.5518     66.4614    195.4919   1.3702841568e+02   2.6313876979e+01    0.2551393    0.1811798  74.08 0.0006690387    1.268    0.211
        25 -11.0632     74.3077    190.7328   1.3480317691e+02   2.6250056697e+01    0.4101473    0.2653566 -45.52  0.001893058    2.034    0.508
        26 -10.9539     78.5536    184.2801   1.3303294408e+02   2.7069809480e+01    0.2920207    0.2445982 -58.61 0.0007196128    1.317    0.241
        27 -12.1501     57.8253    129.6209   1.2941888307e+02   4.2637963542e+01      1.69129    0.5916983 -72.67  0.004409373    6.323    0.842
        28 -12.1141     92.3812    165.2111   1.2697371765e+02   2.9296514615e+01     2.877863    0.8758165  51.78  0.001359007    4.510    0.778
        29  -9.5298    137.5181    171.9817   1.1768165954e+02   1.9551902983e+01    0.2325229    0.1454506 -53.55   0.00045402    1.633    0.388
        30  -9.7955     36.3186    160.6753   1.3935580462e+02   3.7869212698e+01    0.3301733    0.1319628 -71.63  0.001502832    2.161    0.537
        31 -15.6680      1.7997     80.8163   1.3673216057e+02   5.8318533202e+01     12.94238          nan -65.14   0.02125544   19.938    0.950
        32  -9.5189    134.0000    143.9850   1.1272698997e+02   2.6558917405e+01    0.4023804    0.1693863 -55.79  0.001371861    2.650    0.623
        33  -9.7143    104.1257    148.1642   1.2098801607e+02   3.1299298394e+01     0.335208    0.2871771 -47.23 0.0009078308    1.221    0.181
        34  -9.0095    106.4791    144.0564   1.1956738429e+02   3.1843567256e+01    0.3002599    0.2125301 -34.20 0.0008957336    1.742    0.426
        35 -11.5058     92.9332    147.8665   1.2373061963e+02   3.3275938040e+01    0.2858844    0.2604645 -43.52 0.0005166223    1.220    0.180
        36  -9.8562    179.4288    218.7200   1.1718119082e+02   2.1673947063e+00    0.2464633    0.1333235 -50.60  0.001155063    2.185    0.542
        37  -9.0801     41.0000    145.9709   1.3633323715e+02   4.0756970530e+01     0.217277   0.06122374 -65.76 0.0006290647    2.950    0.661
        38 -10.8023     86.4780    173.0362   1.2961524992e+02   2.8424916791e+01    0.2822293    0.2448146 -79.44  0.000464628    1.062    0.059
        39 -13.3842     67.6186    144.2426   1.2945547965e+02   3.7934960224e+01     4.203944     1.515062  55.42  0.006294764    5.213    0.808
        40  -9.4043    113.5561    134.6907   1.1576087799e+02   3.2725481294e+01     0.318366    0.2433631 -17.41  0.001218936    1.829    0.453
        41 -10.2435     69.9327    134.5832   1.2712930568e+02   3.9894081171e+01    0.2737719    0.2232424  75.46  0.000838352    1.309    0.236
        42 -10.1011    101.0154    131.7346   1.1835993354e+02   3.5694473096e+01    0.3061977    0.2430217 -23.11 0.0006762971    1.601    0.376
        43 -12.5610     74.4958    169.8913   1.3188853594e+02   3.0956919307e+01    0.4659589    0.2769671 -44.50  0.001367427    2.091    0.522
        44  -9.1272    160.8032    127.7914   1.0254175174e+02   2.4349379475e+01    0.2264183    0.1903014 -84.01 0.0008087962    1.364    0.267
        45  -9.7302    118.8148    127.4618   1.1275185734e+02   3.3380187034e+01    0.2899452    0.2013023 -16.66  0.001125028    2.282    0.562
        46  -9.0090    109.2548    122.4660   1.1407218787e+02   3.6348233999e+01    0.2438207    0.1937952 -51.09 0.0004167967    1.198    0.165
        47 -10.0829    168.4416    113.0865   9.7091109009e+01   2.5682743839e+01    0.3827824    0.3074166 -75.12 0.0009194573    1.458    0.314
        48  -9.4362     45.4936    114.4925   1.2999640153e+02   4.7547014965e+01    0.1306048    0.1089941 -60.55 0.0001191715    1.009    0.009
        49  -8.6591    204.8873    110.7979   8.9010331442e+01   1.7500464701e+01    0.3344375    0.1754444  34.23  0.001177663    2.805    0.643
        50 -13.4124     10.1664    206.6512   1.4879836148e+02   3.0524568700e+01     1.082103    0.5935956  26.44  0.005437352    2.860    0.650
        51  -8.4046    154.4785     76.4998   9.0179109404e+01   3.6121559336e+01    0.1502048      0.14742  49.33 5.361176e-05    1.016    0.016
        52  -9.9193    131.8312     55.4458   8.9062190591e+01   4.4944397794e+01     0.317975    0.2484651  83.53 0.0009375703    1.673    0.402
        53  -9.7873    125.9238     51.8360   8.9349706955e+01   4.6821176466e+01    0.2900733    0.2356393  67.49   0.00069155    1.399    0.285
        54 -10.2284    115.7878     46.1557   9.0047671083e+01   4.9859911276e+01    0.2941414    0.2415324  64.80 0.0007642811    1.408    0.290
        55  -8.9188    249.6828    249.6725   1.0937913082e+02  -1.3975463127e+01     0.121254   0.07411466   9.16 0.0007045746    1.678    0.404
        56 -10.0362    244.3673    248.3822   1.1008464413e+02  -1.3048472859e+01    0.2589193    0.1032411 -39.18  0.001263396    2.945    0.660
        57 -10.5883    148.6991    248.5094   1.2755378931e+02   2.6636223429e+00    0.2445665      0.21245  56.76  0.001266942    1.081    0.075
        58 -11.5169    126.2094    246.1040   1.3141947383e+02   6.8689126137e+00    0.4500582    0.3398426 -61.80  0.002868595    1.539    0.350
        59 -11.2027    189.7855    247.5001   1.1977562356e+02  -4.2144098155e+00     0.385354    0.1789551  41.40  0.001912508    1.782    0.439
        60 -10.0727     41.3215     17.1278   1.0304001815e+02   6.6317976761e+01    0.2274315   0.08562099 -29.71  0.001090979    2.525    0.604
        61 -10.9479    197.4327    245.2606   1.1801982504e+02  -5.1843535683e+00    0.3925411    0.1424966  36.27  0.001647293    2.559    0.609
