#   1 NUMBER                 Running object number                                     
#   2 MAG_AUTO               Kron-like elliptical aperture magnitude                    [mag]
#   3 X_IMAGE                Object position along x                                    [pixel]
#   4 Y_IMAGE                Object position along y                                    [pixel]
#   5 X_WORLD                Barycenter position along world x axis                     [deg]
#   6 Y_WORLD                Barycenter position along world y axis                     [deg]
#   7 A_WORLD                Profile RMS along major axis (world units)                 [deg]
#   8 B_WORLD                Profile RMS along minor axis (world units)                 [deg]
#   9 THETA_WORLD            Position angle (CCW/world-x)                               [deg]
#  10 FWHM_WORLD             FWHM assuming a gaussian core                              [deg]
#  11 ELONGATION             A_IMAGE/B_IMAGE                                           
#  12 ELLIPTICITY            1 - B_IMAGE/A_IMAGE                                       
         1 -15.6912     56.4085    138.3920   7.1341549482e+01   4.0319019561e+01     4.446325     2.356555  61.64   0.01622172    2.230    0.552
         2 -12.4872      1.8885     77.3546   8.5036163923e+01   6.1640446552e+01     1.111627     0.235415 -81.84  0.003223688    4.544    0.780
         3 -14.9765    233.7511     80.0912   1.7061682943e+01   1.7891453490e+01      1.81849     1.150762 -72.30  0.009555794    2.319    0.569
         4 -14.7904    125.6756     43.0336   2.2933607652e+01   4.8025472540e+01      2.28886     1.763104 -79.01   0.01097103    1.445    0.308
         5 -13.3656     96.1529     35.6464   2.7442906232e+01   5.6744770101e+01      1.26028    0.6660674 -53.23  0.004873765    2.370    0.578
         6 -13.6091    103.3484     32.3305   2.3988909658e+01   5.5419839297e+01     0.758512    0.5370746 -31.19  0.003646049    1.475    0.322
         7 -12.6425     55.1670     41.1874   4.6090043617e+01   6.4860406753e+01    0.6197189     0.513097 -63.95   0.00209969    1.386    0.279
         8 -12.6578     40.7249     22.7003   4.4484921828e+01   7.1034813770e+01    0.5345167    0.4820358 -51.47  0.003180548    1.249    0.199
         9 -14.1657      8.1490     50.5430   7.7440031685e+01   6.8358313432e+01     1.238537     0.863364  41.81  0.005356914    1.604    0.377
        10 -14.6144    191.6008     11.0059   3.6208137534e+00   3.5240674950e+01     1.260618    0.8349122 -84.18  0.006821088    1.457    0.313
        11 -12.0093    220.0435      5.0520   3.6554186184e-01   2.9498918539e+01     0.498161    0.2566459 -73.44  0.002663736    1.894    0.472
        12 -11.1605     76.0553    233.7957   7.6165338102e+01   1.7051112191e+01    0.3312924    0.2500491 -51.56  0.002238578    1.706    0.414
        13 -12.2429    232.0246    249.0815   4.8256384478e+01  -3.2097406893e+00    0.3023086     0.168665   2.81  0.002012952    1.481    0.325
        14 -12.9308    145.1768    249.3197   6.3402111680e+01   6.3105232547e+00    0.7039168    0.2022821  33.55  0.003256021    2.574    0.611
        15 -12.9567    122.3784    247.2829   6.7668678116e+01   9.3305527350e+00     0.779121    0.2765748  39.35  0.003846787    2.261    0.558
        16 -12.4717    109.2642    245.9381   7.0195008729e+01   1.1110152463e+01    0.5178841     0.330343 -64.87  0.003343073    2.185    0.542
        17 -11.3964    103.6968    239.7889   7.0769851951e+01   1.2736734716e+01    0.3738262    0.1759971  33.83  0.001798317    1.593    0.372
        18 -11.6951    102.4989    249.9923   7.1942480718e+01   1.1303143003e+01     0.364326    0.1699796  37.76   0.00178645    1.602    0.376
        19 -13.4216     93.1756    248.2983   7.3706812395e+01   1.2657340878e+01    0.6028217    0.3250237  35.29  0.002336212    1.364    0.267
        20 -13.8657     72.3009    243.8943   7.7719203755e+01   1.5770344532e+01     1.192307    0.4094926  52.97  0.005210128    3.280    0.695
        21 -14.0269     49.7974    244.2706   8.2472764891e+01   1.8161455064e+01     1.397678    0.4791127  48.90  0.007027198    2.300    0.565
        22 -11.0420     16.2710    250.1517   8.9566019340e+01   2.0421190365e+01    0.2254455    0.1038902  46.90  0.001039274    1.480    0.324
        23 -12.3843     10.2469    246.9846   9.0684688356e+01   2.1493995385e+01    0.3951326    0.2056837  51.84  0.001522903    1.378    0.274
        24 -10.2026      5.2858    243.7180   9.1603813417e+01   2.2485539315e+01    0.2692651    0.2021485  85.12   0.00184532    1.452    0.311
        25 -10.0027      1.2961    250.6790   9.2519316608e+01   2.1624106890e+01    0.1150067   0.04809113  51.33 0.0004926555    1.616    0.381
        26 -12.8306     55.7715    232.4452   8.0504286185e+01   1.9594031547e+01    0.6554415    0.2853175  55.24  0.002748846    2.195    0.544
        27 -12.3271    133.9148    233.2027   6.3807504371e+01   9.9786141673e+00    0.6330433    0.4068321  36.36  0.003974969    1.313    0.238
        28 -12.4373    138.6537    227.6556   6.2175624391e+01   1.0207184458e+01    0.6532788    0.4897525  73.27  0.003944818    2.294    0.564
        29 -11.7589    190.5068    235.0040   5.3211550796e+01   2.7651960051e+00    0.1766999    0.1468801  40.57  0.001307346    1.736    0.424
        30 -11.0598      1.7644    232.7823   9.2102747131e+01   2.4734813372e+01    0.3233058    0.1014243  73.84  0.001555812    3.078    0.675
        31 -12.6842     99.9531    206.4929   6.8128890590e+01   1.8981312370e+01    0.5224029    0.4150455 -65.03  0.002378025    1.511    0.338
        32 -13.8337     85.5614    199.4386   7.0773664335e+01   2.2290160160e+01     1.949222    0.7924768  33.91  0.008122876    2.011    0.503
        33 -12.6480     87.4232    221.0036   7.2535419990e+01   1.7938427455e+01     1.047813    0.5838071  59.43   0.00548204    2.125    0.529
        34  99.0000     78.0172    216.3029   7.4251247493e+01   1.9977920652e+01     2.082076    0.7666156  58.78  0.006898288    5.110    0.804
        35 -11.9501    116.7137    228.7679   6.6895774109e+01   1.2871119521e+01    0.3734659      0.26769  26.87  0.001488073    1.131    0.116
        36 -11.3223     41.3636    226.9421   8.3362676283e+01   2.2142294992e+01    0.3989476     0.170592  64.53  0.001974809    2.501    0.600
        37 -13.7820     41.1705    217.3447   8.2873684512e+01   2.4000050413e+01     1.138106    0.4832387  70.57  0.004990324    2.811    0.644
        38 -11.8666     36.2424    203.1015   8.3209598548e+01   2.7396083446e+01    0.5506015     0.151847  47.88  0.002237899    2.796    0.642
        39 -12.9879     65.7213    223.4625   7.7663527495e+01   2.0112871021e+01    0.8062013    0.4162344  55.23  0.004335657    1.877    0.467
        40 -11.5636      1.4076    217.0150   9.1856657453e+01   2.7751619483e+01    0.3371823   0.09889678 -87.46  0.001510736    3.479    0.713
        41 -13.1063    149.8849    212.2447   5.7841052457e+01   1.1087121019e+01    0.7216501      0.49644  32.26  0.004179294    1.247    0.198
        42 -12.3683    107.3240    213.2621   6.7214315943e+01   1.6744198144e+01    0.4956842    0.3360126 -40.52   0.00248066    1.803    0.445
        43  99.0000     50.5750    208.5491   8.0098556160e+01   2.4736126194e+01     1.204264      0.47041  80.29  0.004454147    4.397    0.773
        44 -11.2702     43.5079    196.9282   8.1012655172e+01   2.7935142377e+01    0.3328534    0.1400538  47.04  0.001111939    1.943    0.485
        45 -11.8597    239.9346    213.8500   4.1972046673e+01  -3.5953121804e-01     0.262726    0.1319677 -24.75  0.001688735    1.724    0.420
        46 -11.6504      2.4975    225.9344   9.1810492660e+01   2.5947628019e+01    0.3251543    0.1171705  56.50  0.001739608    2.051    0.513
        47 -12.9199    104.2538    179.2217   6.3550859729e+01   2.3776878761e+01      1.23885    0.4982933  49.83  0.004549606    2.994    0.666
        48 -13.0669    102.8336    172.1913   6.2872750308e+01   2.5480450063e+01    0.8379703    0.5853839  60.35  0.004234836    1.636    0.389
        49 -10.5958     39.2607    180.8857   8.0947171890e+01   3.1945450809e+01    0.6624905    0.2476753 -85.58  0.002584779    3.230    0.690
        50 -13.7382     67.6223    114.0354   6.3299753064e+01   4.5046836328e+01     2.459919     1.429198 -85.51  0.009469246    2.402    0.584
        51  99.0000     52.6059     99.3720   6.5895889826e+01   5.1101590274e+01     1.902036     1.276009 -46.71  0.008833655    1.550    0.355
        52 -12.0740     73.8031    133.9175   6.4986309721e+01   3.8992932500e+01    0.3155594    0.2856155   0.85 0.0003389189    1.279    0.218
        53 -12.6300     34.6944    128.5182   7.7391258947e+01   4.5448787101e+01     1.289734    0.5876579  48.69  0.005322951    2.148    0.534
        54 -14.2616     59.0726    165.3122   7.3963301743e+01   3.3287953018e+01     2.056363     1.201916  76.80  0.009404316    2.039    0.509
        55 -13.8143     69.9851    159.9497   7.0147398481e+01   3.3125293723e+01     1.169645    0.5475606  47.68  0.004392073    2.055    0.513
        56 -13.6236    227.6956    241.2471   4.7863626115e+01  -1.9943877510e+00    0.4740421    0.2744409  16.42  0.002904387    1.333    0.250
        57 -12.6971    157.1717    240.8985   6.0122985177e+01   5.9928868485e+00    0.4295942    0.1645233  26.73  0.002130877    2.224    0.550
        58  -9.9375     37.5263    165.4209   8.0193174249e+01   3.5768171376e+01    0.1326495    0.1188197  58.81 0.0001279947    1.056    0.053
        59 -13.1181     98.4850    143.6772   5.9264534104e+01   3.2603744883e+01      2.57747    0.3350769 -54.97   0.00575927    6.984    0.857
        60 -13.0783    103.6438    153.1138   5.9531375196e+01   2.9559990426e+01    0.9800453    0.6074535  42.83  0.004341622    1.517    0.341
        61 -13.5194    103.0795    145.6697   5.8333760339e+01   3.1356000455e+01    0.9020736    0.5695783 -41.18  0.004079193    1.794    0.443
        62 -10.6969      1.3114    145.5122   8.9750450911e+01   4.3792423771e+01    0.2631071    0.1157707 -86.49  0.001198135    2.051    0.512
        63 -12.3984     43.8543    147.7760   7.6564461985e+01   3.9451143206e+01    0.4132984    0.2747476 -12.85  0.001199619    2.260    0.558
        64 -11.3715    217.9921    138.9916   3.2022097385e+01   1.2197254718e+01    0.2101989    0.1404597  -0.86  0.001150252    1.730    0.422
        65 -11.3792      1.3966    152.0006   8.9983630914e+01   4.2178365704e+01    0.4481973    0.1117014 -86.85  0.001535074    3.794    0.736
        66 -13.7273    240.7159    122.5691   2.5403008176e+01   1.0964641834e+01    0.8468564    0.6280094  55.92  0.005458123    1.818    0.450
        67 -10.6230    200.3215    120.3211   3.0853356550e+01   1.8069862873e+01     0.137149   0.09888383   1.42 0.0007045009    1.673    0.402
        68 -13.2754      9.8617     66.7580   7.9495146054e+01   6.4060757688e+01    0.9002739    0.6333263  38.82  0.003807417    1.536    0.349
        69 -13.3050     11.4653    101.2383   8.3190278455e+01   5.4730706130e+01     1.719401    0.6499453  79.86  0.005990574    3.238    0.691
        70 -11.7442      1.4713     89.3452   8.6362940050e+01   5.8462536144e+01    0.9282578      0.14759 -80.64  0.002431023    5.501    0.818
        71 -12.7523     33.4258    234.5557   8.5468137795e+01   2.1542168801e+01    0.7492723    0.3105815 -72.14  0.004022004    2.770    0.639
        72 -13.5074     32.5315     97.7164   7.3868998425e+01   5.3948340301e+01     1.120598    0.7551823 -76.95  0.003949044    1.416    0.294
        73 -13.5190    236.9247     90.1826   1.8962077363e+01   1.5975303930e+01    0.7581977    0.5089691  46.54  0.004561539    1.803    0.445
        74 -13.6066     11.8891    166.3232   8.7576742883e+01   3.7934123433e+01     1.896757    0.4739187  50.10  0.007090044    3.138    0.681
        75 -12.9525    178.5688     92.0732   2.7738257507e+01   2.7069390751e+01     0.750901    0.3654791 -41.15  0.003167087    1.894    0.472
        76 -14.4249    166.1860     82.7568   2.7477297093e+01   3.1411189581e+01     1.525456     1.090698 -46.64  0.006789924    1.345    0.257
        77 -11.5447     37.7029     76.1263   6.7113872796e+01   5.9150441498e+01    0.6062575    0.3426867 -73.57  0.002606737    1.873    0.466
        78 -13.4777     24.8558     67.3694   7.1521574156e+01   6.2788670830e+01     1.273986    0.5615553 -74.11  0.004160892    2.370    0.578
        79 -12.7805     59.2826     56.4073   5.0496001695e+01   6.0824073519e+01    0.9034494     0.637025 -70.32  0.004136636    1.773    0.436
        80 -12.2371     39.2899     55.9981   6.0450568256e+01   6.4049710084e+01    0.4604068    0.3602164  40.46  0.002426586    1.351    0.260
        81 -14.0647    239.4686     50.3281   9.7384204488e+00   2.0644275498e+01    0.9185745     0.581199   1.69  0.004667017    2.625    0.619
        82 -15.4055     13.4967    142.0694   8.5742535905e+01   4.3807861091e+01     3.820075     1.168734  71.32   0.01197905    4.273    0.766
        83 -14.6711     14.2625    220.1643   8.9099215718e+01   2.6049422510e+01     2.459284    0.7027771  71.28  0.009881653    3.960    0.747
        84 -13.6107     23.1823    207.6177   8.6578630063e+01   2.7743780057e+01      1.40147    0.5320029  75.29   0.00626215    2.933    0.659
        85 -13.1700     26.6973    196.8817   8.5209955359e+01   2.9666457259e+01    0.7979642    0.4033521  84.15   0.00297761    2.045    0.511
        86 -11.2341     35.3275     47.3238   5.9571597169e+01   6.6645549415e+01    0.3080973    0.1945625 -37.83  0.001454932    1.623    0.384
        87 -10.8945    193.7939     33.6059   9.6866034169e+00   3.2215814219e+01    0.1887344    0.1203449 -86.78 0.0009558056    1.698    0.411
        88 -12.4638    224.0822     30.1790   6.2113426437e+00   2.6019258130e+01    0.3520938    0.2484049 -82.47  0.002148748    1.483    0.326
        89 -12.7945    221.4850     24.9170   5.1179824012e+00   2.7143171686e+01    0.3193043    0.2909034  29.24  0.001605988    1.451    0.311
        90 -11.6715     71.9217     36.2391   3.6144399789e+01   6.2392946623e+01    0.4237206    0.3537129 -15.70  0.001870751    1.314    0.239
        91 -14.8378     10.6625    183.5942   8.8658683995e+01   3.4028997729e+01     1.581014    0.9387828  69.60  0.009042118    1.466    0.318
        92 -12.2793     84.2317    230.1992   7.4080202660e+01   1.6701433729e+01    0.7057899    0.3600296  73.88  0.003200515    3.521    0.716
        93 -11.5569     81.0728    238.1884   7.5428660401e+01   1.5712377493e+01    0.4116828    0.1765575  53.11  0.001854317    2.519    0.603
        94 -11.2578     14.2125     15.9989   6.0402146288e+01   7.6040822028e+01    0.2342825     0.185696  12.69  0.001420546    1.265    0.209
