#   1 NUMBER                 Running object number                                     
#   2 MAG_AUTO               Kron-like elliptical aperture magnitude                    [mag]
#   3 X_IMAGE                Object position along x                                    [pixel]
#   4 Y_IMAGE                Object position along y                                    [pixel]
#   5 X_WORLD                Barycenter position along world x axis                     [deg]
#   6 Y_WORLD                Barycenter position along world y axis                     [deg]
#   7 A_WORLD                Profile RMS along major axis (world units)                 [deg]
#   8 B_WORLD                Profile RMS along minor axis (world units)                 [deg]
#   9 THETA_WORLD            Position angle (CCW/world-x)                               [deg]
#  10 FWHM_WORLD             FWHM assuming a gaussian core                              [deg]
#  11 ELONGATION             A_IMAGE/B_IMAGE                                           
#  12 ELLIPTICITY            1 - B_IMAGE/A_IMAGE                                       
         1 -13.8133    181.5070     40.3446   6.2806294905e+01   3.4670810008e+01     1.191058    0.8645452   1.21 0.0009387098    1.631    0.387
         2 -14.2303    191.0766     32.4007   5.8756681225e+01   3.3186537658e+01     1.357892     1.186694  -9.44  0.005048925    1.182    0.154
         3 -14.8987    200.4318     20.4753   5.3741481533e+01   3.2128412695e+01     2.385442     1.509862  23.59   0.00225005    2.040    0.510
         4 -13.0131     32.4706     14.7428   9.5488998711e+01   6.9560472893e+01    0.5028455    0.2292347 -32.93   0.00246235    2.110    0.526
         5 -10.2337     57.3110      2.3467   7.7992212163e+01   6.8059994393e+01    0.1335059   0.08603092   3.31 0.0007045649    1.709    0.415
         6 -11.4192    211.0039    180.7251   9.2826841585e+01   6.4873007836e+00    0.4019813    0.2582792  -0.50  0.001699698    1.998    0.500
         7 -16.4622     73.6105    152.5923   1.1577185739e+02   3.5003647364e+01     15.64803     7.144501  83.34   0.05301281    4.896    0.796
         8 -12.1741     76.4073    180.5937   1.1845740005e+02   2.9046706767e+01    0.3411448    0.2502289 -43.94  0.001472093    2.003    0.501
         9 -11.4279    137.7407    170.4114   1.0477137145e+02   2.1348571209e+01    0.2888931    0.2028327  35.33  0.001032289    1.467    0.318
        10 -11.1496    145.8406    168.1922   1.0278426336e+02   2.0296151673e+01    0.2543828    0.2257057 -28.68  0.001080742    1.341    0.254
        11 -12.2011     80.1295    175.2667   1.1713366657e+02   2.9557394814e+01    0.2731082    0.2255079 -62.38 0.0009245034    1.399    0.285
        12 -13.0159    195.0767    194.7625   9.7980745377e+01   7.4393501865e+00    0.7811666     0.634244 -88.46  0.004438563    2.000    0.500
        13 -10.1538    165.4989    153.4911   9.6186637556e+01   1.9159083524e+01    0.1357037    0.1254294  45.38  0.000581251    1.021    0.021
        14 -11.2313    133.6400    144.3094   1.0108486793e+02   2.6957395753e+01    0.9270972    0.2308729 -54.51  0.002518249    5.764    0.827
        15 -10.7534    174.5122    148.9736   9.3499429679e+01   1.8151319170e+01     0.252371    0.2289431  50.93 0.0008172892    1.097    0.088
        16 -11.2447    106.1167    141.8380   1.0679384098e+02   3.2330914499e+01    0.4993548     0.323105 -31.04  0.002327449    2.496    0.599
        17 -12.1443     94.0199    142.3316   1.0965525046e+02   3.4180822506e+01    0.2351907    0.2276035 -78.50 0.0003698842    1.197    0.165
        18 -10.6087    114.0634    131.6133   1.0307497849e+02   3.3091604748e+01    0.3045854    0.2490297  24.50 0.0008564501    1.516    0.340
        19 -11.6385    118.9233    127.4923   1.0111023386e+02   3.3074254029e+01    0.6223915    0.3162314 -52.06  0.002742298    1.966    0.491
        20 -10.4584    105.9367    130.6990   1.0482026763e+02   3.4697420753e+01    0.3314002    0.2555863 -88.56   0.00139256    1.397    0.284
        21 -11.0244    101.4429    128.1296   1.0541214617e+02   3.6003320085e+01    0.2735149     0.222932 -42.74  0.001217446    1.391    0.281
        22 -19.2984      7.3935    148.4444   1.2978375931e+02   4.2950865322e+01     16.36787     2.395304 -79.65   0.04871202    7.108    0.859
        23 -10.2681    160.4867    128.0117   9.1891512997e+01   2.4743773998e+01    0.2220383    0.1418846 -43.27   0.00103929    1.614    0.380
        24  -9.6062    125.6941    127.3463   9.9495067566e+01   3.1844096987e+01    0.1457759    0.1079534  87.39 0.0007042357    1.696    0.410
        25 -10.5731    135.3981    121.8504   9.6055800387e+01   3.1079042313e+01    0.5543109    0.1249698 -53.12  0.001139618    8.524    0.883
        26  -9.9750    109.4906    120.0799   1.0184421751e+02   3.6342051389e+01    0.1957327    0.1787931  62.87 0.0003419049    1.090    0.082
        27 -16.4332     54.7757    206.3301   1.2473792890e+02   2.7099693473e+01     3.272116     2.260519  71.26   0.02445407    1.120    0.107
        28 -10.0715    167.8018    112.4940   8.6664468242e+01   2.6034084831e+01    0.2818267    0.2287216 -74.37 0.0008663801    1.539    0.350
        29 -10.3269    144.5285    178.9709   1.0477583031e+02   1.8677357018e+01    0.1643909    0.1102602 -21.36 0.0007198933    2.521    0.603
        30 -10.1529    205.5096    110.0315   7.8697201492e+01   1.7999327345e+01    0.2680325    0.1938264  32.59 0.0005808846    1.435    0.303
        31  -9.4862    103.1395    110.5287   1.0138106692e+02   3.9522535110e+01    0.1925062    0.1363674  47.52 0.0009361588    1.456    0.313
        32 -10.3559    193.9041    165.6183   9.3076712196e+01   1.1731165187e+01    0.5218691    0.1908793 -42.46  0.002088487    3.103    0.678
        33 -10.0473    175.3333    229.3115   1.0629036306e+02   6.3190043662e+00    0.1112576   0.07437538  22.30 0.0003521313    1.678    0.404
        34 -10.8124    120.3399    110.5412   9.7052598274e+01   3.6362339271e+01    0.2717465    0.2390063 -67.25  0.001507314    1.122    0.109
        35 -10.7110    197.9912    176.5419   9.4355796878e+01   9.3955300342e+00     0.298515    0.2665619  17.94  0.001021996    1.065    0.061
        36  -9.3891    134.5012    102.9245   9.1732911694e+01   3.5098965063e+01    0.2305535    0.1431744 -45.31  0.001031012    1.584    0.369
        37  -9.8356     24.9528     82.3688   1.1816723251e+02   5.6020236090e+01    0.1554438    0.1368295 -73.68 0.0003805375    1.124    0.110
        38  -9.4383     67.1746     71.1354   1.0201937485e+02   5.3922968243e+01    0.1748631    0.1510808 -89.35 0.0005048665    1.295    0.228
        39 -10.4772    165.2758     65.8885   7.4057059441e+01   3.4955916945e+01    0.3359296    0.2597644 -75.11 0.0004723798    1.649    0.393
        40 -11.0485    196.9868    171.8021   9.3672970768e+01   1.0251622845e+01    0.3274101    0.2791404  -0.35  0.001191208    1.206    0.171
        41 -10.8988    173.8769    247.7857   1.0872706687e+02   4.4117544787e+00    0.1728834    0.1507461 -86.52  0.001418009    1.650    0.394
        42 -10.0911     77.1548    232.5186   1.2286719888e+02   2.0080399379e+01    0.2365787   0.08633698  38.93  0.001262793    2.535    0.606
        43 -12.1643     94.4576    238.0247   1.2048999229e+02   1.7011767725e+01    0.4094309    0.1631608  52.23  0.001550565    1.937    0.484
        44  -9.1811    154.5419     25.5569   6.2377518595e+01   4.3694946865e+01    0.1467779    0.1446448 -43.75 6.668542e-05    1.051    0.048
        45  -9.8170    101.3179    235.6743   1.1918533227e+02   1.6426950121e+01    0.1699652    0.1140493  64.32 0.0006573002    1.268    0.211
        46 -11.4287    207.5183    183.5180   9.3923739886e+01   6.7405345336e+00     0.288506    0.2476873 -34.05  0.001142762    1.376    0.273
        47 -10.9295    102.8202    238.3863   1.1917014532e+02   1.5833364940e+01    0.2151823    0.1643579  30.46  0.001335221    1.679    0.404
