#   1 NUMBER                 Running object number                                     
#   2 MAG_AUTO               Kron-like elliptical aperture magnitude                    [mag]
#   3 X_IMAGE                Object position along x                                    [pixel]
#   4 Y_IMAGE                Object position along y                                    [pixel]
#   5 X_WORLD                Barycenter position along world x axis                     [deg]
#   6 Y_WORLD                Barycenter position along world y axis                     [deg]
#   7 A_WORLD                Profile RMS along major axis (world units)                 [deg]
#   8 B_WORLD                Profile RMS along minor axis (world units)                 [deg]
#   9 THETA_WORLD            Position angle (CCW/world-x)                               [deg]
#  10 FWHM_WORLD             FWHM assuming a gaussian core                              [deg]
#  11 ELONGATION             A_IMAGE/B_IMAGE                                           
#  12 ELLIPTICITY            1 - B_IMAGE/A_IMAGE                                       
         1 -15.2161    245.8624    182.8784   2.7831936270e+01   6.3673814341e+00     4.581568     2.851136 -73.72   0.02878397    2.684    0.627
         2 -14.6471    226.4051     87.9298   1.6226851721e+01   2.3680530476e+01     2.811179    0.9078008 -42.15  0.003406663    3.554    0.719
         3 -14.5607    229.0442    149.0046   2.5121864734e+01   1.3539753023e+01     3.189133    0.4158061 -46.61  0.009848566    6.199    0.839
         4 -15.6479    230.3861    113.1587   1.9669481263e+01   1.9248372317e+01     1.882389     1.534498 -75.15   0.01087606    1.230    0.187
         5 -15.6303    246.5271     95.7867   1.5581056120e+01   1.9916218174e+01     2.705133     1.886768 -69.22   0.01679963    1.186    0.157
         6 -14.8779    247.7820    135.0894   2.1056797097e+01   1.3782898551e+01     1.998797    0.3452252 -46.95  0.007814004    4.294    0.767
         7 -14.6873    248.8685    112.4532   1.7755573448e+01   1.7151846153e+01     0.989196    0.2762097 -44.24  0.004694138    3.228    0.690
         8 -13.1104    246.7936     11.9103   3.4969079158e+00   3.0754162808e+01     1.448779    0.5280138 -43.88  0.009657384    2.379    0.580
         9 -13.4161    237.2469      5.3398   2.9793445269e+00   3.2819034325e+01     1.133934    0.5498337  87.75   0.00893212    1.803    0.445
        10 -10.1163    228.6951     28.4524   6.8801301595e+00   3.1439775410e+01    0.1463193     0.105475 -43.72  0.001023508    1.833    0.454
        11  -8.2915    172.4303    229.7555   4.5394395577e+01   4.6004165595e+00    0.1728479   0.08826084 -42.26 0.0009472664    1.622    0.383
        12 -15.3116    215.3117    170.5596   3.0033738522e+01   1.1304643119e+01     3.318866     1.838132 -52.24   0.02089351    1.389    0.280
        13  -8.0112    206.6682    241.3359   4.1014442714e+01  -1.3782272720e-01   0.09174336   0.08299848 -80.42 0.0007052154    1.735    0.424
        14  -8.3404    172.5782    239.7993   4.6684212373e+01   2.7382696261e+00    0.1571113    0.1040592 -59.89 0.0009532619    1.712    0.416
        15 -13.8446    220.7125    103.9635   1.9284002363e+01   2.1961049506e+01    0.6785035    0.6304523  66.57  0.003992543    1.557    0.358
        16 -14.0735    239.1884    161.2127   2.5659185574e+01   1.0474698447e+01     1.009833       0.4856 -63.23   0.00444506    2.480    0.597
        17 -14.7666    225.3734    122.7105   2.1649167053e+01   1.8327913861e+01     1.527812    0.8085131 -39.87  0.009210079    2.035    0.509
        18 -13.8126    248.1837    158.3215   2.4237217547e+01   1.0073283977e+01    0.8730077    0.3745804 -51.00  0.002599624    1.627    0.385
        19  -8.4301    194.4230    238.5151   4.2656783509e+01   1.2322258897e+00    0.1102962    0.0862253 -33.19 0.0001307111    1.050    0.048
        20  -8.5086    167.1775    238.2686   4.7500183191e+01   3.4718066203e+00    0.1455741    0.1340127 -57.24 0.0007263572    1.348    0.258
        21  -8.5692    177.9940    236.7150   4.5291233489e+01   2.8497916138e+00    0.1624682    0.1337987 -19.21  0.001166586    1.085    0.078
        22 -15.2752    245.2301    148.6861   2.3227942053e+01   1.1896501493e+01     2.543432    0.7583543  45.11   0.01325476    4.772    0.790
        23  -8.6161    219.4911    232.9681   3.7972872990e+01   3.2048834288e-01     0.132846   0.08537053 -67.98 0.0008096086    2.502    0.600
        24 -14.9173    240.5117    135.7625   2.1911240308e+01   1.4456919307e+01    0.8015351    0.4446461 -35.84  0.005067368    2.176    0.541
        25 -14.2293    240.0626    127.1827   2.0726249944e+01   1.5872866549e+01    0.5236506    0.3134612 -58.96  0.002988837    1.272    0.214
        26 -14.1557    249.1829    123.0865   1.9230030730e+01   1.5494686270e+01    0.3897618    0.2478237 -60.93  0.001849229    1.214    0.176
        27 -14.4439    240.4210    115.6196   1.9015831846e+01   1.7646885064e+01    0.5690067     0.341201 -48.05  0.003132013    1.332    0.249
        28  -8.4535    183.4230    232.4955   4.3767406967e+01   3.1602304062e+00    0.1155457   0.09055819 -32.55 0.0001894521    1.012    0.012
        29  -8.3171    218.6268    225.2957   3.7111132992e+01   1.6316644599e+00   0.09093175   0.08044989 -81.34 0.0007026633    1.738    0.425
        30  -8.7573    206.9956    223.5178   3.8651191295e+01   2.8209842815e+00    0.1400849    0.1034976  14.99  0.000645747    1.572    0.364
        31  -8.8029    224.9713    220.9595   3.5622413102e+01   1.8699255311e+00    0.1436552    0.1170825 -66.93 0.0005093488    1.660    0.398
        32  -9.4307    216.8747    220.1598   3.6698188872e+01   2.6141739705e+00    0.2392168     0.113936 -45.39 0.0009877358    1.548    0.354
        33  -9.7365    203.8328    217.8634   3.8394122333e+01   4.0522840447e+00    0.1732312    0.1645004 -15.43   0.00109759    1.306    0.234
        34  -8.9419    144.1608    216.5440   4.9201896550e+01   9.9377900497e+00    0.2407305    0.1645092 -53.38   0.00100192    1.371    0.271
        35  -9.3523    169.5036    214.6455   4.3879378327e+01   7.7526483213e+00    0.3423199    0.1885047 -66.69  0.001681435    2.440    0.590
        36 -10.5252    196.2838    213.1158   3.8964400189e+01   5.5407100405e+00    0.2665417    0.2260618 -10.54 0.0002232992    1.234    0.190
        37  -9.4216    191.5974    208.8081   3.9143486140e+01   6.7482608720e+00    0.2377438    0.1878938 -65.12  0.001626229    1.477    0.323
        38  -9.2564    185.8513    213.7077   4.0802584037e+01   6.3768504243e+00    0.2989953    0.1366423 -50.92  0.001589166    1.809    0.447
        39  -9.4738    203.9248    210.7755   3.7416585118e+01   5.2856165473e+00    0.3025954    0.1441578 -58.04  0.001621921    2.176    0.540
        40  -8.3682    119.3800    211.8044   5.4095376345e+01   1.3673306853e+01    0.1991113    0.1105276 -46.99  0.000940614    1.678    0.404
        41  -9.1846    178.5901    209.8703   4.1543410576e+01   7.7865438648e+00    0.2941279    0.1759751 -39.09  0.001403736    1.424    0.298
        42  -8.6596    146.5283    210.9895   4.7925053109e+01   1.0851719773e+01    0.2029724    0.1154123 -54.36  0.001039701    1.616    0.381
        43  -9.0979    172.8583    207.6368   4.2267150175e+01   8.7847271240e+00    0.2280359    0.1559908 -58.27 0.0005591479    1.448    0.309
        44 -10.2508    197.5196    203.6255   3.7444777482e+01   7.1421635792e+00    0.4339559     0.228353 -51.66  0.002446068    1.565    0.361
        45  -8.6583    175.2909    203.3397   4.1207582560e+01   9.3747056461e+00     0.127209    0.0779401 -30.52 0.0007024853    1.646    0.393
        46  -9.5323    167.4135    201.5325   4.2402962676e+01   1.0554654484e+01     0.383846    0.1166619 -52.59  0.001479364    2.736    0.634
        47  -9.4532    186.0860    201.1445   3.8991404318e+01   8.7050280355e+00    0.2601586    0.1452065 -55.17 0.0008546732    1.609    0.378
        48  -9.5246    161.3258    200.3833   4.3401857911e+01   1.1444560122e+01     0.331855    0.1882166 -50.05  0.001343705    1.508    0.337
        49  -8.8906    150.6018    200.2662   4.5530730857e+01   1.2662981406e+01    0.2479396    0.1164673 -58.21  0.001129601    2.064    0.516
        50  -9.8902    190.6496    197.8481   3.7749043992e+01   8.8694752804e+00    0.2568931     0.192435  76.75  0.001557484    2.239    0.553
        51  -9.1265    177.5363    196.7880   3.9853162385e+01   1.0417747681e+01    0.2832279    0.1062725 -55.57  0.001250583    2.442    0.591
        52  -8.4805    138.6707    197.6613   4.7674554065e+01   1.4605988445e+01    0.1424626   0.09216335 -27.48 0.0007051841    1.736    0.424
        53  -8.5241    156.6236    195.1820   4.3558048238e+01   1.3045102790e+01    0.1930525   0.09905011 -45.63 0.0008025512    1.699    0.411
        54  -9.0209    189.7834    184.6992   3.5971708838e+01   1.1434583481e+01    0.2425046    0.1374368 -57.06 0.0009605811    1.597    0.374
        55 -10.0519    186.4129    191.5230   3.7540638201e+01   1.0496823297e+01    0.5136818    0.1741745 -49.98  0.002332807    2.320    0.569
        56  -8.7147    167.9962    192.4485   4.0953685570e+01   1.2317220565e+01     0.205705    0.1387906 -50.48 0.0007679917    1.263    0.208
        57  -8.6527    161.6992    192.4238   4.2148302508e+01   1.3035749202e+01    0.2342346   0.09954073 -52.98  0.001067869    2.020    0.505
        58 -10.6961    172.6272    190.8137   3.9854379864e+01   1.2127733047e+01     0.288553    0.1949059 -56.35 0.0004890269    1.348    0.258
        59  -8.9445    177.4243    183.7221   3.7927660338e+01   1.2993622283e+01    0.2980144   0.09616332 -50.68 0.0008416838    2.487    0.598
        60  -8.7362    166.5939    184.7870   4.0057667516e+01   1.4033569196e+01    0.2525208   0.09905923 -49.58  0.001127185    2.110    0.526
        61  -9.6110    182.8184    181.0760   3.6593215615e+01   1.2899142989e+01    0.3357522    0.1601877 -52.18  0.001654989    1.724    0.420
        62  -9.6830    183.1993    176.1579   3.5780126922e+01   1.3810487201e+01    0.3550068    0.1583374 -51.11  0.001070841    1.817    0.450
        63  -9.8121    169.8601    178.8392   3.8536753872e+01   1.4854490628e+01    0.3030934    0.1551677 -54.96 0.0005629779    1.704    0.413
        64  -8.4536    137.7799    179.0689   4.5013536598e+01   1.8851026791e+01    0.1827806    0.1024215 -56.95  0.000549186    1.646    0.392
        65  -8.3320    150.6525    179.3061   4.2324860744e+01   1.7134610866e+01    0.1288698    0.1004036  79.75 0.0007042448    1.699    0.411
        66  -9.1293    163.7015    176.5211   3.9320173206e+01   1.6081153003e+01    0.2328098     0.100552 -53.61 0.0008422793    1.989    0.497
        67 -10.5227    101.0043    175.9970   5.3442038494e+01   2.4549311893e+01    0.2032667    0.1963552 -59.42            0    1.004    0.004
        68  -8.9177    159.2403    175.0183   3.9936818372e+01   1.6954184739e+01    0.1788662   0.09548082 -53.21  0.000884579    1.617    0.382
        69  -9.3774    153.1263    175.1661   4.1166649519e+01   1.7705774859e+01    0.2083878    0.1662464 -30.68  0.001236418    1.307    0.235
        70  -8.5802    177.4692    170.4799   3.5879512900e+01   1.5606229164e+01    0.2149027     0.104327 -52.21 0.0009694181    1.703    0.413
        71  -8.7379    179.4107    166.6580   3.4946133482e+01   1.6121438490e+01    0.2556629    0.1295551 -55.43  0.001180591    1.697    0.411
        72  -9.5336    143.2700    169.9961   4.2364745961e+01   2.0135400013e+01    0.1995398    0.1572051 -52.46 0.0007931969    1.133    0.117
        73  -9.2218    170.5341    168.1554   3.6735253467e+01   1.6934601750e+01    0.3060271    0.1025395 -51.10  0.001237447    2.454    0.593
        74  -8.5474    128.6257    168.1909   4.5306614416e+01   2.2571720849e+01    0.2067396    0.1156455 -48.46 0.0009516284    1.663    0.399
        75  -8.7430    159.8670    164.3563   3.8098103602e+01   1.9105841579e+01    0.2299922    0.1565588 -61.87 0.0006470185    1.385    0.278
        76 -10.0615    183.1853    162.3263   3.3630794489e+01   1.6498827813e+01    0.3190327    0.1500513 -57.01  0.001234489    1.903    0.474
        77 -10.8593    179.8139    154.3938   3.2919131961e+01   1.8473651330e+01    0.5930676     0.134706 -51.69  0.002091918    3.593    0.722
        78 -10.5158    172.9588    158.3228   3.4722601766e+01   1.8599113868e+01     0.440266    0.2290752 -62.21  0.001945691    1.968    0.492
        79  -9.8331    176.0000    156.0411   3.3827332579e+01   1.8651590340e+01    0.2873568    0.1149406 -49.80 0.0009327558    2.062    0.515
        80 -10.8697    175.5906    151.6770   3.3183617035e+01   1.9568171718e+01    0.2894214    0.2454851 -45.73  0.001605185    1.144    0.126
        81  -9.8482    168.1828    158.7790   3.5643014117e+01   1.9141909240e+01    0.3042554    0.1518035 -55.34  0.001058271    1.738    0.425
        82  -9.3241    159.4055    159.3756   3.7365363770e+01   2.0209064784e+01    0.2559415    0.1409726 -55.16  0.000724292    1.584    0.369
        83  -9.8359    153.0893    156.3303   3.8078638055e+01   2.1731945607e+01    0.2590211    0.1717246 -58.85 0.0007075573    1.359    0.264
        84  -8.5297    126.3028    156.3439   4.3834131692e+01   2.5643486380e+01    0.1432113    0.1040277 -29.27 0.0004323314    1.683    0.406
        85  -9.2171    170.2023    149.8532   3.3808737204e+01   2.0667107190e+01    0.2774037    0.1424652 -70.26   0.00117344    2.863    0.651
        86  -9.3666    162.8074    149.4847   3.5070544654e+01   2.1779745466e+01    0.2501682    0.1804043 -74.48  0.001216943    1.500    0.333
        87  -8.0747    148.2944    148.3004   3.7655458400e+01   2.4141115834e+01    0.1282896   0.09889369 -29.51 0.0003057059    1.571    0.363
        88  -9.2628    133.6462    147.4437   4.0597151357e+01   2.6549027348e+01    0.2798927    0.1568477 -53.52  0.001118604    1.618    0.382
        89  -8.0993     98.6361    145.6846   4.8957536828e+01   3.2445057715e+01    0.1517119    0.1136102 -22.09 0.0007040487    1.766    0.434
        90 -14.0661    239.5835    106.9472   1.7832014082e+01   1.9085882276e+01    0.4712486    0.3837804  72.08  0.004046232    1.578    0.366
        91  -9.4843    183.0174    142.0785   3.0387511248e+01   2.0421693139e+01    0.1928909    0.1548068 -59.43 0.0007588288    1.021    0.021
        92  -8.1911    141.2915    142.3380   3.8037580681e+01   2.6489072280e+01    0.1335882    0.1010135 -30.35 0.0005474538    1.644    0.392
        93  -8.5588    124.5957    142.1939   4.1706491256e+01   2.9150648682e+01    0.2093598    0.1192308 -46.77 0.0009538818    1.741    0.426
        94  -9.4660    159.2233    139.5409   3.4017103791e+01   2.4337405592e+01    0.3786337    0.1363059 -56.93  0.001493146    2.672    0.626
        95  -9.1568    155.5106    140.7038   3.4914925183e+01   2.4657001027e+01    0.2385212    0.1113022 -49.81 0.0005728005    1.889    0.470
        96  -9.4933    175.4705    140.0977   3.1276232711e+01   2.1854538523e+01    0.1955455    0.1036484 -52.93   0.00102366    1.568    0.362
        97  -8.9533    167.3185    137.5230   3.2217733437e+01   2.3539653955e+01    0.2294135    0.1384063 -39.53  0.001199575    1.824    0.452
        98  -9.3921    153.0099    129.1492   3.3319891590e+01   2.7417174299e+01    0.3029298    0.1557016 -40.19  0.001191849    2.311    0.567
        99 -10.1580    159.5395    128.2179   3.1951064223e+01   2.6574527346e+01    0.3237511    0.2125415  85.70  0.001656741    2.074    0.518
       100  -8.7337    142.0000    128.0175   3.5266292382e+01   2.9428995035e+01     0.227707   0.06920008 -52.73 0.0008063678    2.970    0.663
       101  -9.1027    181.6454    124.7601   2.7692341986e+01   2.3879984332e+01    0.3050967    0.1223146 -42.89  0.001347526    2.633    0.620
       102  -9.7306    167.0964    125.3245   3.0119539530e+01   2.5967642312e+01    0.2148069    0.1536135 -47.76 0.0008594109    1.327    0.246
       103 -10.3753    175.9536    120.7000   2.7867049588e+01   2.5488743272e+01    0.4135006    0.1846745 -49.62  0.002024627    1.903    0.475
       104  -8.7902    152.5066    120.8932   3.1894265612e+01   2.9163438945e+01    0.1964986    0.1138287 -53.86 0.0006228316    1.523    0.343
       105  -8.7174    157.5024    119.9869   3.0818281840e+01   2.8528483675e+01    0.1990265    0.1113382 -52.86 0.0006601082    1.563    0.360
       106  -9.3357    161.9586    116.8001   2.9455309287e+01   2.8426251087e+01    0.1815224    0.1411417 -55.83  0.000774794    1.155    0.135
       107  -9.3402    140.4883    116.5375   3.3385968503e+01   3.2055275764e+01    0.2725908    0.1193784 -52.80 0.0009777748    2.080    0.519
       108  -8.8577    152.4908    113.4863   3.0507149195e+01   3.0628830598e+01    0.2594334    0.1132606 -51.88 0.0009435776    2.036    0.509
       109  -9.5350    146.5526    113.5261   3.1619095093e+01   3.1625320501e+01    0.2748815    0.1155371 -52.29  0.001198135    2.144    0.534
       110  -8.6632    176.0006    111.6274   2.6261767828e+01   2.7157699766e+01    0.1662457    0.1419119 -80.24 0.0005729808    1.111    0.100
       111  -8.8789    158.5154    111.9749   2.9154931339e+01   2.9915600835e+01    0.1981659    0.1099741 -53.02 0.0009535403    1.577    0.366
       112  -9.4566    183.1748    107.0438   2.4405233847e+01   2.6862535926e+01    0.2761463    0.1412668 -52.09 0.0009384841    1.611    0.379
       113  -9.3075    154.9748    106.8638   2.8806074411e+01   3.1484110967e+01    0.2948105     0.166636 -46.39  0.001526627    1.743    0.426
       114  -8.7723    178.6918    106.8342   2.5011511620e+01   2.7600067248e+01     0.238984   0.09222157 -44.78  0.001067817    2.542    0.607
       115  -9.3114    170.0035    106.2733   2.6218475406e+01   2.9092465090e+01    0.1707082    0.1419221 -76.44 0.0006428414    1.059    0.055
       116  -9.7484    174.5649    101.2575   2.4616857817e+01   2.9252795044e+01    0.2768904    0.1768484 -41.05  0.001588297    1.799    0.444
       117  -8.5160    131.0036    101.7933   3.2377084579e+01   3.6690053377e+01    0.1885338    0.1424669 -39.11 0.0007320971    1.622    0.384
       118  -9.7534    187.7830    100.2290   2.2586830649e+01   2.7333353976e+01    0.2249308    0.1647123 -62.69 0.0007294951    1.072    0.067
       119  -8.9160    149.5486    101.0091   2.8633719705e+01   3.3527838955e+01    0.2008594    0.1123125 -53.14  0.001034412    1.609    0.379
       120  -9.2218    160.7494     99.1501   2.6363420842e+01   3.1933205969e+01    0.3163446    0.1469403 -53.62  0.001486482    1.886    0.470
       121 -10.4014    180.7728     96.1686   2.2818054766e+01   2.9136903118e+01    0.2720391    0.2469507  47.88  0.001955607    1.590    0.371
       122  -8.1689    154.5569     94.5015   2.6490613354e+01   3.3850427436e+01    0.1262981    0.1055772 -73.38 0.0004000011    1.038    0.036
       123  -9.0845    164.8746     93.7013   2.4677400414e+01   3.2204589906e+01    0.2082542    0.1499403 -51.44  0.001073506    1.331    0.249
       124  -8.7267    177.1321     91.5143   2.2481211765e+01   3.0525374990e+01    0.2261047    0.1405841 -40.61  0.000998017    1.905    0.475
       125  -9.1473    158.7366     89.6039   2.4852554908e+01   3.3989997551e+01    0.2269496    0.1354771 -45.63  0.001247144    1.716    0.417
       126  -9.1222    142.7464     89.0812   2.7465441927e+01   3.6955068331e+01    0.2769713    0.1583544 -45.98   0.00122377    1.807    0.447
       127  -8.7815    182.9906     89.0147   2.1242047893e+01   2.9987584932e+01    0.1595953    0.1403376 -37.22 0.0007287801    1.633    0.387
       128  -8.7653    193.0139     87.5231   1.9722954516e+01   2.8633190436e+01     0.224045    0.1237771 -38.27 0.0007603917    2.398    0.583
       129  -8.9999    151.1222     87.3273   2.5647652294e+01   3.5746958445e+01    0.2117038    0.1549984 -51.66 0.0007032904    1.351    0.260
       130 -10.4720    185.1513     81.4062   1.9607107757e+01   3.0880283850e+01    0.2456899    0.2093538 -82.88  0.001410452    1.206    0.171
       131  -9.2126    157.8664     81.4350   2.3388976621e+01   3.5556338890e+01    0.2313987    0.1536827 -38.77  0.001061733    1.938    0.484
       132  -8.5857    167.3843     76.7670   2.1082797787e+01   3.4645534777e+01    0.1594155    0.1013664 -45.95 0.0007701502    1.632    0.387
       133  -8.9141    157.5089     75.0200   2.2170912378e+01   3.6693722804e+01    0.2546476    0.1096626 -43.59  0.001198432    2.465    0.594
       134 -10.0321    201.5475     74.4438   1.6525412822e+01   2.9349432709e+01    0.1957189    0.1552464 -59.13 0.0001643203    1.267    0.211
       135 -10.5794    206.7734     71.9675   1.5576432502e+01   2.8914706722e+01    0.2466777    0.1833557 -72.90 0.0004999776    1.072    0.067
       136  -8.4921    193.6756     80.6657   1.8457835796e+01   2.9624659871e+01   0.09794768   0.08725201 -37.10 0.0007051007    1.712    0.416
       137  -8.8860    175.1712     74.8977   1.9682700435e+01   3.3595740154e+01    0.1500846    0.1278564 -57.93  0.001067482    1.337    0.252
       138  -8.2283    133.5660     75.4989   2.6278302436e+01   4.1083203186e+01    0.1272865    0.1081355 -83.96 0.0001607007    1.040    0.038
       139  -9.2596    212.5818     74.2176   1.5377277189e+01   2.7703847024e+01    0.2258981   0.08485112 -45.59  0.001201065    2.326    0.570
       140 -10.4398    215.3527     69.3516   1.4328650733e+01   2.8005668177e+01    0.2044947    0.1493819 -55.87 0.0004211306    1.272    0.214
       141  -8.5368    179.7949     72.4173   1.8640044089e+01   3.3198748282e+01    0.1371483    0.1025324  61.70 0.0003684821    1.589    0.371
       142  -8.5199    170.4901     70.0230   1.9373373528e+01   3.5179943456e+01    0.1732277   0.09899258 -51.16 0.0006532777    1.556    0.357
       143  -8.5804    175.6731     69.0375   1.8524439887e+01   3.4430607591e+01    0.1624743    0.1174536 -62.97 0.0003954122    1.137    0.120
       144  -8.2528    182.5898     67.2034   1.7351062401e+01   3.3528973863e+01    0.1484175   0.09567308 -45.27 0.0009376936    1.651    0.394
       145 -10.7791    219.2761     63.9195   1.3109731342e+01   2.8202370908e+01    0.2337646    0.1578339 -83.13 0.0009863148    1.307    0.235
       146  -8.7694    204.3481     65.0742   1.4662817586e+01   3.0303223951e+01    0.1576843    0.1060242 -62.02 0.0008446372    1.110    0.099
       147  -8.5518    131.3209     63.3490   2.3997558533e+01   4.3543995231e+01    0.1112973    0.1018058  24.34 0.0007048761    1.740    0.425
       148  -8.4833    171.5630     62.2492   1.7752619217e+01   3.6187687779e+01    0.1444877    0.1002538 -46.27 0.0005410611    1.575    0.365
       149  -9.4599    188.2285     60.6664   1.5539831064e+01   3.3554036484e+01    0.1941674    0.1470631 -59.12 0.0005200105    1.242    0.195
       150 -11.4371    220.9606     57.2563   1.1911512845e+01   2.8880543696e+01    0.2792229    0.2158767 -71.30  0.000729659    1.203    0.169
       151  -8.4365    193.6532     53.6702   1.3744760628e+01   3.3653134205e+01   0.08884417   0.08687522 -80.12  0.000704976    1.759    0.431
       152  -8.5349    143.5777     52.2229   1.9524152021e+01   4.2873522396e+01    0.1503012    0.1104279 -42.31  0.000933027    1.673    0.402
       153  -8.3802    179.0000     48.9604   1.4385875398e+01   3.6805369375e+01    0.1702976   0.05328439 -45.02 0.0006333778    2.870    0.652
       154  -8.7089    182.7523     46.4015   1.3522428329e+01   3.6505601172e+01    0.1340854   0.09103941  68.90 0.0003716277    1.574    0.365
       155 -11.2890    238.0238     40.5240   8.1201649718e+00   2.8613192653e+01    0.3333167    0.1108569 -57.43  0.002010511    2.136    0.532
       156 -12.5026    243.9112     36.4717   7.1680183082e+00   2.8296055323e+01    0.5170923    0.3956365  62.10  0.003925665    2.202    0.546
       157  -8.6361    195.0000    231.0033   4.1582235489e+01   2.4836744873e+00    0.1853222   0.05208832 -51.95 0.0008025804    2.943    0.660
       158  -8.3048    126.7662    230.9911   5.4938037699e+01   8.6716950190e+00    0.1683986    0.1018182 -54.98 0.0008726371    1.605    0.377
       159 -10.4533    220.2046     40.0119   9.2385212727e+00   3.1276608519e+01    0.1999565   0.09483825 -61.37  0.001352788    1.536    0.349
