#   1 NUMBER                 Running object number                                     
#   2 MAG_AUTO               Kron-like elliptical aperture magnitude                    [mag]
#   3 X_IMAGE                Object position along x                                    [pixel]
#   4 Y_IMAGE                Object position along y                                    [pixel]
#   5 X_WORLD                Barycenter position along world x axis                     [deg]
#   6 Y_WORLD                Barycenter position along world y axis                     [deg]
#   7 A_WORLD                Profile RMS along major axis (world units)                 [deg]
#   8 B_WORLD                Profile RMS along minor axis (world units)                 [deg]
#   9 THETA_WORLD            Position angle (CCW/world-x)                               [deg]
#  10 FWHM_WORLD             FWHM assuming a gaussian core                              [deg]
#  11 ELONGATION             A_IMAGE/B_IMAGE                                           
#  12 ELLIPTICITY            1 - B_IMAGE/A_IMAGE                                       
         1 -14.5020    162.6203     53.9514   7.6191551781e+01   3.7836903249e+01     1.898564     1.504976  15.40  0.006822644    1.671    0.401
         2 -14.0943    175.2724     38.0495   6.9683983091e+01   3.6971625734e+01    0.9025534    0.7874744  89.50  0.002967338    1.060    0.057
         3 -14.4919    193.0437      6.9647   5.9604014404e+01   3.6290386199e+01     1.070178    0.7969907  62.11  0.005141811    1.308    0.235
         4 -12.5595    194.0549    197.1838   1.0443911624e+02   2.6607948210e+00     1.508779    0.7171695 -59.90  0.004949878    4.056    0.753
         5 -12.5440    248.3109    247.1984   1.0325193489e+02  -1.4137025361e+01    0.4803838    0.3035437 -26.79  0.003012004    1.508    0.337
         6 -18.0214     67.4464    241.9267   1.3746784541e+02   1.5548843553e+01     7.588312     6.456198  85.60   0.04660038    1.170    0.145
         7 -11.1732    207.7271    194.5607   1.0116682082e+02   6.1809939317e-01      0.25471    0.1639207 -30.23 0.0006412301    1.626    0.385
         8 -19.1823     44.6419     97.9335   1.2161476421e+02   5.1947373377e+01     17.61247     1.673547 -57.48   0.03575438    9.685    0.897
         9 -11.8689    165.5668    188.7956   1.0885496458e+02   9.8627501425e+00    0.4232639    0.3127702  17.56  0.001991011    1.701    0.412
        10 -12.1242    144.7460    188.9634   1.1355012032e+02   1.3918313902e+01    0.3682986    0.2312686 -76.51  0.001048062    2.381    0.580
        11 -12.9320    157.1513    200.7210   1.1295339165e+02   8.9917997229e+00    0.8029206     0.500087  87.94  0.002875669    3.490    0.713
        12 -10.4086    175.1570    186.0433   1.0621814556e+02   8.5411122470e+00    0.4005855    0.1930637 -58.08  0.001435828    2.820    0.645
        13 -11.9487    153.4600    186.4438   1.1109553591e+02   1.2763711857e+01    0.3085912    0.2620401  83.33 0.0006889679    1.327    0.247
        14 -10.1550    169.8939    183.4285   1.0684030536e+02   1.0139661638e+01    0.2321604    0.1431153  44.07  0.001022521    1.597    0.374
        15 -11.1032     33.1076    184.3771   1.3863821026e+02   3.2675313456e+01    0.1991077    0.1439131 -77.84 0.0001690105    1.144    0.126
        16 -10.4769    207.0434    178.0986   9.7956954577e+01   3.8746144787e+00    0.4049682    0.2522807  18.48  0.001696129    2.319    0.569
        17 -10.2977      3.2399    176.3978   1.4431169716e+02   3.7395320522e+01    0.1172928   0.07656942 -71.45 0.0002717862    1.256    0.204
        18 -10.6673    203.5316    170.6054   9.7078209012e+01   6.0355471759e+00    0.4648286    0.3013605  27.93  0.002090645    1.839    0.456
        19 -12.4142    195.2345    168.7106   9.8358712276e+01   8.0840513457e+00    0.4240983    0.3613171 -41.34 0.0006533251    1.144    0.126
        20 -10.3597    164.1946    170.5503   1.0545586881e+02   1.4087429537e+01    0.2807298     0.233041 -85.56  0.000612161    1.426    0.299
        21 -11.8740    230.3690    167.2895   9.1250629870e+01   1.5145583508e+00    0.4097397    0.1560428 -46.57  0.001509233    2.655    0.623
        22  -9.7333     29.2535    165.7116   1.3740356183e+02   3.7506233811e+01    0.2135563    0.1694838 -38.52  0.001007357    1.616    0.381
        23  -9.6179     25.2406    165.5733   1.3833098513e+02   3.7939937818e+01    0.1753492    0.1293948   4.61 0.0007676409    2.101    0.524
        24 -11.0845    192.3664    164.0569   9.7944695314e+01   9.6290223458e+00    0.4432396    0.3040583 -29.23  0.001427029    1.618    0.382
        25 -11.2680    120.1376    163.7284   1.1449603283e+02   2.4545286766e+01    0.3441841    0.2643261  72.45 0.0006437374    1.465    0.317
        26 -11.4681    120.5836    156.6484   1.1293237348e+02   2.6159743175e+01    0.4018628    0.2769842 -47.86 0.0008353692    1.449    0.310
        27 -10.2814    133.1086    160.5106   1.1063763035e+02   2.2766086767e+01    0.2326319    0.1521072  44.51  0.001014943    1.539    0.350
        28 -11.2246    166.4142    155.0899   1.0158711140e+02   1.7044883168e+01    0.3429998    0.2447375  84.82  0.001421408    2.056    0.514
        29 -12.4334    134.0232    145.9912   1.0723146344e+02   2.6006660424e+01     1.471825    0.3501876 -54.56  0.003198325    6.217    0.839
        30 -10.4483    188.9304    154.4837   9.6542203158e+01   1.2350955546e+01    0.2333411    0.1518778  45.49  0.001030153    1.584    0.369
        31 -11.2203    113.8369    160.9120   1.1550367027e+02   2.6415549470e+01    0.3916164    0.2735224  81.63  0.001294714    1.867    0.464
        32 -11.0964    174.1488    148.6112   9.8385362785e+01   1.6799091983e+01    0.3993809    0.3149969 -62.50  0.001303945    1.360    0.265
        33 -10.4885    149.2322    148.4107   1.0406851878e+02   2.2242700676e+01    0.2218413    0.1484048  56.35  0.000758928    1.620    0.383
        34 -12.0801    144.0294    146.0757   1.0478702132e+02   2.3889725029e+01    0.5528008    0.3442874 -72.76  0.002072505    2.375    0.579
        35 -12.4210    102.7079    137.9689   1.1356126272e+02   3.4036174498e+01    0.2968845      0.28552 -46.93 0.0004042594    1.084    0.078
        36 -11.6885    153.5027    194.5282   1.1261907593e+02   1.1003893666e+01    0.2921167    0.2006807  43.87  0.001396693    1.397    0.284
        37 -12.1362    134.9822    122.0388   1.0123347107e+02   3.1345819089e+01    0.8486051    0.2303366 -49.44  0.002307526    3.854    0.741
        38 -10.2218    166.0392    132.6845   9.6432600726e+01   2.2088637398e+01    0.2898918    0.2207052 -75.78 0.0009058893    1.606    0.377
        39 -12.1373    105.9853    130.8685   1.1105557452e+02   3.5138619000e+01    0.4400718    0.3612486 -67.34  0.001152793    1.234    0.189
        40 -11.4535    106.8147    125.0359   1.0944277776e+02   3.6363385125e+01    0.3329072    0.2560511 -31.71 0.0007171509    1.451    0.311
        41 -11.4991    118.3753    129.1671   1.0731831109e+02   3.3151964477e+01    0.3436771    0.2745314 -39.57 0.0006950321    1.284    0.221
        42 -11.7005    160.3387    127.4091   9.6440486447e+01   2.4530889113e+01    0.4985096    0.3700478 -72.96  0.001765167    1.648    0.393
        43 -10.8145    121.9935    123.6781   1.0501287892e+02   3.3698275208e+01     0.288235    0.2195107 -23.56 0.0007820553    1.619    0.382
        44 -10.6654    113.1015    118.6404   1.0613745340e+02   3.6638492209e+01    0.2662601    0.2422241 -47.41 0.0005169946    1.063    0.059
        45 -11.2607    168.1986    113.2010   9.1085831112e+01   2.5769926661e+01    0.4318609    0.3115461 -84.92  0.001230951    1.885    0.469
        46 -11.1400    134.7201    105.1481   9.6872886911e+01   3.5106199689e+01    0.5710186    0.1558657 -45.39  0.001618717    3.626    0.724
        47 -10.9603    204.9172    110.4098   8.3046343200e+01   1.7824101474e+01    0.4106388    0.2711987  47.01  0.001108518    1.643    0.391
        48 -10.0682    130.1854    109.7735   9.9277230752e+01   3.5099111697e+01    0.2145317    0.1858019 -11.18 0.0005966814    1.346    0.257
        49 -10.6687    117.0218    109.5042   1.0269986960e+02   3.7913147588e+01    0.2331202    0.1522575  43.04 0.0008974576    1.579    0.367
        50 -11.6801     11.3192    206.1169   1.4507277800e+02   3.0007713783e+01    0.2605722    0.2033985  46.31  0.001742583    1.476    0.322
        51 -11.5570    204.6917    199.9996   1.0283674429e+02   1.6788352253e-01    0.2624794    0.1925894  12.16   0.00124463    1.569    0.363
        52  -9.1920    124.6939     92.2943   9.5893358897e+01   3.9949194553e+01    0.1492023    0.1204736 -86.22 0.0002728021    1.582    0.368
        53 -10.0446    163.8269    203.1080   1.1193753135e+02   7.2260793904e+00    0.2440114    0.1889095  53.35 0.0005733836    1.305    0.234
        54  -9.9967    148.9500     80.2755   8.6497760228e+01   3.6771063352e+01    0.2104171    0.1952753  58.10 0.0004252824    1.056    0.053
        55 -10.3106     86.1090     77.8955   1.0271570896e+02   5.0316595598e+01    0.2242521    0.1634063  -6.18  0.001107827    1.675    0.403
        56  -9.4206    184.3555     77.3092   7.8495069264e+01   2.8796486730e+01    0.1493228    0.1168012  24.99 0.0007042988    1.727    0.421
        57  -9.9676    108.0057     74.4977   9.5160241912e+01   4.6849866593e+01    0.2163775    0.1391443  44.01 0.0007730689    1.550    0.355
        58 -11.8939    167.9642    233.0075   1.1618501629e+02   7.4781910483e-01    0.3444728    0.2474706  52.58 0.0009219364    1.411    0.291
        59 -10.3043    228.2001    233.3939   1.0449110911e+02  -9.3156523709e+00    0.1630988    0.1097712  41.30 0.0003205561    1.559    0.359
        60 -13.3015    179.5555     31.0107   6.7201192781e+01   3.6823097561e+01    0.4851107    0.4156256  33.50  0.001474559    1.432    0.302
        61 -10.4478     13.4974     59.8316   1.2309918006e+02   6.2573767067e+01    0.1755403    0.1468165 -16.73 0.0003888893    1.187    0.157
        62 -11.7281    188.3290     31.3951   6.6079126104e+01   3.4668429427e+01    0.3352451    0.2290132  61.46  0.001269853    1.362    0.266
        63 -10.1007    121.0262     24.8557   7.5753304042e+01   5.1273071020e+01     0.192473     0.163142  77.32 0.0004928413    1.300    0.231
        64  -9.2257    102.7149     23.2809   7.9483967566e+01   5.5360435345e+01    0.1134656   0.09922701 -80.61 0.0001741159    1.518    0.341
