#   1 NUMBER                 Running object number                                     
#   2 MAG_AUTO               Kron-like elliptical aperture magnitude                    [mag]
#   3 X_IMAGE                Object position along x                                    [pixel]
#   4 Y_IMAGE                Object position along y                                    [pixel]
#   5 X_WORLD                Barycenter position along world x axis                     [deg]
#   6 Y_WORLD                Barycenter position along world y axis                     [deg]
#   7 A_WORLD                Profile RMS along major axis (world units)                 [deg]
#   8 B_WORLD                Profile RMS along minor axis (world units)                 [deg]
#   9 THETA_WORLD            Position angle (CCW/world-x)                               [deg]
#  10 FWHM_WORLD             FWHM assuming a gaussian core                              [deg]
#  11 ELONGATION             A_IMAGE/B_IMAGE                                           
#  12 ELLIPTICITY            1 - B_IMAGE/A_IMAGE                                       
         1 -13.8914     66.5543    126.1507   5.2819295612e+01   4.2309624977e+01     3.476943     1.837485  67.60   0.01167088    3.105    0.678
         2 -13.4192    224.8894     46.5349   3.5768675200e+02   2.4652277577e+01    0.7758101    0.7462146  -1.18  0.002610565    1.386    0.278
         3 -11.5944    249.6441     25.5384   3.5153005667e+02   2.2602500876e+01     0.683818    0.2150524 -30.89  0.003190341    2.734    0.634
         4  -8.5397    194.2885      4.7008   3.4997043751e+02   3.5799841908e+01    0.1315522   0.07032207 -58.49 0.0001961601    1.558    0.358
         5  -9.8361      2.3166      2.3157   4.8960388269e+01   7.9738568485e+01    0.2223326    0.1592964 -22.92  0.001172307    1.251    0.201
         6  -9.0435     41.5257      1.4938   1.6020842448e+01   7.3624920211e+01    0.1300773    0.1131639  34.13 5.611761e-05    1.003    0.003
         7  -9.4173     53.9830    237.9681   6.9319871647e+01   1.7520055980e+01    0.1841205    0.1432456  42.01  0.001218672    1.016    0.016
         8  -9.3109     75.0102    249.0132   6.5387982820e+01   1.3158280647e+01    0.2675227    0.1336863 -50.54  0.001044193    2.576    0.612
         9 -14.4150     78.2087    181.7761   5.7899151112e+01   2.6529672490e+01     3.495675     2.145077  56.12  0.003349514    1.741    0.426
        10 -11.5222     97.3670    223.8297   5.7978439372e+01   1.5051424472e+01    0.5573701    0.4412515 -40.67  0.002061501    1.497    0.332
        11  -9.6729     72.7530    232.8697   6.4606541303e+01   1.6363229635e+01     0.231625    0.1923481  66.14 0.0008854085    1.287    0.223
        12 -11.2482     39.8125    231.2281   7.2176237132e+01   2.0338490254e+01    0.3273993     0.283675  44.17  0.001612736    1.112    0.101
        13  -9.8624     47.1079    229.0501   7.0335867212e+01   2.0003716311e+01     0.204203    0.1534286  48.87 0.0008517178    1.102    0.092
        14 -11.0621    148.2754    228.8607   4.7271695869e+01   7.6025805360e+00     0.248454    0.2406088  25.12  0.001685477    1.340    0.254
        15  -9.4045     72.7021    225.5749   6.3992381373e+01   1.7780793267e+01    0.1858058    0.1698284  85.65 0.0005384106    1.256    0.204
        16  -9.6380    175.0543    223.1456   4.1073541093e+01   5.1274484516e+00    0.1894011    0.1339523   0.40 0.0004790481    1.285    0.222
        17 -11.0143     89.6125    224.1416   5.9837211414e+01   1.5977948563e+01    0.7652975    0.5092322  84.77  0.004144676    2.112    0.527
        18 -10.4694    164.1499    221.5392   4.2998291760e+01   6.7388716162e+00    0.1908158    0.1337253 -28.89   0.00069526    1.453    0.312
        19 -14.4603      6.1631    144.5811   7.6364191219e+01   4.3842343570e+01     4.303179     1.070915 -87.41   0.01298792    4.287    0.767
        20 -12.8536    125.8773    229.6931   5.2177339088e+01   1.0325716281e+01    0.8955916    0.3928407  29.28  0.004325471    1.887    0.470
        21  -9.2319     28.7637    219.0534   7.4135763652e+01   2.3948413380e+01    0.1683845    0.1402489  55.47 0.0004396391    1.067    0.063
        22 -10.1869     95.6268    211.7395   5.7036571278e+01   1.7633760123e+01    0.3351088    0.2619879 -76.86  0.001967961    1.568    0.362
        23  -8.8007    132.0327    211.4913   4.8429129440e+01   1.2708818480e+01    0.1891206    0.1124434  29.47 0.0009862315    1.454    0.312
        24 -10.7143    103.7222    202.2091   5.3870332962e+01   1.8459230358e+01    0.4026243    0.2584977 -59.38  0.001936553    1.791    0.442
        25  -9.6058    210.9531    198.7603   3.0677087453e+01   4.2556057094e+00    0.1888512    0.1410602 -18.01 0.0004595849    1.121    0.108
        26 -11.0543     67.9820    191.7358   6.1882263840e+01   2.5585226733e+01    0.6687171    0.3322295  79.46  0.002168719    3.333    0.700
        27  -9.1787    191.5168    192.0547   3.3013912011e+01   7.7625129972e+00    0.2361073    0.1106207 -52.84 0.0009797132    3.510    0.715
        28 -12.1372     53.8260    219.2273   6.8037996260e+01   2.1266801402e+01     1.165217    0.7573531 -75.34 0.0009687509    1.750    0.428
        29 -11.0340    124.4623    189.7117   4.6990811643e+01   1.7979684314e+01    0.5257102    0.2258941  20.78  0.001832349    3.308    0.698
        30 -14.5198     40.7071    172.6420   6.7681823719e+01   3.3459262962e+01     5.321333     3.048179  46.54   0.02110188    1.563    0.360
        31  -9.4842     94.6358    183.5680   5.3669731252e+01   2.3768049418e+01    0.2612857    0.2172758  76.16 0.0008126156    1.368    0.269
        32 -10.4507    116.2862    182.0112   4.7802214073e+01   2.0830042571e+01    0.1923793    0.1873206 -27.16  0.001154645    1.108    0.097
        33  -9.4301    141.1304    180.5634   4.1532282445e+01   1.7229308014e+01    0.2237765     0.184945 -56.08 0.0005976998    1.401    0.286
        34  -9.8715    171.3716    173.2109   3.3600738414e+01   1.3851805412e+01    0.2587713    0.1566968 -42.78 0.0008296403    1.647    0.393
        35 -10.0705    172.7680    169.7469   3.2670734237e+01   1.4253019277e+01    0.2856259    0.1896411 -65.83  0.001184526    2.597    0.615
        36  -9.5319    105.5934    173.7921   4.9263292971e+01   2.4301472741e+01    0.1904324    0.1419775 -75.12 0.0006277239    1.630    0.387
        37  -9.9882    234.4927    169.5003   2.1856377468e+01   5.4747273501e+00    0.1987082   0.09263955 -43.36  0.001027136    2.187    0.543
        38 -10.3908    180.6889    167.4965   3.0666934166e+01   1.3407951794e+01    0.3007565    0.1836791 -44.43  0.001383635    1.655    0.396
        39  -9.6877    178.1648    163.6709   3.0431634636e+01   1.4480184735e+01    0.3391142    0.1883594  45.01  0.001626036    2.028    0.507
        40  -9.0047    110.7568    167.0656   4.6763806744e+01   2.4990545712e+01    0.2218156    0.1905094  66.36 0.0006288419    1.302    0.232
        41  -9.4894    101.9513    167.0099   4.9138784830e+01   2.6428371904e+01     0.169787    0.1680193 -82.34 0.0003327416    1.074    0.069
        42 -12.1519     76.5674    134.4515   5.0989095473e+01   3.8567564284e+01    0.7950749    0.5585607 -81.15  0.003579638    1.643    0.391
        43  -9.9759    124.9541    248.0261   5.4488140245e+01   7.4468206847e+00    0.1861126    0.1269746  -5.40   0.00087923    1.679    0.404
        44 -11.5894     57.9001    160.9944   6.1179664297e+01   3.4368503704e+01    0.4986433    0.3740143 -44.51  0.002520046    1.522    0.343
        45 -13.8776     71.7481    148.1789   5.4967331519e+01   3.5752351705e+01     2.273336     1.165205  73.22   0.00165267    3.682    0.728
        46 -10.4947    238.9072    158.7674   1.9277074477e+01   6.4213992098e+00    0.2902153    0.1329474 -28.28 0.0007620472    1.959    0.489
        47 -15.2802     25.8287    177.2373   7.2410156985e+01   3.3834341984e+01     10.83561     3.433656  87.08   0.03388147    4.459    0.776
        48 -10.5203     40.7573    152.8128   6.5643964648e+01   3.8563602814e+01    0.3275901    0.2179233  61.10 0.0006950999    1.490    0.329
        49 -11.5358     63.2033    157.0862   5.9007847245e+01   3.4669133727e+01    0.5680681     0.449247 -39.66 0.0008518241    1.459    0.315
        50  -9.6358    123.3512    151.2467   4.0488456464e+01   2.6398887387e+01     0.280979    0.2313967  77.63 0.0004804412    1.514    0.340
        51 -10.3935    133.6730    145.2357   3.6615286546e+01   2.5850010946e+01     1.036209    0.2532808 -53.95  0.002452745    6.189    0.838
        52 -10.3330    108.9633    145.3645   4.3221129730e+01   3.0321750480e+01     0.287392    0.2647074  38.59 0.0006188165    1.052    0.049
        53 -14.4235     10.2214    206.2833   7.8109685745e+01   2.8414194207e+01     1.061698    0.6413094  13.79  0.003122091    1.885    0.469
        54  -7.9975    160.0000    141.9784   2.9777143785e+01   2.1662268528e+01    0.2278263   0.07828345 -44.25 0.0004142073    2.821    0.646
        55 -10.8947     37.6214    143.1746   6.5582642235e+01   4.1476088957e+01    0.5713735     0.294385  66.33  0.001390558    2.269    0.559
        56 -11.3092     54.8756    232.1112   6.8717938746e+01   1.8551635693e+01    0.2758047    0.1998144  85.32 0.0005292594    1.561    0.359
        57 -13.8617     12.7789    244.7709   7.8814602315e+01   2.0309255456e+01     1.081044    0.7903086 -61.43  0.004508333    1.802    0.445
        58 -10.8413     97.5774    133.7505   4.4170058050e+01   3.5166628828e+01    0.5950517    0.3960549   0.91  0.002309148    2.473    0.596
        59 -11.2774     44.1231    131.9010   6.1818782374e+01   4.3792892119e+01    0.6113298    0.3267647  65.70   0.00238169    2.314    0.568
        60 -10.3109    105.5919    130.7682   4.1124438145e+01   3.4422525488e+01    0.3835303    0.3438206 -37.64  0.001263736    1.171    0.146
        61  -9.2407    108.1129    126.1878   3.9352237602e+01   3.5042021783e+01    0.3144712    0.2407517   6.66 0.0008662586    1.714    0.417
        62  -8.8730    112.8614    130.4954   3.8960639635e+01   3.3111520756e+01    0.2780107    0.1865355 -80.95 0.0008983951    2.241    0.554
        63 -11.0215     25.9323    128.9265   6.8088516210e+01   4.6514067132e+01    0.5150808    0.2575724  37.26  0.001220097    1.891    0.471
        64 -11.6537     84.0668    131.9578   4.8045121674e+01   3.7976485027e+01    0.2990319    0.2966472 -59.42 0.0004485913    1.055    0.052
        65  -8.4753    218.9989    125.9974   1.5767683488e+01   1.4182057791e+01    0.1583873    0.1186875 -33.77 0.0004612364    1.116    0.104
        66 -14.7309      4.7575    232.6867   8.0223955071e+01   2.3337195423e+01     1.300494    0.6324449 -78.76  0.007354643    2.236    0.553
        67 -13.2909     60.0924    144.9774   5.8248035920e+01   3.8245292879e+01     1.189119    0.7816095  10.66  0.001696106    1.902    0.474
        68 -10.3003     41.8268    121.8265   6.1147329342e+01   4.6812854776e+01    0.2655982    0.2143461 -21.68 0.0008822507    1.471    0.320
        69 -11.2789     38.0029    121.1517   6.2506497912e+01   4.7432106135e+01    0.4090155    0.2855557 -71.41  0.001369308    1.375    0.273
        70 -10.1601    239.1376    121.8651   1.2204356098e+01   1.1682207761e+01    0.1794346    0.1379208 -44.43 0.0004470639    1.234    0.190
        71 -10.7407     94.9026    121.4328   4.2285002037e+01   3.8702583917e+01    0.3292212    0.2769018  17.25 0.0006231568    1.337    0.252
        72  -9.8517     86.9878    120.9557   4.4737761917e+01   4.0269045334e+01    0.4179504    0.2732044  74.12  0.001203179    2.218    0.549
        73 -11.1284     27.5570    118.2493   6.6160028335e+01   4.9296758731e+01    0.4163527    0.2709449 -73.92  0.001279539    1.449    0.310
        74  -9.6036    104.0473    115.9496   3.8135421794e+01   3.8283186975e+01    0.5774628    0.2343963  44.16   0.00163966    2.446    0.591
        75 -10.8602     37.4531    115.4267   6.1833190997e+01   4.9064688238e+01    0.2889585    0.2511843  66.40 0.0002363904    1.137    0.121
        76  -9.2751     79.7153    114.4251   4.5711539301e+01   4.3223531175e+01    0.2766547    0.1923853 -72.45  0.000598466    1.621    0.383
        77 -10.9089    244.2254    114.4991   1.0123610682e+01   1.1979220847e+01    0.2198687    0.1788306 -52.65  0.001531385    1.318    0.241
        78  -9.6033     59.0098    232.5381   6.7783181510e+01   1.8007772069e+01    0.2742374    0.1874545 -36.76  0.001578095    2.031    0.508
        79 -15.8728      5.4544    216.0152   7.9595443961e+01   2.6701607164e+01     2.576875     1.799764  63.51    0.0153609    1.197    0.165
        80 -12.5676    107.4199    228.9229   5.6216607896e+01   1.2825294908e+01     1.400535    0.3290412  32.18  0.005085017    3.197    0.687
        81  -8.6929    234.1692    109.8493   1.0400023221e+01   1.4194806459e+01    0.1648223    0.1221328 -22.56 0.0003838129    1.300    0.231
        82 -10.7958     32.4008    107.1047   6.2546133997e+01   5.1888771053e+01    0.4668136    0.1307184 -62.29  0.001525139    2.950    0.661
        83 -10.2386     20.2287    108.7075   6.7881428758e+01   5.2562955153e+01    0.2498495    0.1848991  43.21  0.000659505    1.366    0.268
        84 -10.8277     24.0571    104.9763   6.5749093278e+01   5.3267201642e+01    0.3333898    0.2911095 -46.93 0.0007821179    1.172    0.147
        85 -11.0823     19.6160    101.2291   6.7134045869e+01   5.4665836330e+01    0.5588387    0.2735876  32.50  0.002401036    2.021    0.505
        86  -9.8100    132.9599    103.2987   2.6828688402e+01   3.5080442676e+01    0.3590451    0.2584742 -78.48  0.000795626    1.899    0.474
        87 -10.3308    115.9128    106.6501   3.2267228153e+01   3.8020827995e+01    0.4615039    0.2905288 -70.51  0.001781331    2.274    0.560
        88  -9.1773    135.5374    107.9066   2.7400074386e+01   3.3549942530e+01    0.2705366    0.1883229 -52.37 0.0006839754    1.456    0.313
        89 -10.0421     54.2424     95.8030   5.1033816248e+01   5.2217691065e+01     0.216214    0.1774296 -31.02 0.0007748739    1.346    0.257
        90  -8.9956    105.7055     94.0600   3.1796104522e+01   4.3052825592e+01    0.3877266    0.2397585  78.13   0.00122506    3.039    0.671
        91  -8.4452     76.0142     89.9909   4.0755778520e+01   5.0046968337e+01    0.1823702    0.1792441 -88.49 0.0009640437    1.008    0.008
        92  -8.3407    163.3295     88.6916   1.6261242339e+01   3.1207191197e+01    0.1506734    0.1097254 -73.04 0.0003754266    1.662    0.398
        93  -9.5542     40.8941     87.8576   5.5006466863e+01   5.6131607539e+01    0.2492615    0.2154571  86.89 0.0004322214    1.223    0.182
        94 -10.8756     33.7856     87.4234   5.8219255023e+01   5.7080852708e+01    0.2914007    0.2455624  58.42 0.0004279384    1.258    0.205
        95  -9.3867     98.7470     85.9844   3.1582954212e+01   4.6373538534e+01    0.3121201    0.2341763  89.01  0.001124646    1.766    0.434
        96  -9.7434     50.7943     84.7679   4.9731338619e+01   5.5594693539e+01    0.2091974    0.1730393  64.80 0.0005250222    1.335    0.251
        97  -9.2587    240.6559     83.3076   4.1736750832e+00   1.6917893902e+01    0.1239128   0.07622334 -57.87 0.0005594194    1.695    0.410
        98  -8.4227    136.7075     83.3604   2.0353493629e+01   3.8273837891e+01    0.1601034     0.115917 -73.30 0.0006628571    1.698    0.411
        99  -8.6068     36.6955     80.7105   5.5277320557e+01   5.8520379987e+01    0.1506049    0.1070056 -30.44 0.0002022306    1.570    0.363
       100 -10.0675     83.1396     78.2124   3.4496479841e+01   5.1430698342e+01    0.4433585    0.2993703  84.67  0.001032706    2.434    0.589
       101  -8.0549     19.6723     75.3225   6.2697376512e+01   6.1644770264e+01    0.1482741    0.1013315  59.52 0.0005435855    1.691    0.409
       102  -9.6733     65.7782     72.1073   3.9341436542e+01   5.6229835183e+01    0.4053726    0.2631708 -67.58  0.001389971    1.904    0.475
       103  -9.6476     27.3246     69.5939   5.7290819307e+01   6.2430815792e+01    0.3187725    0.1451506  37.53  0.001292691    2.259    0.557
       104  -8.8816    125.0133     69.0696   1.8773089215e+01   4.3764958778e+01    0.2463118    0.1787551 -77.48 0.0006413659    1.703    0.413
       105  -8.4116     92.7155     68.2847   2.7791741692e+01   5.1522652292e+01      0.15109       0.1209 -89.42 0.0001965972    1.523    0.344
       106 -10.4032     65.3863     66.1707   3.7471275054e+01   5.7663642460e+01    0.4005601    0.1794463 -47.33 0.0008177156    2.243    0.554
       107 -12.9208    212.1207     55.3614   8.9192325613e-01   2.6002250471e+01    0.8877585    0.7832779 -42.41  0.003331044    1.150    0.131
       108  -9.2972    101.6338    247.1274   5.9388473188e+01   1.0379657572e+01    0.1477945    0.1064868 -39.53 0.0003605438    1.718    0.418
       109  -8.5781    118.2457     61.8121   1.8068179302e+01   4.6739170333e+01     0.259488    0.1583243 -77.08 0.0009432963    2.718    0.632
       110  -9.3380     37.9892     59.9972   4.8660939489e+01   6.3553509599e+01    0.2117484    0.2065383  54.58 0.0003779314    1.103    0.093
       111 -11.8219     81.1595    145.0043   5.1450629843e+01   3.5122690075e+01    0.9029855    0.6072181   9.27  0.003864893    1.982    0.496
       112 -11.8502    201.5582     61.9944   3.6304686963e+00   2.7234531947e+01    0.5029868    0.3679929  58.04 0.0008803227    1.561    0.360
       113  -8.6760     45.6686     50.3468   4.0952916256e+01   6.4628061207e+01    0.1463196    0.1139933  73.81 0.0007049548    1.763    0.433
       114 -11.2107     13.2277     43.5147   5.8513598359e+01   7.0131620324e+01    0.4283724    0.1855252  35.33  0.001558268    2.454    0.593
       115  -8.4487     37.1422     43.3464   4.2857648793e+01   6.7455804769e+01    0.1988177    0.1206641  41.52 0.0004065037    1.722    0.419
       116 -10.0819      1.5874     39.0922   6.5684080279e+01   7.1901910886e+01     0.256223    0.1647667  83.13 0.0004252252    1.939    0.484
       117 -11.1126     42.9922    244.8064   7.2205810360e+01   1.7398432704e+01    0.2327183    0.1675909  87.49 0.0008195834    1.571    0.363
       118 -10.8855      7.5916     28.1185   5.7380514503e+01   7.4077408232e+01    0.4196096    0.2191847  30.24  0.001497132    1.991    0.498
       119 -10.1486      2.3812     22.4431   5.9679018268e+01   7.5668282358e+01    0.2852141    0.1232244 -71.86  0.001228757    2.734    0.634
       120  -9.3318     60.8462     21.1930   1.9382819090e+01   6.6998013547e+01     0.204909    0.1828831  66.34 0.0006622258    1.195    0.164
       121  -8.5085    189.2515     14.9932   3.5293563325e+02   3.5871255108e+01    0.1612434   0.09745083 -34.66 0.0008792594    1.550    0.355
       122 -11.0366     81.6855    220.7841   6.1391570335e+01   1.7628252860e+01    0.4624665    0.2239894  39.82  0.001147089    1.698    0.411
       123 -10.4125    103.7533    238.4421   5.8060782783e+01   1.1601713747e+01    0.2729804    0.2101024 -55.88 0.0009977884    1.608    0.378
