#   1 NUMBER                 Running object number                                     
#   2 MAG_AUTO               Kron-like elliptical aperture magnitude                    [mag]
#   3 X_IMAGE                Object position along x                                    [pixel]
#   4 Y_IMAGE                Object position along y                                    [pixel]
#   5 X_WORLD                Barycenter position along world x axis                     [deg]
#   6 Y_WORLD                Barycenter position along world y axis                     [deg]
#   7 A_WORLD                Profile RMS along major axis (world units)                 [deg]
#   8 B_WORLD                Profile RMS along minor axis (world units)                 [deg]
#   9 THETA_WORLD            Position angle (CCW/world-x)                               [deg]
#  10 FWHM_WORLD             FWHM assuming a gaussian core                              [deg]
#  11 ELONGATION             A_IMAGE/B_IMAGE                                           
#  12 ELLIPTICITY            1 - B_IMAGE/A_IMAGE                                       
         1 -18.9790    228.1008     61.5977   6.9708691097e+01   2.0476487011e+01     5.245366     4.665226  63.93   0.02760741    1.221    0.181
         2 -16.2017    134.9704     25.0353   7.5397403099e+01   4.8273569752e+01     7.096582     3.957035 -37.77    0.0346134    2.037    0.509
         3 -12.5207    188.5261     22.1924   6.5574897381e+01   3.5442131378e+01    0.3736208    0.2519234  19.66  0.001327843    2.418    0.586
         4 -11.2144    217.1335     11.3965   5.9722321637e+01   2.9735809131e+01    0.2619702    0.1274559  50.87  0.001153356    2.419    0.587
         5 -10.2050    220.7258      9.5853   5.8980338004e+01   2.9095941758e+01    0.2402056    0.1116474  49.32    0.0010773    2.770    0.639
         6 -10.2770    205.1123     12.1395   6.1141668712e+01   3.2510451622e+01    0.1728629    0.1365732  87.19            0    1.042    0.040
         7  -9.5696    171.5240      2.5112   6.2774902761e+01   4.1620729428e+01    0.2128563    0.1018625 -42.54  0.001024268    2.309    0.567
         8 -11.5730    174.8430    114.8017   9.2454463645e+01   2.3769239851e+01    0.7360106    0.4444116 -76.42  0.002371546    3.396    0.706
         9 -14.1826    229.8561    172.9720   9.4584999610e+01   2.5383578059e-01     2.446764     1.093677  56.50  0.008074132    3.759    0.734
        10 -14.3995    207.4430    178.7685   1.0023305816e+02   3.5431608015e+00     1.915805     1.168966 -62.70  0.005014749    2.686    0.628
        11 -12.9507    192.5662    194.1757   1.0647069693e+02   3.5725194191e+00     1.043903     0.542517 -64.37  0.003151532    4.987    0.799
        12 -11.9856    191.5168    180.0069   1.0383848558e+02   6.5199746821e+00    0.6087433    0.2683159  58.87  0.001710262    4.699    0.787
        13  -9.5742    144.6965    168.2926   1.1212274171e+02   1.8783615945e+01    0.2507616    0.1488835 -60.57 0.0007103668    1.961    0.490
        14 -13.2456     37.1351    155.7404   1.3713332493e+02   3.9120168925e+01    0.8239867    0.6973348  89.72  0.003925493    1.066    0.062
        15  -9.9085    147.8261    156.8942   1.0895044223e+02   2.0708480356e+01    0.4098604    0.2064079 -32.29   0.00135059    3.031    0.670
        16  -9.9750    182.5543    153.5634   1.0007214466e+02   1.3839167082e+01    0.2860741    0.2392415  81.52 0.0005543939    1.451    0.311
        17  -9.0912     89.5274    154.5513   1.2343198866e+02   3.2430660891e+01     0.148126    0.1326535  85.73 0.0001548913    1.079    0.073
        18 -13.4227    199.9752    175.0094   1.0099530588e+02   5.7700032445e+00     1.043359    0.5653742  50.31  0.004335192    1.973    0.493
        19 -12.7385     59.8621    145.6894   1.2977695069e+02   3.8899427925e+01    0.5848233    0.4566116 -68.40 0.0008661133    1.142    0.124
        20 -13.6946     67.7126    142.3529   1.2707360856e+02   3.8666476610e+01     1.483648    0.7959214 -64.40  0.004040216    1.754    0.430
        21 -13.6750     73.4911    139.2327   1.2490627615e+02   3.8608459785e+01     1.314021    0.8229073 -39.44  0.001593923    1.828    0.453
        22 -14.6408    219.5567    172.2416   9.6422241406e+01   2.3691706257e+00     2.514916     2.094818  85.67   0.01304269    1.705    0.413
        23 -10.0981    165.2481    151.5120   1.0356538510e+02   1.8116350792e+01    0.2883523    0.2383838 -89.95 0.0005426768    1.468    0.319
        24 -10.1785    151.7064    149.7760   1.0641930394e+02   2.1483102735e+01    0.3663488    0.2349818  75.62  0.001331284    2.580    0.612
        25  -9.5876    182.1328    149.1432   9.9157396052e+01   1.4864232969e+01    0.3053211    0.2217639  68.20 0.0004036356    1.714    0.417
        26 -10.1590    178.6114    147.7808   9.9632001023e+01   1.5941104646e+01    0.3289903    0.1934501 -55.66  0.001093726    1.983    0.496
        27 -10.6869    133.6426    145.8570   1.1006247014e+02   2.6246534854e+01     0.730321    0.2136579 -52.44  0.002039976    3.776    0.735
        28 -11.4816    132.2083    136.3067   1.0823849191e+02   2.8763819424e+01    0.6915843    0.2862093 -54.17  0.002289749    2.694    0.629
        29 -10.9004    143.7377    145.6737   1.0745940813e+02   2.4144885440e+01    0.3840043    0.2323487 -63.07  0.001494671    2.056    0.514
        30 -10.5385    200.0844    144.2061   9.4157986959e+01   1.1884663196e+01    0.2596156    0.2349041 -72.73  0.001343622    1.222    0.182
        31 -10.8707    160.4014    142.8995   1.0272765550e+02   2.1096682124e+01    0.4099955    0.2608382 -85.01  0.001242529    3.194    0.687
        32 -11.6238    160.2473    137.8339   1.0156496032e+02   2.2251490617e+01    0.7791938    0.4740282 -76.53  0.002536285    3.301    0.697
        33 -13.1646    160.3166    128.6068   9.9303513314e+01   2.4260810095e+01     1.022915     0.595731  29.60  0.003765924    2.313    0.568
        34 -12.3742    153.2072    130.0764   1.0139560256e+02   2.5565125910e+01    0.5494989     0.376238  51.32  0.001408143    1.467    0.318
        35 -12.7266    153.5249    124.9620   1.0004669937e+02   2.6619642861e+01    0.5442684    0.4787257  87.73  0.002540224    1.264    0.209
        36  -9.8862    165.8470    210.1927   1.1521222763e+02   5.7139778791e+00    0.2041183    0.1777247  51.98 0.0002947709    1.121    0.108
        37 -11.0999    215.9650    112.0173   8.3482682282e+01   1.4604072479e+01    0.2609315    0.2129784  89.80 0.0005025753    1.402    0.287
        38 -11.5149    218.8917    150.8941   9.1909679582e+01   6.5250300457e+00     1.044181    0.7621323   2.71  0.004832506    1.838    0.456
        39 -10.5733    117.7869    114.8106   1.0685133870e+02   3.6674273355e+01     0.213166    0.1839836  77.13 0.0004515102    1.330    0.248
        40  -9.2187     39.3880    113.2571   1.2990264968e+02   4.8886980401e+01    0.1749076    0.1112951 -71.43 0.0003773426    1.531    0.347
        41 -11.2498    205.1305    122.6736   8.8066107516e+01   1.5041031949e+01    0.3726743    0.2937713  52.52  0.001155937    1.295    0.228
        42 -10.7563    190.7566    105.9643   8.6816740544e+01   2.1705787776e+01    0.4434467    0.3562666  82.07  0.001331181    1.412    0.292
        43 -11.2571    140.7737    120.8266   1.0221574446e+02   3.0417586343e+01    0.4090081    0.2508672  73.75  0.001400102    2.898    0.655
        44 -10.2533    248.2489    103.7190   7.6316890134e+01   9.0369827157e+00    0.1731407    0.1551201 -65.62 0.0002501383    1.068    0.064
        45 -12.8468    168.4950    114.0323   9.3694573237e+01   2.5445353770e+01    0.7641509    0.5760975 -52.08 0.0008652483    1.374    0.272
        46 -10.4600    206.0965    101.4518   8.2728085110e+01   1.8886455412e+01    0.4072666    0.2763031 -87.79  0.001712585    2.075    0.518
        47 -11.6532    198.4328     98.4335   8.3412077607e+01   2.1287515517e+01    0.4045412    0.3658466  20.77  0.001176557    1.292    0.226
        48  -9.8195     85.6777     96.1929   1.1146375964e+02   4.6720978585e+01    0.2222796    0.1770583 -66.96 0.0009165376    1.465    0.318
        49 -10.3415    187.3039    138.0075   9.5418535910e+01   1.6030703101e+01    0.4266706    0.2272617  45.80  0.001472636    1.875    0.467
        50  -9.8936    155.8752    160.0950   1.0769908436e+02   1.8263936189e+01    0.2436892    0.2112211  84.56 0.0005819494    1.300    0.231
        51 -11.5493      9.1184    134.1207   1.4152041388e+02   4.6567350139e+01    0.1927787    0.1382681 -57.31  0.001260052    1.250    0.200
        52  -9.3443    224.9698    141.5110   8.8657027175e+01   7.0398091395e+00     0.202285     0.146507  51.87 0.0005285557    1.478    0.324
        53  -9.5607    194.1680    117.5522   8.9014812347e+01   1.8608775367e+01    0.2206303    0.1527237  53.18 0.0003668615    1.458    0.314
        54 -11.0091    206.9778    109.8249   8.4609585233e+01   1.7099280251e+01    0.4972231    0.4082953  24.71  0.002457788    1.481    0.325
        55 -10.7199    180.8319     36.6910   7.0450585945e+01   3.5602310866e+01    0.1943393    0.1877866  23.83 0.0004486035    1.233    0.189
        56 -10.6034    169.3941     36.4072   7.2258025217e+01   3.8506116483e+01    0.3402526    0.2337874  41.88 0.0006740868    1.560    0.359
        57 -10.6225    182.4607     31.1735   6.8744727991e+01   3.5887776306e+01    0.3229856    0.2436216  -3.59  0.001699732    1.883    0.469
        58  -9.6384    197.0024     27.4723   6.5761376840e+01   3.2728209420e+01    0.1793236     0.114678  61.94 0.0003615138    1.408    0.290
        59 -11.5918    237.2947    126.0864   8.3010118136e+01   7.3342560946e+00    0.3014545    0.1967221  50.89  0.000735606    1.652    0.395
        60 -10.5334    240.9934    147.0736   8.7003860755e+01   2.7784357917e+00    0.9297716    0.6209952  32.65   0.00457825    1.719    0.418
        61  -9.0593    100.4639    126.4848   1.1460206549e+02   3.7298465636e+01    0.1494265    0.1438824 -61.89 9.998904e-05    1.003    0.003
        62 -10.4208    212.4083     13.7544   6.0726997646e+01   3.0590157403e+01    0.2322115     0.130601  57.95 0.0003884022    1.736    0.424
        63 -12.1178    234.5605    155.0011   8.9871258916e+01   2.5964941322e+00    0.8899668    0.6019677 -16.24  0.003097999    1.791    0.442
        64 -13.0358    244.6345    163.0166   8.9775501244e+01  -7.3955716615e-01       1.7759    0.5751954  44.13  0.004417393    3.280    0.695
        65 -11.0425    223.0868     13.2136   5.9530743860e+01   2.8142249139e+01    0.1735456   0.09763077  58.25 0.0004165689    1.798    0.444
        66 -13.4794    203.5683    165.3854   9.8182229118e+01   6.9105397123e+00     5.058861     1.241192 -44.01   0.01424292    4.149    0.759
        67 -11.7010    184.9234    122.4884   9.2174522680e+01   1.9793508857e+01    0.8356836    0.6209267  51.51  0.003865155    1.345    0.257
        68 -11.4103    211.7559    114.1028   8.4749470695e+01   1.5174672844e+01    0.6231567    0.4329849 -59.60  0.002852348    1.596    0.373
        69 -14.1129    181.5782    165.7798   1.0299823958e+02   1.1491516063e+01     1.606644     1.279327  66.23  0.007747869    1.464    0.317
        70 -13.2872    161.6158    118.9983   9.6577123531e+01   2.6030336947e+01     1.058139    0.7048929  88.32  0.001477702    2.586    0.613
