#   1 NUMBER                 Running object number                                     
#   2 MAG_AUTO               Kron-like elliptical aperture magnitude                    [mag]
#   3 X_IMAGE                Object position along x                                    [pixel]
#   4 Y_IMAGE                Object position along y                                    [pixel]
#   5 X_WORLD                Barycenter position along world x axis                     [deg]
#   6 Y_WORLD                Barycenter position along world y axis                     [deg]
#   7 A_WORLD                Profile RMS along major axis (world units)                 [deg]
#   8 B_WORLD                Profile RMS along minor axis (world units)                 [deg]
#   9 THETA_WORLD            Position angle (CCW/world-x)                               [deg]
#  10 FWHM_WORLD             FWHM assuming a gaussian core                              [deg]
#  11 ELONGATION             A_IMAGE/B_IMAGE                                           
#  12 ELLIPTICITY            1 - B_IMAGE/A_IMAGE                                       
         1 -11.8585    106.6295     31.8012   4.4814107988e+01   5.4214582555e+01    0.2658941    0.2206791 -32.11 0.0007273402    1.240    0.194
         2 -12.7389     84.4284     23.9227   4.8346488629e+01   5.9656750532e+01    0.5536542    0.3700829 -66.99   0.00236308    3.488    0.713
         3 -12.1768    211.5242     11.9852   1.8672089613e+01   3.0316405983e+01    0.2681205    0.2086284 -19.04 0.0009358738    1.465    0.318
         4 -12.3096     85.0452     10.4501   4.2332200633e+01   6.1254667501e+01    0.2593936     0.176774 -28.20 0.0006105704    1.467    0.318
         5 -10.9402     67.8256      1.5999   4.3865126441e+01   6.5322876532e+01    0.1519936    0.1143611  51.16 0.0003451402    1.631    0.387
         6 -16.9753     24.0090    139.2690   9.5232161879e+01   4.3599665478e+01     4.110982     2.514328  73.67   0.02543536    1.581    0.368
         7 -11.7232    237.8982    249.0477   6.8111450813e+01  -8.9164142531e+00     0.198374    0.1572242  14.44 0.0009458653    1.159    0.137
         8 -10.7105    208.6406    250.2642   7.3104346559e+01  -4.4798994468e+00    0.1088712   0.07660918  54.83 0.0006985058    1.634    0.388
         9 -12.3347     93.1134    248.8890   9.2303480853e+01   1.3984532298e+01    0.2102062    0.1502056 -82.31 0.0009353998    1.497    0.332
        10 -12.0985     97.1223    246.8000   9.1471584646e+01   1.3730461566e+01    0.1861355     0.147546  79.87 0.0005559567    1.218    0.179
        11 -14.2348     31.1380    171.0161   9.6751139243e+01   3.6190321962e+01    0.8123899    0.5835697 -58.04  0.005575879    1.629    0.386
        12 -16.1371    112.8858    229.9571   8.7168933807e+01   1.4036856618e+01     2.937655     1.402872 -40.27   0.01224458    5.003    0.800
        13 -11.0295    170.8650    239.7777   7.8133790775e+01   3.0237189181e+00    0.1545676     0.116987  58.57 0.0004072839    1.321    0.243
        14 -11.1189    142.0403    239.5505   8.3124122785e+01   7.8564259614e+00    0.1580046    0.1423762  76.62 -3.42682e-06    1.240    0.194
        15 -11.6318    176.4852    238.3464   7.6966320919e+01   2.2669425866e+00    0.2023321    0.1455817  39.74 0.0005043764    1.106    0.096
        16 -11.6448    207.9612    237.5370   7.1405314365e+01  -2.9189027940e+00    0.1833072   0.09280561  41.93 0.0004344623    1.542    0.351
        17 -11.6286    127.9362    235.4814   8.5122830983e+01   1.0763563023e+01    0.1785211    0.1645961  81.58 0.0004722916    1.264    0.209
        18 -12.2708    131.9897    232.0892   8.4025186168e+01   1.0631766490e+01    0.3505614    0.1884785  40.04  0.001621244    1.679    0.405
        19 -10.8666    227.6614    235.6930   6.7781970396e+01  -5.9305288233e+00     0.122644   0.07342038  19.93 0.0002944955    1.680    0.405
        20 -11.2356    157.3104    234.0288   7.9772101332e+01   6.1130427607e+00    0.1651774      0.13837  50.82   0.00114949    1.077    0.072
        21 -11.6871    214.2302    233.5804   6.9739665345e+01  -3.4932383475e+00    0.1683231   0.08930434  34.77 0.0004691308    1.539    0.350
        22 -16.6848     78.3899    209.7063   9.1313871774e+01   2.2740509477e+01     1.869529     1.117297  81.39   0.01111071    1.681    0.405
        23 -17.7051     69.3817    187.3121   9.0745817421e+01   2.8310000687e+01     2.411899     2.040848 -69.10   0.01675394    1.347    0.257
        24 -11.4375    222.5063    230.5047   6.7848362197e+01  -4.5055675019e+00    0.1216895   0.09299988  28.07 3.487272e-05    1.021    0.021
        25 -11.2557    178.0114    229.0201   7.5415700688e+01   3.2673454925e+00     0.182111    0.1459582  42.30   0.00121352    1.015    0.015
        26 -12.1672    104.0003    227.9108   8.8523978916e+01   1.5751277084e+01    0.3109078    0.2042529  32.88  0.001862678    1.916    0.478
        27 -11.9473    186.0266    227.8095   7.3813068774e+01   2.0411243812e+00    0.2650645    0.1374742  35.95  0.001061539    1.700    0.412
        28 -11.0345    186.2955    224.6636   7.3302722182e+01   2.4221796734e+00    0.1724546    0.1319358 -47.18 0.0003556942    1.666    0.400
        29 -13.8016    125.4087    222.5082   8.4086905221e+01   1.3250337664e+01    0.4724461    0.3303764 -71.57  0.002969958    1.668    0.400
        30 -11.5660    129.5282    217.0027   8.2657966977e+01   1.3482202730e+01    0.1723057    0.1655008 -11.94 0.0005943739    1.433    0.302
        31 -11.9113    231.4001    226.7975   6.5743704216e+01  -5.5430807052e+00    0.1589658    0.1039742 -11.20 0.0008882175    1.746    0.427
        32 -11.8387    138.2338    226.1527   8.2198575796e+01   1.0527016652e+01     0.214588    0.1948642  71.72  0.001150299    1.181    0.153
        33 -11.1063    215.0741    226.4787   6.8495857056e+01  -2.7860324559e+00    0.1812573   0.09792969  41.58 0.0003881923    1.497    0.332
        34 -11.4626    144.4927    224.4619   8.0850271836e+01   9.7329455095e+00    0.1783747     0.116731 -38.04 0.0005666929    2.181    0.541
        35 -12.2639    248.3538    223.5081   6.2358149377e+01  -7.9054872775e+00    0.2281391    0.1838895  37.32  0.001593367    1.335    0.251
        36 -12.8671    159.0602    222.2790   7.7900866323e+01   7.5510539998e+00    0.3848292    0.2378519  63.27  0.001566332    1.859    0.462
        37 -13.1893    101.5052    240.5180   9.0179324376e+01   1.4072196588e+01    0.5856875     0.258475 -79.66  0.002225709    3.809    0.737
        38 -13.0184    172.9835    219.6548   7.4978257458e+01   5.4860367961e+00    0.2984689    0.2344771 -60.78  0.001887715    1.649    0.394
        39 -11.4164    238.5018    221.4914   6.3668120198e+01  -6.1017399326e+00     0.122112   0.09415117  22.92 -0.0001214228    1.010    0.010
        40 -12.0269    244.0649    219.8926   6.2462904211e+01  -6.8245628512e+00    0.1677636    0.1412598  30.58 0.0003518755    1.240    0.193
        41 -13.1802    138.8581    219.2206   8.1210566224e+01   1.1532572130e+01    0.3794894    0.2464137  39.63  0.001738483    1.426    0.299
        42 -11.3794    193.4615    219.5254   7.1233973439e+01   1.8626532500e+00    0.1262822    0.1025428  38.45 0.0001229777    1.028    0.027
        43 -12.9054    144.9880    216.9831   7.9779003373e+01   1.0838907291e+01    0.3134525    0.1985546  80.59  0.001553697    2.387    0.581
        44 -13.9299    133.5883    193.2354   7.8633394219e+01   1.6961670426e+01    0.4966164    0.2940569  49.52  0.002583091    1.469    0.319
        45 -13.8380    147.3211    202.8471   7.7346275105e+01   1.2781561920e+01    0.4875555    0.4137364  53.18  0.003096127    1.009    0.009
        46 -13.7715    139.9479    196.9266   7.7914528140e+01   1.5149705589e+01    0.4881887    0.3553933 -86.53  0.001592106    1.705    0.414
        47 -13.6001    139.4348    208.5633   7.9680754298e+01   1.3208636422e+01    0.5429784    0.3990569  88.88  0.002882841    1.655    0.396
        48 -12.5596    134.8109    204.5902   8.0020110212e+01   1.4705917124e+01    0.2729146     0.195641  57.17  0.001048629    1.218    0.179
        49 -13.8560    134.5322    198.4944   7.9213627833e+01   1.5837177780e+01    0.3787245    0.3732288  -4.17 0.0009802683    1.286    0.222
        50  -8.3116     23.3305    214.9934   1.0127950423e+02   2.8488740285e+01    0.2989717    0.1141808  54.28  0.001781552    2.028    0.507
        51 -13.7673    155.3127    211.7919   7.7121390340e+01   9.8560951145e+00    0.4734182    0.4154357 -52.64    0.0023417    1.371    0.271
        52 -11.9443    184.3040    213.7086   7.1997524944e+01   4.3248550635e+00    0.1813894    0.1355511  25.69 0.0004631579    1.352    0.260
        53 -17.7743     91.5532    195.7677   8.7329430911e+01   2.3456943840e+01     3.509915     2.056235 -62.69   0.01988832    1.778    0.438
        54 -12.7039    229.5281    207.4402   6.2801737675e+01  -2.9100152968e+00    0.3016602    0.2149241 -32.55  0.001841532    1.607    0.378
        55 -12.4272    180.7785    213.9879   7.2691389583e+01   4.9218646059e+00    0.2002541    0.1573632  41.39 0.0002132884    1.046    0.044
        56 -11.8260    248.3613    205.8767   5.9292221524e+01  -5.9194759994e+00    0.3030177    0.1380157  39.33  0.001529084    1.887    0.470
        57 -12.9017     33.7813    204.4091   9.8850496197e+01   2.9320889639e+01    0.3751515    0.2399244 -66.18  0.002614574    1.696    0.411
        58  99.0000     15.3073    203.3628   1.0193457159e+02   3.1425179675e+01    0.6289693     0.102734  55.10  0.002395611    5.158    0.806
        59 -11.9424    169.3016    205.4367   7.3513119305e+01   8.3298883362e+00    0.1881109    0.1078472  51.64 0.0009483242    1.591    0.372
        60 -12.2487    212.9428    201.1783   6.4653128039e+01   8.7816931577e-01    0.2929443    0.2517738  61.02  0.001133541    1.451    0.311
        61 -10.7613     21.9954    201.6055   1.0069727970e+02   3.1090183222e+01    0.2042247    0.1268847  50.50   0.00146943    1.478    0.324
        62 -11.3792     24.3518    198.2940   1.0007782555e+02   3.1476340307e+01    0.2010597    0.1812055 -52.60  0.001621829    1.766    0.434
        63 -11.2479     26.3343    195.2917   9.9527653809e+01   3.1846676956e+01    0.1988579    0.1212665  81.11  0.001366251    1.283    0.220
        64 -13.6224    225.5441    198.8195   6.1964991961e+01  -1.0885873694e+00    0.4537346    0.3306022 -40.58  0.002680789    1.674    0.403
        65 -11.4233     28.1209    200.8084   9.9588455048e+01   3.0608164901e+01    0.2013844    0.1588697 -14.93  0.001321589    2.924    0.658
        66 -11.8802    192.5114    197.5701   6.7806126204e+01   5.2091788467e+00    0.2097303    0.1740537  41.71 0.0004746642    1.067    0.063
        67 -13.1380    189.2226    195.3970   6.8052238842e+01   6.1673250323e+00    0.5415393    0.2879644  33.03  0.002515719    1.933    0.483
        68 -12.7639    152.2791    197.4449   7.5560234217e+01   1.2805849170e+01     0.292614    0.1896273  69.90 0.0008889287    1.969    0.492
        69 -11.1454     17.2415    198.3422   1.0131051815e+02   3.2177252746e+01     0.136626   0.07476694  53.01 0.0009275521    1.556    0.357
        70 -11.0022    238.3250    196.6851   5.9328450738e+01  -3.0806266979e+00    0.1124381    0.1025293  75.69 0.0004475345    1.666    0.400
        71 -13.4023    148.5811    193.6437   7.5699125804e+01   1.4155950184e+01    0.4567413    0.2647306 -30.15   0.00201088    2.954    0.661
        72 -10.8860     11.5350    196.4695   1.0217557085e+02   3.3075245686e+01    0.1093324    0.0709779  75.38 0.0004889016    1.117    0.105
        73 -11.2512    245.1122    195.3940   5.7920385169e+01  -4.0975303236e+00    0.1643198    0.1102018  48.81 0.0004543583    1.659    0.397
        74 -11.4562    212.9966    194.5679   6.3457607126e+01   1.7973973197e+00    0.2263591    0.1848106 -54.62 0.0007119377    1.660    0.397
        75 -13.6114    165.3080    193.3044   7.2330899888e+01   1.1071608113e+01    0.4044167    0.2992888  84.12  0.001389347    1.875    0.467
        76 -10.5167     22.7166    191.5035   9.9912719388e+01   3.2944969288e+01     0.171871    0.1307512  62.67  0.001323208    1.230    0.187
        77 -10.1125     24.5728    188.4603   9.9367378375e+01   3.3351220786e+01    0.1081779   0.08129487  84.39 9.867352e-05    1.071    0.066
        78 -12.7047    110.4077    188.3522   8.2620369105e+01   2.1899173189e+01    0.2697531     0.199158  82.80  0.001008106    1.385    0.278
        79 -12.6827    173.7231    188.9477   6.9932952881e+01   1.0191626796e+01    0.2845652    0.1804536  53.11  0.001440696    1.513    0.339
        80 -13.8414    136.2090    186.4659   7.7072074636e+01   1.7745363926e+01    0.4292767    0.2925458 -76.04  0.001855415    1.831    0.454
        81 -14.5296    127.1656    185.2764   7.8744337193e+01   1.9604211452e+01    0.6780379     0.488974   8.07  0.003242537    2.614    0.617
        82 -12.0734    167.2111    187.4444   7.0963087247e+01   1.1708732829e+01    0.1889245    0.1175615  53.01 0.0003591971    1.523    0.344
        83 -11.5563    248.3865    186.1839   5.5609537202e+01  -3.4983045024e+00    0.2519574    0.1450747  23.23  0.001279947    1.798    0.444
        84 -12.5855    186.9687    185.9185   6.6798798035e+01   8.1099345202e+00    0.3862991    0.1743075  49.78 0.0009777192    2.111    0.526
        85 -11.6350     18.5008    184.7548   1.0021358283e+02   3.4673621974e+01    0.2492307    0.1238592  85.09     0.001517    1.708    0.414
        86 -11.9339    148.8628    184.4017   7.4151665513e+01   1.5771242184e+01    0.2089884    0.1824475 -86.88 0.0004200731    1.248    0.199
        87 -12.6294     29.9584    184.5748   9.8088008344e+01   3.3566753147e+01    0.2896518    0.1795495  47.85  0.001450543    1.559    0.359
        88 -12.6570    178.2784    181.9356   6.7781592661e+01   1.0484913842e+01    0.3964795    0.2419672  18.29  0.001668818    2.625    0.619
        89 -13.1120    144.6358    180.4441   7.4361238981e+01   1.7307819166e+01    0.3093036    0.2404907 -62.58  0.001078226    1.427    0.299
        90 -14.1112    117.8981    178.6674   7.9669289360e+01   2.2530862998e+01    0.6578603      0.38251  25.70  0.002816634    2.835    0.647
        91 -13.8935    112.0114    177.3839   8.0718204287e+01   2.3802750526e+01    0.3626905    0.3494128  38.56  0.001651343    1.277    0.217
        92 -12.2763     24.2094    180.7571   9.8873606696e+01   3.4910498331e+01    0.1897273    0.1457668 -83.41  0.001091665    1.197    0.165
        93 -11.6535    233.7733    183.4417   5.7610669414e+01  -5.0408670003e-01    0.2862514    0.2135857  84.86  0.001367189    2.869    0.651
        94 -12.5290    191.5833    177.8730   6.4396988960e+01   8.5136420844e+00    0.2862041    0.1748813  25.94   0.00130771    1.952    0.488
        95 -11.1124    220.8029    187.6002   6.0736767762e+01   1.3290253461e+00    0.1805075    0.1165999  50.19  0.000392529    1.600    0.375
        96 -13.3274    142.3040    172.8400   7.3550076201e+01   1.9204194508e+01    0.3769498    0.2657757 -79.86  0.001227089    1.835    0.455
        97 -15.1343    124.2277    167.8114   7.6574537783e+01   2.3589695957e+01     1.268793     0.644302 -79.67  0.003881733    5.139    0.805
        98 -12.9706    137.9993    166.0177   7.3266776770e+01   2.1372116874e+01    0.2952957    0.2574081  10.05  0.001321578    1.470    0.320
        99 -14.3070    131.2071    169.3855   7.5327883557e+01   2.1984703034e+01    0.4315069    0.3947359  76.86  0.001574455    1.046    0.044
       100 -13.2619    154.7626    176.2231   7.1531249879e+01   1.6146281248e+01    0.3198695    0.2940279  21.99  0.001905592    1.210    0.173
       101 -10.8936     14.5439    176.4143   1.0036926628e+02   3.6694370796e+01    0.1083757   0.07915576  83.14 7.114722e-05    1.015    0.014
       102 -11.4863    227.9442    174.7019   5.6923403821e+01   1.8309675930e+00    0.2249507    0.1728736  -9.32 0.0006917311    1.337    0.252
       103  -9.9757      6.3029    175.2728   1.0182112227e+02   3.7643936964e+01   0.09240867   0.07031967 -64.98 0.0001766265    1.536    0.349
       104 -13.0991    173.3264    169.7073   6.6485996740e+01   1.3622069410e+01    0.4243099    0.2612398 -70.81  0.001701402    2.941    0.660
       105 -14.1409    153.1703    167.6683   7.0310115094e+01   1.8076773551e+01    0.6449085    0.2903723 -43.74  0.002623091    2.494    0.599
       106 -17.6117     58.7763    123.4966   8.4660496182e+01   4.3484348663e+01     3.958728     2.361099  73.39   0.01954335    2.157    0.536
       107 -12.5812    160.1055    169.2409   6.9140284454e+01   1.6389824071e+01    0.2770157    0.1930381 -80.09  0.001277552    2.127    0.530
       108 -11.4839     17.8845    167.4610   9.9073420913e+01   3.8200748199e+01    0.2604365    0.1206555 -66.71  0.001532669    1.865    0.464
       109 -12.3413    204.9420    164.8512   5.9206639767e+01   7.9416849907e+00    0.2259392    0.1776108  22.62 0.0005563343    1.281    0.219
       110 -14.5832    136.8954    171.3175   7.4437693966e+01   2.0532007664e+01    0.7882975    0.5037133  12.46  0.002997909    3.611    0.723
       111 -13.9676    125.2905    161.1804   7.5196497685e+01   2.4755393445e+01    0.4527353    0.2284091  46.84  0.001114927    1.860    0.462
       112 -10.9582    174.7732    243.5660   7.7948453466e+01   1.8700418433e+00    0.1630765   0.08910308  50.03 0.0004749496    1.532    0.347
       113 -13.1973    170.7538    160.4075   6.5183213214e+01   1.5857199947e+01    0.3673197      0.26171  27.74   0.00178228    1.588    0.370
       114 -12.1972    147.6142    161.3023   7.0305620304e+01   2.0425128236e+01     0.237362    0.1694114  27.87 0.0007019479    1.681    0.405
       115 -13.3807     47.7228    158.3367   9.2051483515e+01   3.7067970859e+01    0.4474584    0.2590444  40.41  0.001996083    1.833    0.454
       116 -13.1077     42.3262    161.3493   9.3533935554e+01   3.7028911443e+01    0.1969136    0.1651143  53.16 0.0008737113    1.318    0.241
       117 -12.7134    116.0628    240.2568   8.7682759401e+01   1.1901343842e+01    0.2428778    0.1664253  51.79 0.0005660828    1.127    0.113
       118 -13.4184    131.5473    158.1427   7.3253343316e+01   2.4205580908e+01    0.3445894    0.2342636 -26.46  0.001559564    2.291    0.564
       119 -14.2707    112.6476    140.4714   7.4277936353e+01   3.1485591199e+01    0.5826352    0.3698568  82.72  0.002488716    2.344    0.573
       120 -12.9398    114.7580    149.9601   7.5569751103e+01   2.9048071858e+01    0.2396131    0.1834191 -65.41 0.0003943036    1.308    0.235
       121 -14.0545    111.9332    157.2402   7.7509267420e+01   2.7993125678e+01    0.5571733    0.3225383  47.18  0.002685874    1.647    0.393
       122 -15.1481    109.4536    149.3361   7.6690529369e+01   3.0124239441e+01    0.6842455    0.6453081 -84.60  0.004154497    1.085    0.078
       123 -12.7163    159.4135    157.3380   6.6975126833e+01   1.8800840894e+01    0.3652186    0.2382234  58.68  0.001696539    1.630    0.386
       124 -11.5821    107.0160    247.5025   8.9903212725e+01   1.2165129424e+01     0.236736     0.149682  30.44  0.001281807    2.242    0.554
       125 -13.1385    121.2375    155.5102   7.5092943229e+01   2.6687555177e+01    0.2578215    0.2326194  89.80 0.0002975469    1.064    0.060
       126 -13.5711    126.5559    151.9813   7.3229329818e+01   2.6438438994e+01    0.4505132    0.2878088  21.82  0.001903147    2.524    0.604
       127 -12.3430      3.1605    153.6172   1.0095677495e+02   4.2273459576e+01    0.3755554    0.1323685 -78.76  0.001500223    2.204    0.546
       128 -12.7779    211.9613    153.7913   5.5517232566e+01   8.2992366601e+00    0.2878262    0.2497708  77.57  0.000368262    1.476    0.322
       129 -11.5221    141.2965    154.6645   7.0417576806e+01   2.3017091083e+01    0.1471374    0.1101624  83.82 0.0003810266    1.649    0.394
       130 -12.2943    180.0263    150.4832   6.1169289124e+01   1.5730317528e+01    0.2343793     0.138883  47.25 0.0009870782    1.593    0.372
       131 -13.4110    146.7014    149.0751   6.8092530568e+01   2.3063718952e+01    0.5063326    0.2447132  47.98 0.0004554725    1.977    0.494
       132 -11.9316    224.4783    148.4025   5.1999129212e+01   6.5464298657e+00    0.2965455    0.2510367 -67.81  0.001038248    1.591    0.371
       133 -13.8758    133.8051    147.7206   7.0743016143e+01   2.5934056806e+01    0.4665079    0.3522844 -36.08  0.002359023    1.564    0.360
       134 -12.8769    170.1485    146.3611   6.2366194613e+01   1.8647054138e+01    0.2764854    0.2213459 -51.23 0.0007106971    1.341    0.254
       135 -11.7326    128.4985    147.4666   7.1913851450e+01   2.7020178815e+01    0.1438768    0.1335708  73.66 3.344785e-05    1.006    0.006
       136 -12.5915     58.9599    143.6843   8.7678019636e+01   3.8935492223e+01    0.2912054    0.1631094 -66.93   0.00131479    1.566    0.362
       137 -12.1472    141.0111    144.5122   6.8440256030e+01   2.5162295501e+01    0.2221875    0.1395815  45.25 0.0003646463    1.534    0.348
       138 -12.5981    105.7137    142.9865   7.6414631501e+01   3.2159450404e+01     0.289023    0.2190267 -76.23  0.001287151    1.352    0.261
       139 -13.1706    101.1575    141.8024   7.7288400810e+01   3.3197548028e+01      0.37334    0.2672745  85.20  0.001357206    1.609    0.379
       140 -11.0549    202.5362    143.4972   5.5059203034e+01   1.2071712172e+01    0.1489601    0.1366773  18.43 8.825946e-05    1.053    0.050
       141 -12.5543    103.9183    244.7233   9.0162629990e+01   1.3053755551e+01    0.3456137    0.2360961 -80.58 0.0009650427    1.628    0.386
       142 -11.2025    151.1621    142.1031   6.5623966389e+01   2.3555830361e+01    0.2240499    0.2002471  11.73 0.0005116159    1.301    0.231
       143 -14.0359     95.8904    135.6087   7.7424631837e+01   3.5447118551e+01     0.408326    0.3146338 -84.51   0.00152007    1.342    0.255
       144 -14.5150     91.2816    130.0133   7.7515981823e+01   3.7444373466e+01    0.4854082    0.3745226 -77.77  0.002671957    1.289    0.224
       145 -11.3464    196.6593    135.3064   5.4344227395e+01   1.4828130787e+01     0.149972    0.1208758 -86.51 0.0007042072    1.684    0.406
       146 -14.4134    104.2148    133.6563   7.4995707637e+01   3.4478704112e+01     0.589513    0.3344459  38.22  0.002696514    1.899    0.473
       147 -10.8129    235.0000    133.9133   4.6842781940e+01   6.6344905198e+00    0.2260159   0.07836743 -33.97 0.0003830247    2.819    0.645
       148 -12.3471    138.4654    131.6291   6.6257668743e+01   2.8383993674e+01    0.4054439    0.2661435 -66.93 0.0007090197    1.889    0.471
       149 -14.0367    118.9785    132.4197   7.1116818228e+01   3.2075966800e+01    0.4301716    0.3248772 -64.51  0.002198225    1.352    0.260
       150 -12.3330    123.4950    129.5115   6.9390938739e+01   3.1843635643e+01     0.221267    0.1360437  55.12 -7.620717e-05    1.722    0.419
       151 -12.8426    157.3086    127.8862   6.1018349252e+01   2.5120053019e+01    0.5771989    0.4428596 -48.18  0.002819167    1.342    0.255
       152 -11.4861    146.0902    127.5817   6.3538504357e+01   2.7627284682e+01    0.3209223    0.1988106 -31.62   0.00134111    2.007    0.502
       153 -14.0229    100.6577    126.2828   7.4403049128e+01   3.6732728063e+01    0.4782879      0.30542 -77.58  0.002174259    1.969    0.492
       154 -13.5626    107.6785    122.7316   7.1866027533e+01   3.6293942216e+01    0.3418134    0.2922644  55.59   0.00108607    1.184    0.155
       155 -13.9088    101.3166    119.9965   7.2910223052e+01   3.8023645377e+01    0.4553385    0.3267529  60.37    0.0016565    1.526    0.345
       156 -11.8009    159.8098    136.5622   6.2458088463e+01   2.2820901963e+01    0.3050247    0.2004278 -26.02   0.00109297    1.998    0.499
       157 -10.6941    134.3623    127.4437   6.6293495052e+01   3.0117535974e+01    0.1453199    0.1390645 -75.39 0.0001081483    1.034    0.033
       158 -11.4157    178.2868    124.4503   5.5557485380e+01   2.1044539027e+01     0.264235    0.1895868 -63.51 0.0009483369    1.763    0.433
       159 -12.4581    189.7929    122.0974   5.2568808028e+01   1.8816003734e+01    0.4061147    0.2732417  59.40  0.001732621    1.618    0.382
       160 -12.1481    200.7968    120.2901   4.9912171696e+01   1.6576421260e+01    0.3015288    0.1980617  67.36  0.001274002    1.947    0.486
       161 -11.9380    119.8500    120.1928   6.8211113786e+01   3.4580983971e+01    0.2000513    0.1793748  -1.62 0.0004115505    1.357    0.263
       162 -10.8997    250.5221    119.4979   4.0909171648e+01   5.6060899633e+00    0.1405648    0.1284287 -13.00 4.377389e-05    1.009    0.009
       163 -12.6116     93.8698    118.8172   7.4600729835e+01   3.9541841101e+01    0.2112453    0.1914788 -35.67  0.000621108    1.237    0.192
       164 -12.7777    105.3311    115.0337   7.0763000977e+01   3.8422873293e+01    0.2607098    0.2465513  -6.00 0.0008015306    1.224    0.183
       165 -13.6403     82.6344    113.9995   7.6577319578e+01   4.2394719344e+01    0.3627311    0.2494917 -79.82  0.001368345    1.666    0.400
       166 -12.7751    116.0389    113.5439   6.7629182453e+01   3.6768246255e+01    0.2832024    0.2438558  69.00  0.001333834    1.225    0.184
       167 -12.7114    114.6089    109.8307   6.7107558943e+01   3.7852864511e+01    0.3454595    0.2672011 -63.69  0.001194604    1.338    0.253
       168 -12.7013     93.3269    112.8401   7.3453767971e+01   4.0971453693e+01    0.3072577    0.2110972 -17.57  0.001365064    2.424    0.587
       169 -12.1099    165.4527    111.3754   5.5089173351e+01   2.6575829663e+01    0.3956836    0.1488404 -43.50  0.001309676    2.698    0.629
       170 -11.9644    108.7660    111.4087   6.9019553432e+01   3.8601859385e+01    0.1964146    0.1408149  31.13 0.0009455448    1.621    0.383
       171 -12.7053     90.0162    108.7741   7.3443089381e+01   4.2419686860e+01    0.3900441    0.2333051  11.82  0.001449362    3.641    0.725
       172 -11.3138    139.7839    107.6137   6.0152069659e+01   3.3161842551e+01    0.2259027    0.1431007  57.96 0.0009550499    1.749    0.428
       173 -17.0469     61.6839    231.8335   9.6100352342e+01   2.1048042848e+01     3.722771      1.77429  71.37   0.02157674    2.044    0.511
       174 -11.5121    217.8161    105.6653   4.3045280994e+01   1.5121150091e+01     0.263909    0.2006286 -19.39 0.0006181315    1.396    0.284
       175 -12.9852     72.7939    105.4306   7.7479159193e+01   4.5748964616e+01    0.2774141    0.1632814 -50.29 0.0009181767    1.554    0.356
       176 -13.0425     66.0759     94.7504   7.7073273126e+01   4.9039804563e+01    0.3904924    0.2312784  19.57  0.001726755    2.414    0.586
       177 -15.0648     76.3775     99.2244   7.5093781444e+01   4.6631934039e+01    0.8667578    0.5720849  36.84  0.004547785    1.691    0.409
       178 -11.2705    109.5265    103.6917   6.6938863913e+01   4.0151566387e+01    0.2045661    0.1367032 -60.77 0.0008284607    1.589    0.371
       179 -12.4302     58.4777    100.0075   8.0417342930e+01   4.8817984687e+01    0.2572452    0.2304305  49.79 0.0006202611    1.264    0.209
       180 -13.3701     92.0285     99.9884   7.0829365743e+01   4.4044429513e+01    0.3332315    0.2568903  39.51  0.001789886    1.404    0.288
       181 -13.5885     60.6581     93.5917   7.8416847808e+01   4.9983296067e+01    0.5127691    0.2663258 -51.17  0.002524144    1.666    0.400
       182 -13.2336      2.2189    102.8726   9.6525491580e+01   5.3083271637e+01    0.4166524     0.156917 -77.48  0.002102537    2.187    0.543
       183 -11.8465    163.3385    246.8247   8.0317544493e+01   3.3364462708e+00    0.1856267    0.1241725  49.84 0.0005460544    1.185    0.156
       184 -11.1645    249.5366     99.5124   3.6306092959e+01   8.8723489465e+00    0.1420614    0.1312163 -21.56  8.07113e-05    1.010    0.010
       185 -10.6750    208.6797     99.6785   4.3163901488e+01   1.8326913273e+01    0.1589339    0.1186636  16.10 0.0004969901    1.671    0.402
       186 -11.6913    191.8159     99.3624   4.6315083037e+01   2.2501729679e+01    0.2243804    0.1391007  43.32 0.0003084679    1.647    0.393
       187 -10.8068    139.4703    247.4766   8.4456736790e+01   7.1303994297e+00    0.1171294   0.08749004  52.52  2.19876e-05    1.014    0.013
       188 -10.5680    237.7159     98.6777   3.7930223861e+01   1.1641832948e+01    0.1467443    0.1113581  10.28 0.0002664899    1.595    0.373
       189 -11.8355    173.5810     98.2323   4.9801566684e+01   2.7176300543e+01    0.2234423    0.1527625 -25.14 0.0009532171    1.665    0.399
       190 -11.7492    150.1863     96.3042   5.4595107727e+01   3.3126052427e+01    0.3748737    0.1961523  67.04  0.001211616    3.224    0.690
       191 -12.7920    179.8304    244.4596   7.7195957164e+01   9.1422561519e-01    0.2222768     0.190875  30.22 0.0006212186    1.181    0.153
       192 -11.3652    197.9763    242.9517   7.3887400524e+01  -1.9090117245e+00    0.1769794    0.1316987  39.16 0.0003526597    1.046    0.044
       193 -11.5543     12.0015     94.5324   9.2797955274e+01   5.4282320930e+01    0.1363193    0.1142627  30.78 0.0005373849    1.533    0.348
       194 -10.7780     98.6393     92.9502   6.7183330887e+01   4.4454725174e+01    0.2397954    0.1171959 -68.07 0.0007041466    4.465    0.776
       195 -11.4028    214.0586     92.4830   4.0310270910e+01   1.8241156797e+01    0.2221623    0.1494687  54.03 0.0003552469    1.504    0.335
       196 -14.1588     73.2522     89.4044   7.3683205650e+01   4.9246022144e+01    0.5628583    0.3459563 -83.43  0.002211306    2.763    0.638
       197 -12.9203      2.9089     90.9614   9.4866597410e+01   5.5598541644e+01    0.2530476    0.1700628 -66.40  0.000418234    1.117    0.104
       198 -11.7009    183.4703     91.5242   4.5873263611e+01   2.5982075205e+01    0.1542741     0.153577  59.93 0.0002103323    1.012    0.012
       199 -11.2683    118.2053    104.6276   6.4870827258e+01   3.8283371026e+01    0.3243564    0.1328734  51.91   0.00111818    2.870    0.652
       200 -10.8623     21.7593     91.3689   8.9514034381e+01   5.4290112075e+01    0.1330725     0.111615  -9.93 0.0005474173    1.550    0.355
       201 -11.6488    153.3935     89.7963   5.2004928529e+01   3.3651852954e+01    0.2225031    0.1495322 -27.21 0.0006739455    1.679    0.404
       202 -13.0135     26.2736     89.4992   8.7865944079e+01   5.4350981388e+01    0.3443772     0.234277  60.07  0.001452134    1.804    0.446
       203 -13.4133     31.5568     89.0889   8.6213108992e+01   5.4004897475e+01    0.2913814    0.2192282 -74.63 0.0009868839    1.200    0.166
       204 -11.8925     11.5134     88.0911   9.1991250741e+01   5.5706853528e+01    0.3120352    0.1301804 -59.29  0.001237554    1.756    0.430
       205 -12.2166    171.1495     88.1311   4.7518477388e+01   2.9660860900e+01    0.2369554    0.2158786  15.36 0.0004608001    1.174    0.148
       206 -13.4014     53.8619     84.7193   7.8480809688e+01   5.2742881187e+01    0.6397349    0.4279162 -81.36  0.003021443    1.863    0.463
       207 -12.4772     66.4574     87.0259   7.5154273160e+01   5.0691561708e+01     0.212598    0.1166561 -55.14 0.0008579809    1.601    0.375
       208 -11.1324    114.7400     85.1676   6.0536493338e+01   4.3076709240e+01    0.2469839     0.165923  89.53 0.0006392247    2.794    0.642
       209 -10.4991     92.3065     83.6574   6.6503947677e+01   4.7531394253e+01    0.1416175    0.1108093 -85.43 0.0007042519    1.688    0.408
       210 -12.7427     62.3352     82.3423   7.5277181721e+01   5.2241297126e+01    0.2317781    0.1830446 -36.05 0.0008090836    1.257    0.205
       211 -10.8612    222.4643     82.0040   3.6129213087e+01   1.7904750251e+01    0.2186458    0.1440091 -32.85 6.579229e-05    1.477    0.323
       212 -13.0054    212.6132     81.0741   3.7527266574e+01   2.0485763501e+01    0.4722668    0.3151319  14.50   0.00107517    2.236    0.553
       213 -12.7117    206.4057     81.0432   3.8600524051e+01   2.2044065415e+01    0.3636257    0.2695316 -24.15  0.001438548    1.424    0.298
       214 -12.8584    183.3732     77.9490   4.2062589332e+01   2.8410471173e+01    0.5232325    0.3010872 -22.47  0.002028737    2.120    0.528
       215 -12.4240    153.2383     80.2542   4.9260910727e+01   3.5503364888e+01    0.2690495    0.2556928 -88.48 0.0003006215    1.119    0.107
       216 -12.5736     28.5972     79.8421   8.5351920021e+01   5.6264442424e+01    0.2303191    0.1810999  53.52  0.001183274    1.560    0.359
       217 -11.0413    120.4745     78.9251   5.7134338452e+01   4.3167279715e+01    0.2166291    0.1435877 -40.83 0.0003033792    1.469    0.319
       218 -12.2158     87.4396     78.9785   6.6644797557e+01   4.9324531079e+01    0.2692297    0.2188372  35.12  0.001001724    1.338    0.253
       219 -12.7141    112.0306     75.9047   5.8549862006e+01   4.5488449689e+01    0.3771916    0.2742521 -33.81 0.0006861508    1.371    0.271
       220 -11.7779    115.6790     74.6984   5.7163242231e+01   4.4990747349e+01    0.2841409    0.2104662 -20.12  0.001056439    1.551    0.355
       221 -12.3292     70.6978     77.3030   7.1349606629e+01   5.2211132975e+01    0.2074719    0.1556488 -62.82 0.0002829536    1.364    0.267
       222 -13.4448     75.5492     75.3839   6.9294967043e+01   5.1921401384e+01    0.4156325    0.3210821   6.58  0.001211523    1.601    0.375
       223 -10.8851    177.9550     75.0109   4.2301270481e+01   3.0297183657e+01    0.1897738    0.1816126  54.72  0.000576918    1.034    0.033
       224 -11.2308     59.6381     75.6796   7.4441444902e+01   5.4006842138e+01     0.136601   0.09120849 -26.35 0.0007042054    1.774    0.436
       225 -11.7086     31.9764     74.5717   8.3173029681e+01   5.7116261376e+01    0.2683525    0.1859536  -7.24  0.001625916    1.923    0.480
       226 -11.8347    177.9691     86.9872   4.5743917564e+01   2.8174879885e+01     0.189758    0.1827815  50.18 0.0004162945    1.029    0.029
       227 -12.2426    219.6142     72.2586   3.4002948561e+01   2.0149179384e+01    0.2936436    0.2274068 -68.47 0.0009679706    1.476    0.323
       228 -12.1333      7.2430     78.2517   9.1732831938e+01   5.8069686418e+01    0.1605396    0.1413445  -8.64 0.0006866127    1.462    0.316
       229 -12.6428      4.0076     72.5149   9.1805926639e+01   5.9458412040e+01    0.2248106     0.172257  33.79  0.001661902    1.689    0.408
       230 -12.2086      1.9708     68.6427   9.1810249539e+01   6.0372819030e+01     0.282309    0.1115042 -61.43  0.001279418    1.748    0.428
       231 -10.3408     94.3111     72.6905   6.2727263654e+01   4.9452215783e+01    0.1373107    0.1124114 -84.18 0.0001844605    1.624    0.384
       232 -13.4835    188.5319     66.3533   3.7705357064e+01   2.9025686003e+01    0.4682708    0.3461666 -43.55 0.0009881597    1.371    0.270
       233 -13.3301    197.8511     65.9738   3.5907671319e+01   2.6675131330e+01    0.4665585    0.3302983 -31.22  0.002161813    1.432    0.302
       234 -11.9072     59.9718     67.8209   7.2207570431e+01   5.5612934882e+01    0.2045316     0.157154 -29.21 0.0006421524    1.297    0.229
       235 -12.4818    101.5294     63.2766   5.7600858482e+01   4.9976812468e+01    0.3607984    0.2308495 -13.68 0.0008535872    2.226    0.551
       236 -10.7404     78.9669     65.9883   6.5447682529e+01   5.3330046316e+01    0.1678816    0.1379239 -40.55 0.0004035816    1.096    0.087
       237 -12.8893      7.0449     65.2222   8.9528682468e+01   6.0822530439e+01    0.2112057    0.1672087  19.75  0.001574915    1.640    0.390
       238 -10.4662    176.2496     64.7330   3.9592626307e+01   3.2465323556e+01    0.1470088    0.1183671 -68.42            0    1.439    0.305
       239 -12.2648    113.9480     63.2410   5.4003213041e+01   4.7526765516e+01    0.2471797     0.199142 -61.64 0.0007497221    1.484    0.326
       240 -12.2180     44.9914     61.9008   7.5665422670e+01   5.8547657834e+01    0.3167485    0.2113315 -37.84  0.001516641    1.356    0.262
       241 -12.4472     40.3306     60.4251   7.6896879977e+01   5.9319507200e+01     0.219045    0.1233034  26.23  0.001206175    2.120    0.528
       242 -10.5385    214.6555     62.7429   3.2210412388e+01   2.2863230923e+01     0.151572    0.1123177  32.21 0.0004304391    1.590    0.371
       243 -12.2751     13.5353     61.9571   8.6668740076e+01   6.1123767126e+01    0.1626889    0.1408105 -43.87  0.000458192    1.171    0.146
       244 -11.6397    208.3901     61.2203   3.2787224302e+01   2.4696200539e+01    0.2241586    0.1324339 -42.24 0.0009533262    1.672    0.402
       245 -11.6558    216.9660     60.0231   3.1110614061e+01   2.2685530188e+01    0.1790294    0.1715531 -55.37 0.0004255543    1.018    0.017
       246 -12.0531    109.5271     60.0042   5.4183329496e+01   4.9021184706e+01    0.2761445    0.2107312  63.72  0.001377622    1.632    0.387
       247 -11.5358      2.9709     59.4999   8.9827552767e+01   6.2215879824e+01    0.2231882    0.1304322 -22.27  0.001413765    2.079    0.519
       248 -12.8411    192.8424     57.4151   3.4314443311e+01   2.9310174925e+01    0.3675054    0.2567953 -80.60  0.001353792    1.863    0.463
       249 -11.5354    153.7512     57.4883   4.2080670792e+01   3.9373717410e+01     0.258602    0.2089794 -29.59  0.000555831    1.263    0.208
       250 -11.6903    140.8252     57.4248   4.5058640541e+01   4.2542419223e+01    0.3417875    0.2190339  60.83  0.001132594    1.705    0.414
       251 -11.7401    224.5038     56.7551   2.9116337423e+01   2.1265198227e+01    0.3126655     0.182152  79.81  0.001290525    2.152    0.535
       252 -11.8475     98.8834     57.1077   5.6337572833e+01   5.1621675637e+01    0.2150297    0.1964112 -61.39 0.0008600411    1.273    0.214
       253 -12.5295     29.4965     56.5058   7.9724366968e+01   6.1094433287e+01    0.2435548    0.1652781 -41.18  0.001098729    1.248    0.198
       254 -13.2595     26.3044     54.9476   8.0479282150e+01   6.1667576184e+01    0.2704787    0.2239931 -75.85 0.0008502743    1.377    0.274
       255 -10.8416    121.2726     55.6497   4.9445466224e+01   4.7323662379e+01    0.1457837    0.1152962 -65.72 0.0002635203    1.631    0.387
       256 -12.3264    109.7355     54.7652   5.2343459561e+01   4.9914962787e+01    0.3965789    0.2376644  14.41  0.001524342    2.818    0.645
       257 -10.4530    240.2899     54.6724   2.6435207014e+01   1.7682750262e+01     0.150252     0.100372 -60.18 0.0002097989    1.617    0.382
       258 -12.4475    181.9920     51.7722   3.4571110779e+01   3.3005012742e+01    0.3818703    0.2459075  81.31  0.001587558    1.964    0.491
       259 -11.9257    124.0791     51.8523   4.7395048870e+01   4.7345395510e+01    0.2150158    0.2017742 -71.95 0.0004794837    1.234    0.190
       260 -11.8494    172.4235     50.7273   3.6046234618e+01   3.5663074271e+01    0.3182634    0.1885314  73.57  0.000948461    2.058    0.514
       261 -10.8984     94.4760     51.5170   5.5752511013e+01   5.3444831116e+01    0.1400758    0.1266298 -13.15 0.0008099067    1.016    0.015
       262 -12.0969     43.0952     50.3164   7.2980530580e+01   6.1060658598e+01    0.3019997    0.1764457 -40.62  0.001703442    1.438    0.305
       263 -13.0769     30.9523     50.9028   7.7669239142e+01   6.2096119719e+01    0.2601808    0.1769022  13.13  0.001093258    1.773    0.436
       264 -11.9208    159.5974     50.1795   3.8454443754e+01   3.9054192178e+01    0.3634996    0.2118067  46.12  0.001534891    1.688    0.408
       265 -12.2249     37.9784     50.2714   7.4865353487e+01   6.1581519797e+01     0.169161    0.1433049 -34.51  0.001014695    1.069    0.064
       266 -13.0449     19.3034     47.6310   8.1170561155e+01   6.3650077515e+01     0.441373    0.1467477 -44.65  0.000820018    2.352    0.575
       267 -11.8667    133.1385     48.3334   4.3866477349e+01   4.5841253712e+01    0.2332243    0.2006292  -4.90 0.0004003741    1.204    0.169
       268 -12.4160    197.1519     45.4280   3.0090779612e+01   2.9938672711e+01     0.411675    0.2345417 -76.48  0.001486102    2.836    0.647
       269 -11.0820    174.3370     44.1838   3.3636347147e+01   3.6121894267e+01    0.2151889    0.1333948 -39.36  0.000861978    1.648    0.393
       270 -11.0044    157.3720     46.1968   3.7622809237e+01   4.0220990275e+01     0.201019    0.1381923 -40.78 0.0002721758    1.512    0.338
       271 -11.3900     95.4496     42.0411   5.2019207449e+01   5.4876099736e+01    0.2080556    0.1279409 -32.36 0.0005554675    1.552    0.356
       272 -13.5541     33.0049     40.1949   7.3640296260e+01   6.3982940615e+01    0.4649879    0.2339003  12.62  0.002384597    2.723    0.633
       273 -11.2203    246.9096     39.6710   2.1882440445e+01   1.8136853776e+01    0.1921373    0.1682582 -84.56 0.0005293912    1.116    0.104
       274 -11.6611    146.1252     39.3123   3.7721941891e+01   4.4051337720e+01    0.2315734    0.1986158  -6.02 0.0002736341    1.228    0.185
       275 -11.3815    104.1926     40.1250   4.8684027865e+01   5.3471805633e+01    0.2194394    0.1771979   7.65 0.0006418712    1.267    0.211
       276 -12.3755     56.0129     36.6559   6.3485305550e+01   6.2083087358e+01    0.3254917    0.1458186  26.96 0.0007080134    2.749    0.636
       277 -10.8373    136.4197     38.4864   3.9633833053e+01   4.6543365292e+01    0.1466469    0.1370663  20.42 9.900252e-05    1.025    0.024
       278 -13.3262     10.2498     36.8162   8.1785781471e+01   6.6334990687e+01    0.2913284    0.1928353 -23.55 0.0009195607    1.519    0.342
       279 -11.2665    231.3287     37.3282   2.3095119748e+01   2.2237776535e+01     0.144102    0.1072939  30.62 0.0007051017    1.707    0.414
       280 -10.8004    110.3005     37.6885   4.6028899863e+01   5.2582146343e+01    0.1347685    0.1125551 -67.15 0.0002576702    1.606    0.377
       281 -12.4896    169.9046     32.9834   3.0888278119e+01   3.8809113269e+01    0.5790791    0.2118032 -34.78  0.002064508    2.671    0.626
       282 -12.6203     44.0775     34.2947   6.7214176591e+01   6.3935302383e+01    0.2962869    0.2346877 -61.86  0.001232048    1.657    0.396
       283 -11.9081    223.2012     32.6691   2.2861317299e+01   2.4883266765e+01    0.3199993    0.1881606 -27.92  0.001469003    1.759    0.431
       284 -13.5272     31.3362     33.1084   7.1929264047e+01   6.5440863159e+01    0.3641118     0.242549 -16.99  0.001940322    1.537    0.350
       285 -11.1846    177.2951    249.4345   7.8267066207e+01   7.0718033093e-01    0.1542874    0.0868652  49.05 0.0002561844    1.444    0.307
       286 -11.0616      8.6385     32.2750   8.1147940905e+01   6.7287789898e+01   0.09476145     0.082291  80.41 0.0007005793    1.661    0.398
       287 -11.9203    213.9651     31.2670   2.3648365866e+01   2.7429523206e+01    0.2121943    0.1803664  74.96  0.001053354    1.130    0.115
       288 -11.3473    140.5370     30.2374   3.5775862260e+01   4.6665510879e+01    0.3373152   0.06287871  48.80 0.0008916543    4.492    0.777
       289 -11.9878     75.1517     30.3593   5.4099334529e+01   6.0311152189e+01    0.1671675    0.1210535  48.20 0.0003731001    1.665    0.399
       290 -12.7412     39.0028     29.3423   6.7409463059e+01   6.5349699613e+01    0.2603913    0.1985825 -18.55 0.0009840911    1.162    0.140
       291 -10.9432    156.2759     29.3229   3.2218711915e+01   4.2818353209e+01    0.1508671    0.1075464  26.65 0.0002075916    1.580    0.367
       292 -11.0690    178.8575     27.8386   2.7734081433e+01   3.7097177069e+01    0.1971914     0.165097 -62.16 0.0002449283    1.277    0.217
       293 -10.8864    145.5572     28.2408   3.3998716006e+01   4.5674495907e+01    0.1897709    0.1406122  -4.17 0.0005094887    1.527    0.345
       294 -12.4570     47.5942     26.4706   6.2803464803e+01   6.4858362489e+01    0.2165047    0.1833297  49.52  0.001386454    1.718    0.418
       295 -11.0534     25.4745     27.4297   7.2374334799e+01   6.6972096383e+01    0.1159699   0.08874842 -32.56 8.522996e-05    1.011    0.010
       296 -10.8500    118.9807     26.0014   3.9276559126e+01   5.2310464266e+01    0.1693444    0.1528155  27.07 0.0003716215    1.024    0.023
       297 -11.2187    127.7104    247.1735   8.6412471616e+01   9.0405451701e+00     0.205752    0.1006993 -53.99  0.001180209    2.619    0.618
       298 -11.3496    230.9645     32.4693   2.1878671460e+01   2.2953565845e+01    0.2033888    0.1337969  69.67 0.0003255473    1.499    0.333
       299 -11.5207    250.0166     22.0555   1.7280435006e+01   1.9604532616e+01    0.2000377    0.1793953 -69.30 0.0003897896    1.028    0.027
       300 -10.5942    134.4928     18.5027   3.2832687862e+01   4.9567729485e+01    0.1432897    0.1290216  34.90 0.0008105767    1.018    0.018
       301 -12.2321    102.7386     16.4207   3.9735102864e+01   5.7031093420e+01    0.3377887    0.2008003  33.70  0.001031019    1.653    0.395
       302 -11.3005     30.2459     16.7850   6.6132476712e+01   6.8329496033e+01    0.1627852     0.130003 -32.59 0.0006312703    1.173    0.147
       303 -11.0010     66.5109     16.5517   5.1304415431e+01   6.3709289781e+01    0.1255888    0.1051972  -4.71 6.820587e-05    1.030    0.029
       304 -10.6724     41.4525     13.5755   5.9846996387e+01   6.7605398319e+01    0.1177283   0.09300799 -15.93 0.0001847648    1.023    0.022
       305 -11.9690     95.5364    239.1523   9.1059442377e+01   1.5170290454e+01    0.3504452    0.2343796 -38.03  0.002036298    3.088    0.676
       306 -11.5509    104.2329    232.6393   8.8958115971e+01   1.4932749112e+01     0.315354     0.232686  -5.33   0.00159229    3.947    0.747
       307 -10.6284     53.3252     11.3517   5.3939653197e+01   6.6381076678e+01    0.1293141   0.07999226  -2.01 0.0007047993    1.759    0.432
