#   1 NUMBER                 Running object number                                     
#   2 MAG_AUTO               Kron-like elliptical aperture magnitude                    [mag]
#   3 X_IMAGE                Object position along x                                    [pixel]
#   4 Y_IMAGE                Object position along y                                    [pixel]
#   5 X_WORLD                Barycenter position along world x axis                     [deg]
#   6 Y_WORLD                Barycenter position along world y axis                     [deg]
#   7 A_WORLD                Profile RMS along major axis (world units)                 [deg]
#   8 B_WORLD                Profile RMS along minor axis (world units)                 [deg]
#   9 THETA_WORLD            Position angle (CCW/world-x)                               [deg]
#  10 FWHM_WORLD             FWHM assuming a gaussian core                              [deg]
#  11 ELONGATION             A_IMAGE/B_IMAGE                                           
#  12 ELLIPTICITY            1 - B_IMAGE/A_IMAGE                                       
         1 -11.9326      9.4049     26.7991   4.9773853901e+01   7.3918746657e+01    0.5157098    0.2129498 -44.40  0.002307272    2.209    0.547
         2 -11.2303      1.5886     20.0470   5.3426131188e+01   7.5970476475e+01    0.4902989    0.1266214 -58.46  0.001878267    3.290    0.696
         3 -12.3341    249.7252     17.4139   3.4782671722e+02   2.4636028309e+01    0.5670402    0.1822632 -33.00  0.002895303    2.454    0.592
         4 -13.2292    241.8239     17.3241   3.4818387684e+02   2.5995420196e+01    0.4211075    0.3909795 -10.93  0.002407146    1.565    0.361
         5 -13.1971    241.5141      3.2001   3.4537632140e+02   2.7499780404e+01    0.5965968    0.4244191 -75.13  0.004545118    1.277    0.217
         6 -12.2665      8.4926     16.4985   4.5389210131e+01   7.6072499412e+01    0.4481146    0.2912915   4.09   0.00250622    1.580    0.367
         7 -10.0759     35.4172     15.4379   2.4824944139e+01   7.2335640812e+01    0.3533641     0.168255 -21.48  0.001360745    3.406    0.706
         8 -11.9830     23.5140     12.8973   3.0985786741e+01   7.4743721772e+01    0.3680949    0.2413884 -15.92  0.001965728    1.787    0.440
         9 -11.3827      3.0300      3.3553   4.2341499726e+01   7.9035130991e+01    0.4774542    0.3469731   6.87   0.00269024    1.263    0.208
        10 -10.9531     11.7034      1.8850   3.2623980289e+01   7.8203055002e+01    0.3268169    0.1693971  29.44  0.001661522    1.834    0.455
        11 -11.3987      3.4819     10.2013   4.6425223519e+01   7.7758294455e+01    0.3454137    0.2258505 -20.45  0.001436166    1.502    0.334
        12 -12.2178      8.9807      7.2165   3.9137774028e+01   7.7700730586e+01    0.4288498    0.2777295 -29.60  0.001940158    1.513    0.339
        13 -11.6207     16.3494      8.1913   3.3317580832e+01   7.6566524956e+01    0.2909093    0.1892717 -13.39  0.001463336    1.782    0.439
        14 -10.6997    211.5009      8.0960   3.4776328577e+02   3.2595489701e+01    0.1701555   0.09472103 -36.52  0.000782555    1.542    0.351
        15 -12.8854    248.1514      9.4741   3.4634749067e+02   2.5727821283e+01    0.6567367    0.2705544  75.08  0.003875166    2.688    0.628
        16 -10.5784     27.6659      3.0220   2.1147877694e+01   7.5449699652e+01    0.3022092    0.2065911   8.27  0.001689433    1.687    0.407
        17 -11.2296    248.4636      3.1729   3.4511363340e+02   2.6306624916e+01    0.4333263    0.2564866 -63.27  0.003104375    1.322    0.244
        18 -10.0705     19.8716      1.8982   2.5783112137e+01   7.6951029492e+01    0.1975434    0.1504796  11.20   0.00122331    1.269    0.212
        19 -10.3608     40.4224    230.7047   6.8850276972e+01   1.9940506911e+01    0.3846644    0.2041391 -88.59  0.002017481    2.205    0.546
        20 -14.3586    234.1335    245.4770   3.1019237658e+01  -3.5021902426e+00     1.829623     1.095664 -12.37   0.01364158    1.292    0.226
        21 -13.1711    247.2176    226.5941   2.6365908888e+01  -2.4397481221e+00    0.8926526    0.3104465 -30.59  0.004811893    2.376    0.579
        22 -13.3973    248.9843    243.9692   2.8597150190e+01  -4.5797581226e+00     1.949561     0.224865 -38.24  0.006693803    7.490    0.866
        23 -10.7199     51.1716    249.9445   6.7590456712e+01   1.5125782762e+01    0.3171127    0.1359448  31.37   0.00164923    1.762    0.432
        24 -11.2441     34.7773    247.8500   7.1094434427e+01   1.7130985049e+01    0.5572435    0.1823338  46.22  0.002622219    2.351    0.575
        25 -11.0727     29.3940    241.9440   7.2001629889e+01   1.8771381863e+01    0.6402026     0.141241  40.71  0.002678179    2.788    0.641
        26 -11.8315     22.3729    248.8961   7.3858267868e+01   1.8084775827e+01    0.8293709    0.1617518  32.11  0.003472258    2.915    0.657
        27 -11.9336     17.0694    239.7479   7.4664596570e+01   2.0321512612e+01    0.7615385    0.2883978  37.73  0.003908226    1.875    0.467
        28 -10.2463      1.5944    234.3696   7.7936391564e+01   2.2692233164e+01    0.2086683    0.1437663  81.57  0.001041641    1.423    0.297
        29 -11.4577      3.0974    212.1725   7.6917562180e+01   2.7255360536e+01    0.4989535    0.2529391  60.44  0.002407043    1.691    0.409
        30 -10.7656      2.4553    205.9893   7.6865110496e+01   2.8685190591e+01    0.3560981    0.2081082  74.73  0.001491486    1.568    0.362
        31 -11.5882      2.4114    220.6048   7.7352254382e+01   2.5480059900e+01    0.4533079    0.2409133  86.84  0.002189409    1.858    0.462
        32 -11.0921      6.8007    234.9802   7.6792751666e+01   2.2146856180e+01    0.3872324    0.2005908  55.70  0.001377182    1.573    0.364
        33 -11.5491      5.9309    227.8102   7.6762198758e+01   2.3682249292e+01    0.5192867    0.2516383  71.97  0.002208987    1.965    0.491
        34 -10.8787     10.8349    248.6280   7.6338212948e+01   1.9145418425e+01    0.4179188    0.1460862  41.92  0.002171855    1.944    0.485
        35 -12.5974      4.2165    243.6212   7.7614034023e+01   2.0654912865e+01    0.7967396    0.3734742  75.15  0.004455574    2.096    0.523
        36 -11.5665     21.5956    229.6663   7.3209248758e+01   2.1949646298e+01    0.5311029    0.2945797  49.70  0.003039112    1.468    0.319
        37 -10.4580    104.1668    230.1845   5.3877099606e+01   1.2871676211e+01    0.1782985     0.133715  45.64  0.001083864    1.351    0.260
        38 -10.2296     63.0098    229.8081   6.3441131059e+01   1.7740514088e+01    0.2272383    0.1051056  47.72  0.001087763    2.000    0.500
        39 -10.3953     48.1666    229.6656   6.6951423564e+01   1.9361357733e+01    0.2478735     0.134879  62.89  0.001280235    1.970    0.492
        40 -10.7328     12.2993    227.0470   7.5263697490e+01   2.3309558154e+01     0.358064    0.1619094  59.31   0.00128368    1.951    0.488
        41 -10.3164     95.9901    228.4783   5.5566797690e+01   1.4177166581e+01    0.1928401   0.07725301  44.98 0.0008100825    2.569    0.611
        42 -12.6782    242.0829    237.2772   2.8666894821e+01  -3.2420755781e+00    0.6577293    0.2894133 -20.85  0.003570147    2.092    0.522
        43 -11.3071     32.5468    232.8472   7.0818051170e+01   2.0277829989e+01    0.4197092    0.2403349  74.38  0.002345409    1.860    0.462
        44  -9.6295     33.2075    224.2148   7.0178161122e+01   2.1996664997e+01    0.1843999    0.1170987  51.42 0.0009746769    1.347    0.258
        45 -11.8400     15.2324    218.7115   7.4230044604e+01   2.4825748368e+01    0.8517133    0.1671682  47.42  0.003127923    3.473    0.712
        46 -10.4134     44.2958    221.1923   6.7295563998e+01   2.1522899140e+01    0.3062246    0.1778548  50.25  0.001597257    1.524    0.344
        47  -9.8229     63.7639    220.9027   6.2507821931e+01   1.9472325207e+01    0.2726626    0.1201729  47.34  0.001234785    2.126    0.530
        48 -10.4481     35.1226    215.4612   6.9175446231e+01   2.3686224763e+01    0.3965065    0.1058165  44.85  0.001517786    2.928    0.658
        49 -10.8551     25.6938    210.6247   7.1245435646e+01   2.5662024932e+01    0.4370447    0.2475434  68.39  0.002293264    1.742    0.426
        50 -10.1517     45.5574    212.2722   6.6332091015e+01   2.3318051878e+01    0.3460493    0.1126847  50.90  0.001291997    3.113    0.679
        51 -11.8491     13.0152    204.5612   7.4146762972e+01   2.8158831486e+01     1.010126    0.2945094  48.56  0.004082019    2.718    0.632
        52 -12.0308      6.3553    195.4033   7.5463582852e+01   3.0822872296e+01    0.5152738    0.3546713  51.62  0.002737705    1.220    0.181
        53 -12.0284      3.8386    188.7237   7.5852287958e+01   3.2602822609e+01    0.4405512    0.3796332 -84.48  0.002338914    1.200    0.167
        54 -12.6679    243.2862    245.2288   2.9606725362e+01  -4.2503106007e+00    0.6105243    0.2441078 -24.29  0.003659228    2.226    0.551
        55 -10.4266     39.4290    205.4862   6.7394674830e+01   2.5474714901e+01     0.381848    0.1717498  66.26  0.001597379    2.659    0.624
        56  -9.4765     51.6733    206.3383   6.4287071078e+01   2.3976657674e+01    0.1461256   0.08332458  55.22 0.0005523193    1.728    0.421
        57 -10.3736     30.1271    201.4284   6.9540126789e+01   2.7333160045e+01     0.329038    0.1926036  64.26  0.001690509    1.665    0.399
        58 -10.6335    250.4754    200.4004   2.1897899078e+01   4.7341744123e-01    0.3342315     0.081116 -37.50  0.001497685    3.291    0.696
        59 -10.4750    243.5915    199.9412   2.2801350640e+01   1.2164428125e+00    0.3165432   0.07902347 -35.59  0.001389559    3.264    0.694
        60  -9.4559     53.3350    199.6641   6.3258494963e+01   2.5308043644e+01    0.1493308   0.08586675  55.63 0.0007052007    1.743    0.426
        61  -9.2781     44.9844    199.4827   6.5463202006e+01   2.6269441895e+01    0.2050258   0.07506251  45.79 0.0008088357    2.425    0.588
        62 -11.7806     19.0516    194.2508   7.2037244139e+01   3.0041021886e+01    0.8896214    0.2802533  57.12  0.003247534    3.265    0.694
        63 -10.7896    237.3436    196.3248   2.3130117998e+01   2.3393965463e+00    0.3353176   0.07301988 -34.11  0.001247797    4.334    0.769
        64  -9.8257     32.8573    193.8127   6.8279698870e+01   2.8854417788e+01    0.1981267    0.1360575  58.84   0.00107435    1.341    0.255
        65 -10.3274    200.8818    249.1986   3.6927289544e+01  -9.0709520707e-01    0.2600044    0.1285036  -1.68  0.001426867    2.382    0.580
        66 -10.0237     39.9801    183.5053   6.5463137980e+01   3.0622553586e+01     0.316677    0.1737439 -86.40  0.001449636    1.982    0.496
        67 -10.8210     16.1185    182.1522   7.2135915040e+01   3.3226943220e+01    0.4353592    0.2383026  66.63  0.002033387    1.756    0.431
        68 -10.7171     28.1882    187.4176   6.9098732271e+01   3.0848279736e+01    0.3772127    0.1479327  49.69  0.001549757    2.332    0.571
        69 -12.8732      6.6544    174.7459   7.4424072784e+01   3.5825809003e+01    0.9837752    0.4249456  89.45  0.004263323    2.268    0.559
        70 -11.0118      2.6371    165.6081   7.5144151211e+01   3.8431176861e+01    0.4607272    0.2453636  36.76   0.00227824    1.697    0.411
        71 -10.5325     23.0652    180.0341   7.0022217195e+01   3.3144654527e+01     0.323788    0.1427729  68.53  0.001306002    2.523    0.604
        72 -11.0498     30.9701    172.4075   6.7115140037e+01   3.4323671743e+01    0.5327871     0.202991 -86.12  0.001913007    3.113    0.679
        73 -11.3141     19.1936    172.1360   7.0598685258e+01   3.5478442857e+01    0.6155911      0.29712  74.64  0.002643127    2.207    0.547
        74  -9.8132     41.4835    172.9642   6.4032090607e+01   3.3097974557e+01    0.2097062    0.1036045  72.17 0.0008064961    2.555    0.609
        75 -11.5700     10.2800    166.2139   7.2879753699e+01   3.7721954757e+01    0.3116916    0.2037428  64.91  0.001112104    1.405    0.288
        76  -9.2819    107.5128    162.4631   4.3428919218e+01   2.6647973202e+01    0.1447424    0.1393488   9.75 8.210046e-05    1.026    0.026
        77 -11.8181     10.2504    137.5422   7.0878639520e+01   4.5329433947e+01    0.6893665    0.3012796 -77.93  0.002854091    2.096    0.523
        78 -12.6782     11.0962    152.7601   7.1744922503e+01   4.1179416967e+01     1.078167    0.3595858  56.69  0.003746282    3.228    0.690
        79 -10.3347     35.4135    147.6183   6.3220402990e+01   4.0389626671e+01    0.3757334    0.1692349  85.57  0.001310238    2.991    0.666
        80 -10.4547     57.9810    247.4559   6.5916086738e+01   1.4885232727e+01    0.3559031    0.1313623  44.37  0.001475601    2.237    0.553
        81 -10.9868     20.5208    141.7603   6.7673771442e+01   4.3384678628e+01    0.4901521    0.2426668 -88.39  0.002036672    2.082    0.520
        82 -10.4010     33.0000    134.0147   6.2388536708e+01   4.4335216486e+01    0.4108889   0.07990932 -71.51  0.001050671    4.928    0.797
        83 -11.4602      5.4974    125.0424   7.1578544087e+01   4.9051015936e+01    0.6782525    0.3544476  71.92  0.002971333    1.982    0.495
        84 -11.1142     21.9065    124.2723   6.5280233631e+01   4.8058360466e+01    0.7794638    0.1898432 -73.92  0.002302148    3.841    0.740
        85  -9.2359     93.3263    118.2873   3.8486843312e+01   3.9748908503e+01    0.1548755    0.1229906 -12.34 0.0002924785    1.610    0.379
        86 -11.2029     10.2107    112.9164   6.8585109405e+01   5.2079531014e+01    0.7718337    0.3131553  86.49  0.002756663    2.890    0.654
        87 -10.3857     21.6674    107.4311   6.3134920348e+01   5.2721598186e+01    0.4221376    0.2117804  85.59  0.001625757    2.447    0.591
        88 -11.0376     13.6849     98.9520   6.5378753710e+01   5.5672464712e+01    0.5100653    0.2411764 -84.57  0.002044318    2.230    0.552
        89 -11.0479      2.8006     94.9207   6.9783251223e+01   5.7433028247e+01    0.6297386    0.2793877  85.79  0.002475018    2.493    0.599
        90  -9.6375    230.2201     93.9760   4.9978593177e+00   1.8194324522e+01    0.1662165   0.07997505 -37.87 0.0005366581    1.636    0.389
        91 -11.2796     16.4413     86.3271   6.2099735415e+01   5.8884228838e+01    0.4298037   0.08597031 -63.82  0.001314196    3.539    0.717
        92 -11.0366      9.8388     71.4398   6.2746227257e+01   6.3283587036e+01    0.2968544    0.1310211 -41.28  0.001214983    2.257    0.557
        93  -9.5242    222.0133     63.4820   3.5935649109e+02   2.3927833311e+01    0.1534452    0.1180261  74.62 0.0003814359    1.508    0.337
        94  -9.6183    231.4805     58.5077   3.5741714312e+02   2.2909311555e+01    0.1195704   0.09298036 -47.92 -2.216213e-05    1.023    0.023
        95 -11.0454     16.7422     52.3537   5.4001822769e+01   6.7518837977e+01    0.4662504    0.2365884 -79.54  0.001867482    2.800    0.643
        96 -11.4723      3.0262     51.3021   6.2535279791e+01   6.8771681183e+01    0.5740207    0.2260773 -55.02  0.002490205    2.073    0.518
        97 -12.0504     12.0823     39.6547   5.2902568625e+01   7.0883014953e+01    0.7676849    0.2987373 -60.73   0.00320476    2.432    0.589
        98  -9.4901    216.2746     41.6445   3.5501863583e+02   2.7856725572e+01    0.1309154   0.06891858 -55.55 0.0005732069    1.647    0.393
        99 -11.1771      1.4833     38.9179   6.0383011537e+01   7.1812750041e+01    0.4624803    0.1202698 -68.82  0.001592584    3.710    0.730
       100 -10.7267      1.8787     30.3096   5.7305489419e+01   7.3746261528e+01    0.3153266     0.158008 -67.59  0.001517536    2.055    0.513
       101 -11.5883     99.5293    245.9928   5.6568890348e+01   1.0592075451e+01    0.5096006    0.2950198  65.21  0.002543424    2.852    0.649
       102 -11.0453     21.5021     25.5038   3.9872727288e+01   7.2818189259e+01    0.2421181     0.105628 -39.66  0.001039608    2.360    0.576
       103 -10.7548     90.2176    247.7990   5.8784048921e+01   1.1328083813e+01    0.3314661    0.1821386  53.81   0.00176381    2.148    0.535
       104 -10.7492     77.1187    248.1189   6.1705671811e+01   1.2719972179e+01    0.3147848    0.1939328  49.72  0.001866128    1.579    0.367
       105 -10.6220     83.8300    247.0105   6.0123979264e+01   1.2178656406e+01    0.2737354    0.1621487  35.10  0.001531574    1.353    0.261
       106 -10.6312    143.8163    247.5974   4.7396235908e+01   5.3005818655e+00    0.1727095   0.08754104  34.02 0.0009586848    1.746    0.427
       107 -10.8356     45.6942    244.7332   6.8492078971e+01   1.6652157703e+01     0.361767     0.181219  39.99  0.001615847    1.538    0.350
       108 -10.3806    123.7996    250.3825   5.1829352043e+01   7.1127266323e+00    0.1765859   0.09393456  17.49 0.0008056348    1.734    0.423
       109 -10.4396    116.3063    243.6615   5.2682284207e+01   9.0645685496e+00    0.1926512    0.1264436  49.98  0.001125139    1.797    0.444
       110 -10.9338     72.8166    241.5040   6.2126381195e+01   1.4399816799e+01    0.3177678    0.2164263  79.29  0.001890364    1.868    0.465
       111 -10.7211     62.5685    241.5583   6.4460465078e+01   1.5503426126e+01    0.3724494    0.1676932  44.23  0.001458761    1.884    0.469
       112 -11.0367     54.2125    240.7195   6.6305189643e+01   1.6546728217e+01    0.4089372    0.2190281  69.73  0.002122937    2.297    0.565
       113 -10.8263     38.1207    241.1884   6.9995294428e+01   1.8082893156e+01    0.3588169    0.1812655  55.55  0.001711334    1.833    0.455
       114 -11.1861    108.9126    241.0957   5.4009874522e+01   1.0359308686e+01    0.2647715    0.1536483  54.39  0.001378031    2.287    0.563
       115 -11.0658     65.1472    249.3221   6.4453966146e+01   1.3791024363e+01    0.4427974    0.1712976  34.56  0.002194158    1.911    0.477
       116 -11.3991     82.7165    239.0090   5.9659844325e+01   1.3755604188e+01    0.5138472    0.1500061  34.74  0.002154655    2.522    0.604
       117 -10.5517     45.2733    237.0553   6.8115542787e+01   1.8179317722e+01    0.3627848    0.1864161  60.20  0.001895702    2.013    0.503
       118 -10.7952     95.3078    235.7628   5.6485625660e+01   1.2900597216e+01    0.3223518    0.1175176  39.33  0.001424345    2.333    0.571
