#   1 NUMBER                 Running object number                                     
#   2 MAG_AUTO               Kron-like elliptical aperture magnitude                    [mag]
#   3 X_IMAGE                Object position along x                                    [pixel]
#   4 Y_IMAGE                Object position along y                                    [pixel]
#   5 X_WORLD                Barycenter position along world x axis                     [deg]
#   6 Y_WORLD                Barycenter position along world y axis                     [deg]
#   7 A_WORLD                Profile RMS along major axis (world units)                 [deg]
#   8 B_WORLD                Profile RMS along minor axis (world units)                 [deg]
#   9 THETA_WORLD            Position angle (CCW/world-x)                               [deg]
#  10 FWHM_WORLD             FWHM assuming a gaussian core                              [deg]
#  11 ELONGATION             A_IMAGE/B_IMAGE                                           
#  12 ELLIPTICITY            1 - B_IMAGE/A_IMAGE                                       
         1 -14.5437     69.3821    146.0983   1.0889267687e+02   3.6665029053e+01     5.025397     2.530922  72.87  0.004388098    3.575    0.720
         2 -14.0660    219.4834     16.5252   4.1297238740e+01   2.8229411083e+01     1.189536     1.013405  28.57  0.002739626    1.526    0.345
         3 -13.8015    195.9067     38.8124   5.0022695013e+01   3.1312085681e+01     1.531175     1.013325  28.80  0.003218153    2.103    0.525
         4 -14.2790    204.3611     32.5323   4.7155994395e+01   3.0008003158e+01     1.941326     1.545144   2.66  0.008417253    1.644    0.392
         5 -12.4673    212.2487     24.6442   4.4122802947e+01   2.9034589754e+01    0.4790914    0.3866422  35.71   0.00111233    1.539    0.350
         6 -10.7965      2.2849      4.4005   9.6566550205e+01   7.3758544186e+01    0.4832134   0.03276562 -47.49  0.001554959    5.941    0.832
         7  -9.7140    162.3685    212.6538   9.8318587413e+01   6.9310272724e+00    0.3073636    0.2206174  85.06  0.001547221    2.296    0.564
         8 -10.0459    174.4867    249.3620   1.0132928473e+02  -6.9245641433e-01    0.2295059    0.1684655  66.02   0.00103084    1.913    0.477
         9 -15.4575     85.6531    244.9857   1.1709588039e+02   1.3543711418e+01     8.407018     2.537699  33.21    0.0201118    5.351    0.813
        10 -15.9886     12.9294    239.3879   1.2914818849e+02   2.3351761479e+01     2.077807     1.587634  72.12   0.01149105    1.171    0.146
        11 -14.7939      9.4353    207.8077   1.2817688730e+02   2.9665944954e+01     1.082136    0.9619873  86.56  0.007327592    1.382    0.276
        12 -16.2141     47.1761    198.8103   1.2034803796e+02   2.7502849751e+01     9.621763     3.668844  73.48   0.03381937    4.579    0.782
        13  -9.1746    148.4897    187.5019   9.7052797957e+01   1.4047854431e+01    0.1409845    0.1284924  52.61 0.0008101379    1.048    0.046
        14 -12.0892     65.1428    180.3319   1.1463515518e+02   2.9255679965e+01    0.4261041    0.2875346 -40.80  0.001970101    2.117    0.528
        15 -11.9775     70.0106    174.8169   1.1285354954e+02   2.9840341779e+01    0.3111058    0.2366212 -55.14 0.0006721317    1.441    0.306
        16  -9.5692     99.5424    180.6687   1.0688737723e+02   2.4090128734e+01    0.2274278    0.2009386  54.00 0.0005341748    1.109    0.098
        17 -11.2269     42.6752    179.8750   1.1953817510e+02   3.2133637354e+01     0.215049    0.1796569  64.42 0.0003409745    1.161    0.138
        18 -13.3194     39.1650    208.4377   1.2270763045e+02   2.6446580938e+01    0.4084368    0.3765945 -72.82  0.001480351    1.448    0.310
        19 -13.5700     66.8644    161.0162   1.1175556489e+02   3.3459822553e+01    0.5171626      0.34083 -48.85  0.001916532    1.704    0.413
        20 -11.7776     79.2904    164.9643   1.0931441032e+02   3.0786019295e+01    0.3246471     0.281832 -85.71 0.0003863962    1.042    0.040
        21 -12.7751     85.9207    158.8064   1.0674664054e+02   3.1226958173e+01    0.9694712    0.6029924 -57.38  0.001570956    1.552    0.356
        22 -13.6617     45.0576    223.8671   1.2274816168e+02   2.2706187547e+01     1.357811    0.9319142 -85.37  0.003792505    1.319    0.242
        23 -10.3406    193.6400    166.5536   8.3390779630e+01   9.2864592828e+00    0.2934117    0.2707025 -41.69 0.0008610101    1.180    0.153
        24  -9.6715    145.9676    168.4714   9.4116002510e+01   1.8392851704e+01    0.2238452    0.1386489  43.16 0.0006156132    1.542    0.351
        25  -8.9119    163.7637    204.9183   9.6789182309e+01   8.0217046220e+00    0.1546805    0.1140043 -41.99  0.000345903    1.526    0.345
        26  -9.2241    155.5051    199.4610   9.7592904943e+01   1.0488106181e+01    0.2249267    0.1331277 -62.52  0.001025098    2.312    0.567
        27 -10.8670    133.6949    144.1186   9.2021964387e+01   2.6126460377e+01     1.082629    0.2543965 -54.45    0.0023808    6.633    0.849
        28 -11.2098     53.9725    149.3302   1.1332569055e+02   3.7878736022e+01    0.3878538    0.2632546 -21.15  0.001889758    2.549    0.608
        29  -9.9264    174.6806    148.5479   8.3465569693e+01   1.6644162972e+01     0.300304    0.1909726 -45.54   0.00104483    1.607    0.378
        30 -11.3775    193.1627    193.3426   8.8804954481e+01   4.6803487015e+00    0.7593994    0.4481858 -56.34  0.003417972    2.528    0.604
        31 -10.2925     99.5319    143.5103   1.0057269350e+02   3.2636064173e+01    0.3071311    0.2589885 -61.35 0.0008471654    1.137    0.121
        32  -9.8459    102.4902    140.0230   9.9108435243e+01   3.2952931853e+01     0.351419    0.2326449 -32.14 0.0009692991    2.015    0.504
        33 -12.3260     88.0180    142.3000   1.0335728038e+02   3.4820597775e+01    0.2941455    0.2604331 -48.55 0.0004131798    1.200    0.167
        34 -10.6743     82.8270    142.5240   1.0476588428e+02   3.5574702389e+01    0.2971836    0.2225574  81.80 0.0006321318    1.461    0.316
        35  -9.8144     32.1517    137.9151   1.1740228707e+02   4.2967861254e+01    0.1963478    0.1440632  79.57 0.0005495343    1.294    0.227
        36 -11.8731     24.4639    137.1139   1.1928527989e+02   4.3861698320e+01    0.3812469    0.2524058  43.41  0.002295529    1.655    0.396
        37  -8.8993     39.3330    134.2875   1.1503603886e+02   4.3124518109e+01    0.1269181   0.09003698 -42.91 0.0002863898    1.624    0.384
        38 -10.1840    110.4093    131.7326   9.5260704179e+01   3.3488877205e+01    0.3001303    0.2529492  -2.98 0.0008390421    1.522    0.343
        39 -10.1204    106.0036    130.9771   9.6271654089e+01   3.4473729303e+01    0.3427377    0.3015639  89.45  0.001282661    1.183    0.154
        40  -9.4216     35.9670    131.9781   1.1561715964e+02   4.4017666519e+01    0.1586706    0.1240879 -75.34 0.0009684704    1.054    0.051
        41 -10.4967    135.0000    119.9894   8.6027276359e+01   3.1292150455e+01     0.372576   0.08797843 -46.18 0.0009620483    4.158    0.760
        42 -10.8509    136.0000    128.5724   8.7887559365e+01   2.9155790767e+01    0.4064992    0.1740177 -50.90  0.001417627    2.407    0.585
        43 -11.0572     97.7847    127.9939   9.7852638248e+01   3.6636109429e+01    0.3101323    0.2669145 -17.36  0.001083347    1.419    0.295
        44 -11.0547     45.8103    129.0582   1.1251059366e+02   4.3700293877e+01    0.3014856    0.1982744  36.62  0.001652509    1.709    0.415
        45 -10.1612     29.2035    128.4133   1.1695749251e+02   4.5509742585e+01    0.1659042    0.1087018  48.42 0.0009464949    1.668    0.401
        46 -10.3351    116.8421    126.1217   9.2270462969e+01   3.3583886051e+01     0.288181    0.2528077  82.96  0.001258253    1.237    0.191
        47  -8.7597    239.6542    126.7180   6.5868323965e+01   7.0535084571e+00    0.1428366    0.1051082   8.19 0.0006475307    1.641    0.391
        48  -8.9704     93.5785    125.7922   9.8537179000e+01   3.7879457226e+01    0.2017689    0.1359259 -68.60 0.0005789877    1.570    0.363
        49  -9.6443    160.6759    127.3314   8.1603341858e+01   2.4084441662e+01    0.1609111    0.1260725 -85.07 0.0005405034    1.704    0.413
        50  -9.8799    107.1527    120.0582   9.3466338356e+01   3.6841376399e+01    0.2164905    0.2046753 -48.95 0.0003548262    1.050    0.047
        51  -9.8609     23.8190    116.8459   1.1687391670e+02   4.8733463054e+01    0.1722316    0.1278812  83.63 0.0003981372    1.327    0.246
        52 -10.0921    168.3430    113.1099   7.6208649174e+01   2.5304104140e+01    0.3912466    0.2879031 -72.42  0.001306085    1.830    0.454
        53 -10.0448    205.4590    110.1998   6.7828415977e+01   1.7261861400e+01    0.3248191    0.2170813  41.18 0.0009244338    1.607    0.378
        54 -10.1034     75.2777    189.9495   1.1353867378e+02   2.5740133108e+01    0.3138228    0.1649644  66.06  0.001117396    2.162    0.537
        55 -10.4661    137.2353    170.6044   9.6520260844e+01   1.9620657548e+01    0.2072891     0.134942  32.89 0.0007479655    1.643    0.391
        56  -9.9695    134.4598    102.6951   8.1584244773e+01   3.5222169322e+01    0.2952638    0.1506974 -47.90 0.0006421712    1.962    0.490
        57 -11.8884    243.2991    102.9078   5.9701986006e+01   1.0249673708e+01    0.4754595    0.2238082 -53.47  0.001779954    2.836    0.647
        58 -10.7824     36.4012    101.3790   1.1058233646e+02   5.1320700218e+01    0.2423637    0.2036939 -78.54 0.0008311869    1.139    0.122
        59  -9.8571     42.5118    103.9801   1.0915622779e+02   5.0099390974e+01    0.1818706    0.1789497  87.59 0.0005647045    1.178    0.151
        60 -11.0745    249.7499     88.2045   5.5301309568e+01   1.1268277843e+01    0.3445278    0.1426564 -37.26  0.001121373    2.056    0.514
        61 -11.2529      1.8312     89.6126   1.1963894550e+02   5.6552292103e+01    0.3765428    0.1270908 -73.37  0.001677743    2.410    0.585
        62  -8.6764     74.7015     84.7378   9.4140874084e+01   5.0534829652e+01    0.1383799    0.1049803 -19.78 0.0002749317    1.511    0.338
        63  -9.6854    158.9622     80.9967   6.9294162641e+01   3.3892992059e+01    0.1902391    0.1856958 -36.02   0.00050643    1.014    0.013
        64 -10.0742     52.0382     64.3923   9.6146891704e+01   5.8067135496e+01    0.3226391    0.2029845  53.60  0.001562854    2.397    0.583
        65 -10.3475     13.5962     59.8411   1.0987994929e+02   6.2550730814e+01    0.2266107    0.1676953 -64.38 0.0004105463    1.224    0.183
        66  -9.7349     71.9334    186.3002   1.1383660872e+02   2.7006235734e+01    0.2356297    0.1568532  86.70 0.0003269273    1.497    0.332
        67 -13.7441      8.4836    188.5613   1.2724545860e+02   3.3694620549e+01    0.8434778    0.5839366 -79.68  0.001911431    1.257    0.204
        68 -12.7858     90.0161    230.0830   1.1489946141e+02   1.5565267594e+01    0.7884838    0.4374393 -85.35  0.001276278    2.236    0.553
        69  -8.9139     95.0250    188.2770   1.0898610489e+02   2.3154301639e+01    0.1861282    0.1561912  59.46 0.0004420427    1.078    0.073
        70 -11.1140    142.2934     47.4783   6.2357952734e+01   4.3733957250e+01    0.3953985    0.2804492 -81.29 0.0009011505    2.025    0.506
        71 -10.2705    145.3248     42.0482   5.9852843177e+01   4.3778637287e+01    0.3776354    0.2537295 -74.00  0.001176333    2.178    0.541
        72 -10.8744    189.6722     15.4574   4.4250444384e+01   3.5730703439e+01    0.2652105    0.2431613 -81.73 0.0007890857    1.028    0.028
