#   1 NUMBER                 Running object number                                     
#   2 MAG_AUTO               Kron-like elliptical aperture magnitude                    [mag]
#   3 X_IMAGE                Object position along x                                    [pixel]
#   4 Y_IMAGE                Object position along y                                    [pixel]
#   5 X_WORLD                Barycenter position along world x axis                     [deg]
#   6 Y_WORLD                Barycenter position along world y axis                     [deg]
#   7 A_WORLD                Profile RMS along major axis (world units)                 [deg]
#   8 B_WORLD                Profile RMS along minor axis (world units)                 [deg]
#   9 THETA_WORLD            Position angle (CCW/world-x)                               [deg]
#  10 FWHM_WORLD             FWHM assuming a gaussian core                              [deg]
#  11 ELONGATION             A_IMAGE/B_IMAGE                                           
#  12 ELLIPTICITY            1 - B_IMAGE/A_IMAGE                                       
         1 -14.0368    168.8358     53.0009   6.9228986950e+01   3.6158879279e+01     1.831491      1.26582  25.56  0.006328607    2.244    0.554
         2 -14.1649    183.5139     36.9914   6.3112255228e+01   3.4958329183e+01    0.8726432    0.7754309 -80.55  0.003269607    1.081    0.075
         3 -13.4677    187.9081     30.8009   6.1110636471e+01   3.4737280816e+01    0.5103383     0.422285 -75.33  0.001198908    1.107    0.097
         4 -13.3971    189.4399     14.1474   5.7223826218e+01   3.6287763981e+01    0.6024613    0.3893484 -60.29  0.002648244    1.516    0.340
         5 -14.6218    205.0401      5.6607   5.3895140792e+01   3.3794700325e+01     1.105862     1.084378 -74.92  0.004806139    1.426    0.299
         6 -10.5893     72.5707      8.9269   7.6723582567e+01   6.1621292362e+01    0.2011067    0.1433631  48.65 0.0003598756    1.289    0.224
         7 -11.2109     63.5310      7.0039   7.8669441210e+01   6.3373717576e+01    0.2162238    0.1446683  43.44 0.0003740705    1.289    0.224
         8  -9.5229    102.9771     18.0000   7.2109592467e+01   5.4931675318e+01    0.2025099   0.06024635  56.97 0.0006356824    2.878    0.653
         9 -12.6724    247.7759    247.8779   9.6464416413e+01  -1.4153538392e+01    0.5449292    0.4104098  -9.69  0.003719723    1.072    0.067
        10 -17.6846     54.2580    244.7444   1.3525138264e+02   1.5428511566e+01     8.741328     6.290509  18.67   0.04958988    2.085    0.520
        11 -11.8572    159.2693    197.9790   1.0522825176e+02   8.7126563764e+00    0.4151283     0.315235   5.25  0.001164182    1.672    0.402
        12  -9.7267     20.6995    197.7801   1.3778846909e+02   3.0106325578e+01    0.1084817   0.09110529 -49.03 0.0005488601    1.459    0.315
        13 -12.9566    150.7949    190.4649   1.0572873409e+02   1.1970863472e+01    0.6361283    0.4454903  85.33  0.002246119    2.251    0.556
        14 -11.4001    154.8722    187.3195   1.0416762375e+02   1.1912678062e+01     0.325055    0.2908973  69.31  0.001126546    1.228    0.185
        15 -10.2501    207.5237    193.5247   9.4063936270e+01   9.6023780273e-01    0.1412345    0.1278385 -20.16 0.0001187398    1.005    0.005
        16 -11.9360    193.5758    195.5960   9.7304898740e+01   2.9769590550e+00     1.265214    0.6615164 -67.35  0.003466232    6.042    0.835
        17 -10.6463     61.4698    191.0654   1.2755781615e+02   2.6899643050e+01    0.3353028     0.201059 -66.50  0.000782058    1.526    0.345
        18 -19.0512     28.4982    102.0685   1.2171402807e+02   5.2488265297e+01     17.08924     2.411331 -60.69   0.04121552    7.151    0.860
        19 -11.7614     10.5086    206.3417   1.4071834344e+02   2.9107212313e+01    0.5195124    0.2986778  26.38  0.002898329    2.238    0.553
        20 -12.2660    136.6541    185.5755   1.0812575255e+02   1.5766499536e+01    0.3242232    0.2571679  16.31 0.0009987933    1.509    0.337
        21 -11.4595     86.2486    201.7730   1.2312699501e+02   2.0633259675e+01    0.6252257    0.3515812  65.10  0.002589292    2.281    0.562
        22 -12.2170    149.5149    181.3574   1.0422981985e+02   1.4301636761e+01    0.4845291     0.397293 -75.41  0.001527531    1.400    0.286
        23  -9.9639    169.1383    178.1814   9.9065251317e+01   1.1224319558e+01    0.2782317    0.1965933 -74.24 0.0006583791    1.977    0.494
        24 -10.6481    204.3666    176.0277   9.1161685816e+01   5.0202431743e+00    0.5539902    0.2296302 -55.48  0.001812379    3.447    0.710
        25  -9.6236     57.4816    177.1274   1.2656272713e+02   3.0918366116e+01    0.2423609   0.08584002  35.31 0.0006016501    2.890    0.654
        26 -10.5313    164.9362    171.5055   9.8619051958e+01   1.3543276384e+01    0.2665028    0.2108371 -56.74 0.0003088955    1.292    0.226
        27 -10.1377    201.2899    168.6753   9.0244300147e+01   7.1020346767e+00    0.2614942    0.2263752  82.73 0.0008469509    1.439    0.305
        28 -10.5447    204.9220    166.8601   8.9143689459e+01   6.7959461288e+00    0.3083022    0.2736932 -17.73  0.001000353    1.153    0.132
        29 -11.7321    192.9599    164.9357   9.1140069477e+01   9.4766434082e+00     0.546585     0.334071 -59.35  0.001405845    1.947    0.486
        30 -12.1502     67.1934    199.5779   1.2734723881e+02   2.4010256233e+01    0.2924424      0.23729 -53.06 0.0005560511    1.327    0.247
        31 -10.8140      1.8157    162.8094   1.3865273529e+02   4.0173089993e+01    0.1953777    0.1344569 -63.61 0.0005061901    1.232    0.189
        32 -12.5164     66.9786    195.7791   1.2687957377e+02   2.4970844282e+01    0.4150299    0.2629895  52.76  0.001106325    1.587    0.370
        33 -10.5291     16.3163    201.1485   1.3905096996e+02   2.9750323678e+01    0.1361164    0.1074112  75.75 0.0005694535    1.116    0.104
        34 -11.3251    189.1091    154.8468   8.9751612400e+01   1.2389807668e+01    0.4935963    0.4311267  86.60  0.002577369    1.334    0.250
        35 -11.5596    134.3280    148.6651   1.0095886499e+02   2.5035145207e+01    0.6187777    0.2954485 -58.14  0.002162633    2.422    0.587
        36 -11.6397    134.0000    144.0234   9.9980942697e+01   2.6203640995e+01     1.052242    0.3196311 -55.80  0.002646784    4.632    0.784
        37 -10.2889    161.7914    149.4370   9.4504217863e+01   1.9194865142e+01    0.2613238    0.2122712 -75.64  0.001085902    1.423    0.297
        38 -10.6649    174.4852    148.7959   9.1514101410e+01   1.6695972299e+01    0.3156408    0.2776539  81.32 0.0007665782    1.278    0.217
        39 -10.9965    144.1893    146.6644   9.8049220293e+01   2.3492722548e+01    0.5237319    0.2532731 -64.40  0.001579231    3.515    0.716
        40  -9.7865    119.0190    148.7268   1.0492459383e+02   2.8043489104e+01    0.3034731     0.190317 -40.22  0.001267189    1.685    0.407
        41 -12.4603    109.9797    139.0420   1.0515919650e+02   3.2116487621e+01    0.8466179    0.5170583 -23.96  0.003129116    2.617    0.618
        42 -11.5275    101.9361    142.6853   1.0819216093e+02   3.2707411198e+01    0.3576915    0.2694093   6.21  0.001123576    1.800    0.444
        43 -12.5625     99.0543    138.3477   1.0802356647e+02   3.4284477033e+01    0.3132452    0.2988875   5.71 0.0004608074    1.131    0.115
        44 -10.6257    141.8457    138.4655   9.6718239150e+01   2.5886896362e+01    0.3234625    0.2018541 -33.25 0.0007130539    1.880    0.468
        45 -10.2137    124.3186    151.9720   1.0425996173e+02   2.6227561190e+01    0.2616495    0.2136049  58.85 0.0005970152    1.316    0.240
        46 -11.7341    106.0012    130.7878   1.0432839553e+02   3.4842935028e+01    0.4394141    0.3394102 -62.21  0.001244978    1.340    0.254
        47 -11.4881    104.5214    125.4640   1.0346280015e+02   3.6376724893e+01    0.3193366    0.2584263 -35.62 0.0006563431    1.261    0.207
        48 -11.1071    135.5862    127.4441   9.5630254204e+01   2.9726690703e+01    0.6914263    0.1751909 -49.65  0.001815637    4.143    0.759
        49 -11.0549    116.4537    129.5155   1.0114943710e+02   3.3142754298e+01    0.3138679    0.2636958 -18.89 0.0007107449    1.369    0.269
        50 -10.7613    160.4802    127.5131   8.9672072416e+01   2.4370122064e+01    0.4116406    0.2865999 -67.21  0.001784705    1.732    0.423
        51 -10.4722    121.0170    123.4552   9.8432941495e+01   3.3638121718e+01    0.3868992    0.2382954 -22.26  0.001428796    2.576    0.612
        52  -9.2916    153.3190    119.6833   8.9404039592e+01   2.7632612146e+01    0.1592448    0.1222813 -85.40 0.0007040284    1.657    0.396
        53 -10.3701    111.3517    118.8266   9.9904272885e+01   3.6609316187e+01     0.266435    0.2202924  32.19 0.0004754144    1.274    0.215
        54 -10.7507    168.2635    113.1359   8.4457927764e+01   2.5705932505e+01    0.3590432    0.2659541 -72.62 0.0008895257    1.607    0.378
        55 -10.3564    134.5771    106.2319   9.0494671537e+01   3.4577054471e+01    0.4547074    0.1430305 -47.17  0.001389158    3.248    0.692
        56 -10.6286    205.4562    110.0878   7.6595823622e+01   1.8171267760e+01    0.2987128    0.2187954  49.39 0.0009660444    1.502    0.334
        57 -10.9949    118.7202    109.9299   9.5593541787e+01   3.7118977309e+01    0.5487836    0.2448219  52.66  0.001913303    2.710    0.631
        58 -10.1155     63.6278     99.1859   1.0929493920e+02   4.9082099758e+01    0.1826168    0.1795976 -12.76 0.0005830179    1.129    0.114
        59  -9.0639    127.6762     94.7230   8.9158467715e+01   3.8401846541e+01    0.1481638    0.1177339  10.50 0.0005541851    1.584    0.369
        60  -9.9546      1.6494     91.9413   1.2876836300e+02   5.6673814607e+01    0.1678112     0.121237 -54.12  0.001086849    1.085    0.078
        61  -9.5721    151.7091     80.6664   7.9703628736e+01   3.5691855194e+01    0.1431829    0.1159786  12.23 0.0007021468    1.633    0.387
        62 -12.5930    169.7745     69.3022   7.3180053467e+01   3.3460226117e+01    0.6020435    0.3660006 -82.54  0.001174025    2.512    0.602
        63 -11.5195    204.5221    199.9897   9.5928199120e+01   2.1054330723e-01    0.2752559    0.1949588  16.37  0.001387326    1.613    0.380
        64 -10.8806     67.5187    225.6063   1.3051746330e+02   1.7820782707e+01    0.3432877      0.15897  35.67  0.001158161    2.193    0.544
        65 -13.2663     55.6740    222.7532   1.3275118398e+02   2.0101037726e+01    0.3915395    0.2447811  56.50  0.001277577    1.491    0.329
        66 -13.1959     69.4631    218.5764   1.2926035128e+02   1.9158745091e+01    0.3768938    0.2705877  77.91   0.00140085    1.375    0.273
        67 -12.7689     73.4087    212.6490   1.2762995631e+02   1.9975811423e+01    0.3251236    0.2666968 -62.65 0.0005807033    1.247    0.198
        68  -9.9141     98.1147     16.2826   7.2676490623e+01   5.6081757137e+01    0.1703225    0.1350569  53.00 0.0005978544    1.138    0.121
        69 -10.2852     93.7303     14.7732   7.3222222867e+01   5.7097106473e+01    0.2248807    0.1460851  62.31 0.0005465388    1.570    0.363
        70 -10.8479     77.2010    207.5882   1.2608564970e+02   2.0617913203e+01    0.3936113    0.3309231 -87.38  0.001400979    1.103    0.093
        71 -10.3190     98.1057    213.8814   1.2212802906e+02   1.5872870272e+01    0.2416092    0.1977929 -75.65  0.001322064    1.216    0.178
