#   1 NUMBER                 Running object number                                     
#   2 MAG_AUTO               Kron-like elliptical aperture magnitude                    [mag]
#   3 X_IMAGE                Object position along x                                    [pixel]
#   4 Y_IMAGE                Object position along y                                    [pixel]
#   5 X_WORLD                Barycenter position along world x axis                     [deg]
#   6 Y_WORLD                Barycenter position along world y axis                     [deg]
#   7 A_WORLD                Profile RMS along major axis (world units)                 [deg]
#   8 B_WORLD                Profile RMS along minor axis (world units)                 [deg]
#   9 THETA_WORLD            Position angle (CCW/world-x)                               [deg]
#  10 FWHM_WORLD             FWHM assuming a gaussian core                              [deg]
#  11 ELONGATION             A_IMAGE/B_IMAGE                                           
#  12 ELLIPTICITY            1 - B_IMAGE/A_IMAGE                                       
         1 -12.9908    176.5206     35.8768   7.4994640235e+01   3.7054851266e+01     1.178813    0.8794308  25.27  0.003021803    1.654    0.395
         2 -13.5578    185.5993     28.0265   7.1232208808e+01   3.5682948566e+01     2.078263     1.392176 -10.32  0.008321015    1.872    0.466
         3 -13.7863    194.1872     14.9934   6.6296533285e+01   3.4955016575e+01     1.883983     1.248896  44.13  0.002705692    1.703    0.413
         4  -9.3230    164.7946     12.1490   6.9217659849e+01   4.2872986828e+01    0.1930548    0.1548421  38.67 0.0003491676    1.320    0.242
         5 -11.9863     12.6491      4.2834   1.1247778350e+02   7.3344240777e+01    0.4864786    0.3756657   4.46  0.003705595    1.300    0.231
         6  -9.3448    235.1281      3.7602   5.9478923635e+01   2.5995273538e+01    0.3032211    0.2092841 -25.69  0.001710498    1.583    0.368
         7  -8.6986     77.2011     51.4703   1.0500208000e+02   5.7304197453e+01    0.2859663    0.1282907  50.78  0.001129807    2.973    0.664
         8 -12.3207    170.1617    249.0487   1.2414137219e+02   1.6354129072e+00      1.57883    0.2747681  38.89  0.004554952    6.209    0.839
         9 -11.8332    146.7515    248.4864   1.2814528611e+02   5.4079302903e+00    0.9692107    0.4109745  32.28  0.004366231    2.936    0.659
        10 -12.0859    156.5624    246.3357   1.2617533549e+02   4.1605447712e+00     0.802861    0.3779559  39.89  0.004357445    1.720    0.419
        11 -10.4965    121.8333    248.7798   1.3251792482e+02   9.2251960875e+00    0.3483301    0.2074353  59.48  0.001482869    1.522    0.343
        12 -13.4454     81.6924    165.7128   1.3055788636e+02   3.1175623644e+01      2.38757    0.7185068  43.36  0.004794409    3.055    0.673
        13 -13.6980     68.2336    144.9307   1.3070658024e+02   3.7843312892e+01      3.31325     1.771535 -89.80  0.007123423    2.513    0.602
        14  -9.4075     27.0215    196.8124   1.4526091817e+02   3.1410019344e+01    0.2629165    0.1303083  46.16  0.001585185    1.795    0.443
        15 -10.7157     13.7398    195.7447   1.4767038149e+02   3.2958504788e+01    0.2407995    0.1642065  59.65 0.0006795113    1.251    0.200
        16  -9.2227      9.8177    192.9305   1.4822990825e+02   3.3890954973e+01    0.1734633    0.1399187  58.35 0.0005413882    1.326    0.246
        17 -12.3187      6.9606    213.5046   1.4981353288e+02   3.0159264447e+01    0.7352769    0.1699767  35.08  0.003408059    4.142    0.759
        18 -13.2549     10.9513    207.2271   1.4881291696e+02   3.0973060507e+01    0.6161631    0.3785441  37.25  0.002407143    1.865    0.464
        19 -10.0150     14.0436    187.8483   1.4712917078e+02   3.4525935078e+01    0.6204612   0.07867564  47.47  0.002435657    4.412    0.773
        20  -9.2298      9.1678    183.7712   1.4780789515e+02   3.5810146809e+01    0.2735855    0.1332645  39.93  0.001682262    2.052    0.513
        21 -11.2619     80.6084    185.9111   1.3344497782e+02   2.6959374290e+01    0.3595977    0.2725131 -53.05  0.001737815    1.590    0.371
        22 -11.1732     84.1078    180.0456   1.3196102027e+02   2.7685344240e+01    0.3408518    0.2397711 -58.57 0.0007615746    1.515    0.340
        23 -13.1222     52.9554    235.3812   1.4327292808e+02   2.1093519568e+01    0.9162136    0.5876651 -72.82  0.006433521    1.641    0.390
        24  -7.7604     88.5588    183.5268   1.3145095447e+02   2.6272881170e+01    0.1325017    0.1088629  74.91 0.0001724078    1.044    0.042
        25 -10.2345     52.9587    181.8008   1.3882617995e+02   3.1569775347e+01    0.4204456    0.2149213 -85.22  0.001895504    1.937    0.484
        26  -9.0923     53.0273    176.5071   1.3826769703e+02   3.2701143500e+01    0.2063288    0.1411064  77.78 0.0005592702    1.280    0.219
        27  -8.9527     95.9801    181.0054   1.2951167617e+02   2.5648133532e+01    0.2076223    0.1697191  70.84 0.0005492161    1.075    0.070
        28  -8.6901     13.6294    176.8594   1.4648494466e+02   3.6842774307e+01    0.1632965    0.1423575  57.46 0.0006569176    1.370    0.270
        29  -9.1997    212.8640    237.1580   1.1513063816e+02  -3.6092188180e+00    0.2448784    0.1646165 -67.12  0.001216195    3.822    0.738
        30 -10.3956    227.7045    171.8563   1.0102234479e+02   2.7615473480e+00    0.3387125    0.2151515 -38.26  0.001768208    1.628    0.386
        31 -14.0548     62.2568    214.3646   1.4000765176e+02   2.3773575119e+01     1.922427     0.675222  49.66  0.005388972    2.305    0.566
        32 -10.6953     75.9777    235.9824   1.3934526386e+02   1.7987639371e+01     0.249368    0.1512808  74.98 0.0008475571    1.533    0.348
        33 -10.1426    137.5878    171.8935   1.1896819567e+02   2.0273598163e+01    0.3383437    0.2612956  64.20  0.001809827    1.310    0.237
        34 -10.2840     37.6104    167.1003   1.4065338094e+02   3.6551727296e+01    0.2620189    0.1549916  44.00  0.001545109    1.694    0.410
        35  -8.6778    111.4495    209.3507   1.3001704591e+02   1.7519831630e+01    0.2060155    0.1187238 -56.00  0.001106129    1.958    0.489
        36 -13.4127     69.1215    203.3695   1.3768945010e+02   2.5004304163e+01     1.122496    0.8041236 -86.53  0.007274179    1.273    0.214
        37 -16.2677     23.7455    238.5372   1.4827519289e+02   2.3918189569e+01      5.41733     4.255312  62.07   0.04519255    1.293    0.227
        38  -9.8377     22.9381    156.6753   1.4291183530e+02   4.0345688334e+01    0.2034783    0.1544498  77.80 0.0005158978    1.104    0.094
        39  -8.6097     98.7598    151.5970   1.2430110937e+02   3.1647022499e+01    0.1959022    0.1226094  53.19  0.000729727    1.590    0.371
        40 -10.1304    107.5406    144.7185   1.2090537607e+02   3.1688836150e+01      0.54409     0.319475 -37.70  0.002318642    2.298    0.565
        41 -11.5479     96.1731    145.4925   1.2384893131e+02   3.3469299691e+01    0.2559742    0.2507447 -84.67 0.0004836479    1.171    0.146
        42 -10.0612    179.3559    199.0838   1.1513058515e+02   7.4411608433e+00    0.2295321    0.1773526  42.78 0.0001740577    1.149    0.130
        43  -9.3756    133.0205    142.0631   1.1421615932e+02   2.7456583892e+01    0.6884021    0.2018791 -56.87  0.001737377    5.422    0.816
        44  -9.1204    124.9343    144.9848   1.1674628562e+02   2.8404086498e+01    0.2069577    0.1985045  84.73  0.001173975    1.043    0.041
        45 -12.1586     46.5035    136.5946   1.3497184030e+02   4.2503055514e+01     1.068185    0.1554599 -59.27  0.003353418    4.429    0.774
        46 -10.9838     44.3926    130.1852   1.3460840439e+02   4.4234897647e+01    0.3213388     0.266936 -38.35  0.001519297    1.507    0.336
        47  -8.6230    190.0215    135.7230   1.0023894363e+02   1.6552711666e+01    0.2007761    0.1869778  35.81 0.0002694123    1.067    0.062
        48  -9.6764    114.7961    133.6043   1.1685766568e+02   3.2879830715e+01     0.288296    0.2737878  -6.82 0.0008938404    1.257    0.204
        49 -10.2646    192.6506    195.1705   1.1191347548e+02   5.6337755777e+00    0.9015008    0.4389358 -61.31  0.002670089    6.683    0.850
        50 -10.1295    102.7948    130.4132   1.1923957366e+02   3.5800802660e+01    0.2858783     0.244569 -32.41  0.001140658    1.391    0.281
        51  -9.3824    122.0609    129.9590   1.1424389403e+02   3.2304136595e+01    0.2454145    0.2106556  45.38 0.0004314351    1.199    0.166
        52  -9.4875    119.6493    126.2752   1.1401885893e+02   3.3602755747e+01    0.3969012    0.2041786 -47.65  0.001620355    1.921    0.479
        53 -10.4486    235.9802    127.9906   9.0057886241e+01   8.0431013572e+00    0.2589731     0.233376  39.36  0.000457799    1.179    0.152
        54  -9.2210     35.8084    129.5156   1.3676654840e+02   4.5291820389e+01    0.3208818    0.1031234  35.47  0.001257812    3.204    0.688
        55  -8.3750    160.6375    128.3256   1.0470859245e+02   2.4527121347e+01    0.1611373    0.1214077 -88.98            0    1.790    0.441
        56  -9.7089     26.7431    127.3610   1.3885498092e+02   4.6653782644e+01    0.3357925    0.1730616  41.23  0.001075436    2.094    0.522
        57  -9.9318     40.0150    126.1580   1.3518578274e+02   4.5645229231e+01    0.2654531    0.1588511  45.45  0.001071637    1.797    0.444
        58  -8.5469    135.2975    123.6662   1.0951503001e+02   3.1005236843e+01    0.1561767    0.1190465 -87.20 0.0004205068    1.647    0.393
        59  -9.3273    110.4155    121.9744   1.1541177155e+02   3.6345671748e+01      0.25627    0.2143542  49.61 0.0002864175    1.228    0.185
        60  -9.5979     67.1368    116.1281   1.2598711186e+02   4.4756106185e+01    0.2060299    0.1745779 -45.25 0.0007557221    1.261    0.207
        61  -9.1042     92.8846    198.9052   1.3245948199e+02   2.2457792766e+01    0.2090891    0.1498913  62.20  0.001252659    1.207    0.171
        62  -9.2914    168.3353    113.7218   9.9362694778e+01   2.5735868644e+01    0.3564241    0.2581267 -87.04 0.0009892394    1.987    0.497
        63  -7.5499    182.4673    113.4590   9.6310769186e+01   2.2491985437e+01    0.1523698    0.1491295 -61.64 5.844577e-05    1.029    0.028
        64 -10.6070      5.4862    110.1983   1.4249264543e+02   5.2221585290e+01    0.4761792    0.2782412 -41.51   0.00283393    2.025    0.506
        65  -9.6560     19.9289    112.1324   1.3872029027e+02   5.0747704002e+01    0.2185492    0.1762779  31.74 0.0007333195    1.547    0.353
        66 -10.6049     63.5094    107.1977   1.2522591907e+02   4.7340027640e+01     0.647027    0.3409232 -35.51  0.002688894    2.731    0.634
        67  -9.6790      3.0350    104.1883   1.4247923221e+02   5.3730906946e+01    0.2199562    0.1461394  38.88  0.001441298    1.802    0.445
        68  -7.8970    113.4515     95.4284   1.0788539193e+02   4.1687869063e+01    0.1483864    0.1426456 -52.78 0.0001210836    1.014    0.014
        69  -8.1357    152.5155     77.5182   9.2720768095e+01   3.6552522012e+01    0.1531483    0.1519181 -43.09 0.0008101704    1.014    0.014
        70  -7.6993    153.2579     69.2623   9.0003447340e+01   3.7864758050e+01    0.1450914    0.1194032  16.19 0.0006805947    1.444    0.307
        71  -8.1332    190.5138     65.5322   8.1571954392e+01   2.9072810688e+01    0.1494834    0.1473622 -67.25  0.000193418    1.037    0.036
        72  -8.4051    131.1384     53.8824   9.0093626476e+01   4.5852181414e+01    0.1946161    0.1683912   6.55            0    1.259    0.206
        73  -9.5567    245.7432     52.6071   7.0389554521e+01   1.7526680580e+01    0.2313394    0.2156643 -58.26 0.0007479173    1.071    0.066
        74 -11.3713     91.4269    246.5954   1.3756331076e+02   1.4050039610e+01    0.5471684     0.205947  49.68  0.001696824    2.024    0.506
        75  -9.4714     86.6597    250.4412   1.3869388711e+02   1.4098143940e+01    0.1972861    0.1048905  44.96 0.0006965123    1.517    0.341
        76 -10.3850    134.7956    249.9990   1.3039514227e+02   7.0542995760e+00    0.4182825    0.1793159  41.98  0.001820761    1.845    0.458
        77  -9.3523    211.8429     37.7817   7.0556340759e+01   2.7699781906e+01    0.2041589     0.153508 -62.99 0.0004629402    1.314    0.239
        78 -10.3812    141.1195     30.3918   7.9547122977e+01   4.6859087006e+01    0.2417928     0.223164 -18.06 0.0004078069    1.121    0.108
        79 -10.0870     94.1608    240.7061   1.3656965770e+02   1.4626892157e+01    0.3514531    0.1865094  82.46  0.001656888    2.501    0.600
        80  -9.9835    105.1546    240.8061   1.3464491290e+02   1.2996912369e+01    0.2257088    0.1640545  75.61 0.0004781369    1.327    0.247
        81  -7.9497    139.2824    241.3262   1.2863532255e+02   7.6399203200e+00    0.1069301   0.08687261  17.71 0.0002096198    1.600    0.375
