#   1 NUMBER                 Running object number                                     
#   2 MAG_AUTO               Kron-like elliptical aperture magnitude                    [mag]
#   3 X_IMAGE                Object position along x                                    [pixel]
#   4 Y_IMAGE                Object position along y                                    [pixel]
#   5 X_WORLD                Barycenter position along world x axis                     [deg]
#   6 Y_WORLD                Barycenter position along world y axis                     [deg]
#   7 A_WORLD                Profile RMS along major axis (world units)                 [deg]
#   8 B_WORLD                Profile RMS along minor axis (world units)                 [deg]
#   9 THETA_WORLD            Position angle (CCW/world-x)                               [deg]
#  10 FWHM_WORLD             FWHM assuming a gaussian core                              [deg]
#  11 ELONGATION             A_IMAGE/B_IMAGE                                           
#  12 ELLIPTICITY            1 - B_IMAGE/A_IMAGE                                       
         1 -13.6455     60.8667    106.1719   5.7797330437e+01   4.8255434393e+01     2.058128      1.10638  35.11  0.008952231    1.894    0.472
         2 -13.0182     21.6786    102.2959   7.1478400184e+01   5.3600362223e+01    0.9367454    0.7850183 -31.57  0.003846233    1.116    0.104
         3 -10.4807    150.4595     16.4775   7.4604409019e+00   4.4376733580e+01     0.259856    0.2081254  58.61 0.0005340459    1.214    0.176
         4 -11.7839    153.9708     11.7421   5.7692803262e+00   4.4027583516e+01    0.5389599     0.319766 -58.66  0.002989917    1.838    0.456
         5 -10.0879    120.3530      9.4433   1.0228483981e+01   5.1997767949e+01     0.260866    0.2546082 -49.14 0.0009445586    1.247    0.198
         6  -9.2844     15.5477      8.5082   4.4567839519e+01   7.1708276086e+01     0.113848   0.08455235   3.80 7.939032e-05    1.012    0.012
         7 -14.0865    246.0408     76.6750   9.0527712908e+00   1.5875240313e+01     1.573012    0.8612084 -44.81  0.004606746    1.549    0.355
         8 -16.0367    218.4515     14.9784   3.5991870871e+02   2.9522438285e+01      17.3212     8.822097 -28.40   0.09257809    2.769    0.639
         9 -11.1291    172.8960    184.5935   4.3589568187e+01   9.2752751217e+00    0.6298086    0.5327081  81.20  0.003254184    1.614    0.381
        10 -10.2271    146.9073    185.6828   4.9872984394e+01   1.3737055915e+01    0.4862711    0.3566953  79.56  0.002122039    2.107    0.525
        11 -16.2763    207.4393    115.3405   2.2100393105e+01   1.6707932876e+01     4.600737     3.540129 -18.65   0.02248501    1.682    0.405
        12 -11.6134    109.5237    172.0217   5.6902199115e+01   2.3802308600e+01    0.6789336    0.4341524 -35.42  0.002631038    1.850    0.460
        13 -10.8362    205.7170    248.4759   4.8085446929e+01  -7.4941451654e+00    0.3993108    0.1644342 -36.64  0.001881024    2.400    0.583
        14 -10.2594    193.0204    213.5589   4.4711632218e+01   2.1921521040e-01    0.2390285    0.2256511   9.15 0.0005186708    1.188    0.158
        15 -11.2062    202.7565    246.5708   4.8363174175e+01  -6.8118948568e+00    0.2656755    0.1703997  38.45  0.001366353    1.734    0.423
        16 -10.7178    206.6570    205.7637   4.0535035363e+01  -4.1375504827e-01    0.5172375    0.3483434  64.32  0.002290918    3.119    0.679
        17 -11.1862    116.0041    162.3269   5.3202230041e+01   2.5016225339e+01    0.3578662    0.2863927  14.45 0.0008836799    1.429    0.300
        18 -11.2127    114.9631    157.7997   5.2549972577e+01   2.6325929205e+01    0.3701146    0.3022355 -48.68 0.0007670613    1.228    0.186
        19 -11.8086    199.8838    199.0845   4.0647576762e+01   1.8570563538e+00    0.7471962    0.5098076  51.44  0.002457004    1.949    0.487
        20 -16.1524    248.2549    111.3003   1.5358609000e+01   9.9270981376e+00     2.109842     1.119001 -65.76   0.00757623    2.636    0.621
        21  -9.7183    185.6686    208.2634   4.5295897290e+01   2.3585882351e+00    0.2422192    0.2168963  66.46 0.0005504601    1.521    0.342
        22  -9.2835    195.1224    206.8199   4.3054010079e+01   1.1478246694e+00     0.192584     0.187027  28.32 0.0005807903    1.266    0.210
        23 -11.1290     68.0860    144.2269   6.3696035202e+01   3.7744884014e+01    0.7495366    0.4609933  61.86  0.002805718    2.191    0.544
        24 -17.2658    246.3827    130.1129   1.9202595628e+01   7.0374898806e+00      2.33028      2.08336   2.21   0.01075213    1.402    0.286
        25 -10.1946     20.2111    133.1435   7.7239160339e+01   4.6100325282e+01    0.2143401    0.1964992 -35.87 0.0003195822    1.139    0.122
        26 -11.4607    125.0731    127.0901   4.2772095896e+01   3.1688561139e+01    0.6831179    0.4390789 -39.78  0.002708143    1.630    0.387
        27  -9.1173     77.2951    130.3267   5.7869340818e+01   3.9865654158e+01    0.1582695    0.1156793 -24.08 0.0004449437    1.627    0.385
        28  -9.9104     79.1452    124.8283   5.6022944227e+01   4.0927789152e+01    0.2511584    0.2361125 -58.13 0.0004295862    1.074    0.069
        29 -11.2591    114.3586    116.8797   4.3220016564e+01   3.6237597912e+01    0.8379074    0.3526654 -47.04  0.002943244    2.392    0.582
        30 -11.2441    112.5546    105.9435   4.0885030667e+01   3.9038340361e+01     1.277984     0.834803  19.15  0.005178982    2.139    0.533
        31 -11.5212    122.4692    114.5290   4.0339662180e+01   3.5072387963e+01    0.6073477     0.417045 -51.92   0.00171253    1.510    0.338
        32 -12.2541    124.0635    104.9121   3.7393330032e+01   3.6811968084e+01     1.455035     0.696663 -56.23  0.005099715    2.694    0.629
        33 -11.2400    125.1134     96.7212   3.4910549324e+01   3.8275555648e+01    0.5749033    0.3814149 -59.26  0.001731009    1.794    0.442
        34 -10.2509    141.8207    223.5528   5.7789295212e+01   6.4145026203e+00    0.3050178    0.2519768  88.73 0.0004559349    1.649    0.393
        35 -10.3854    228.5299    220.9366   3.9094945839e+01  -6.0533322216e+00    0.5494706     0.282612  49.87  0.002334845    3.826    0.739
        36  -9.0650     96.4844    109.6133   4.6695500498e+01   4.1440942950e+01     0.297604    0.1849578  43.11   0.00104721    1.611    0.379
        37 -10.8228    198.1175    246.1301   4.9218638479e+01  -6.1287503300e+00     0.230061    0.1576567 -22.42  0.001030932    1.395    0.283
        38  -9.5110    159.0953    100.8021   2.7844986730e+01   2.9829529720e+01    0.2423381    0.2041888 -89.98  0.001241761    1.291    0.226
        39  -9.9573    112.7346     95.0439   3.7859576895e+01   4.1298001001e+01    0.4574982    0.2499912  46.48  0.001884238    1.785    0.440
        40 -10.4385    167.7525     92.3785   2.3969078399e+01   2.9462588918e+01    0.5465935    0.2936994  49.94  0.002352536    1.870    0.465
        41  -8.5951     70.8161     92.7268   5.0698034237e+01   4.9773924803e+01    0.1824561    0.1719383  89.99 0.0007662254    1.276    0.216
        42 -12.1088     48.2708    104.2008   6.1904216408e+01   5.0409987203e+01    0.5064886    0.4491861   0.63 0.0008948721    1.138    0.121
        43  -9.7837    172.1265     85.3402   2.1403641594e+01   2.9734934681e+01    0.2639818    0.2131293 -53.67  0.001035872    1.212    0.175
        44  -9.1962    128.0497     83.3216   3.0446741210e+01   4.0212699369e+01    0.2285732    0.2049642 -19.38  0.000387627    1.244    0.196
        45  -9.9422    180.0364     72.0148   1.6799238242e+01   3.0184534381e+01    0.5987057    0.2376039 -35.20  0.002282183    2.870    0.652
        46 -11.1059    183.7990     78.3971   1.7693389601e+01   2.8290162833e+01      0.43007    0.3897378  77.65  0.001138797    1.087    0.080
        47  -9.8881    185.1805     73.0843   1.6222507300e+01   2.8852858992e+01    0.2595088    0.2362924 -18.61 0.0005129705    1.396    0.284
        48  -8.8707    139.8556     78.8576   2.6372436145e+01   3.8316599699e+01    0.2212867    0.1980421  28.27 0.0006966299    1.242    0.195
        49  -8.6099    129.3018     79.3063   2.9006019568e+01   4.0659758307e+01     0.146217    0.1156575  16.66 0.0003010416    1.597    0.374
        50 -11.7498      6.5707    109.6216   7.8336437330e+01   5.2909534723e+01    0.5511093    0.2918683 -73.92  0.002701869    1.806    0.446
        51  -8.8789    137.0882     74.3475   2.5763735152e+01   3.9740090965e+01     0.203053    0.1767566  60.73 0.0006549492    1.082    0.076
        52  -9.4868    173.5050     72.0316   1.7900186611e+01   3.1670391973e+01    0.2292074    0.1647367 -60.90 0.0009857618    1.417    0.294
        53 -10.9615    173.1777     66.2905   1.6550872360e+01   3.2660368939e+01    0.4556801    0.3264581 -71.30  0.001738568    1.492    0.330
        54  -9.8607    150.9827     71.0526   2.1865916579e+01   3.7057052330e+01    0.2551035    0.2079369 -37.23 0.0004723412    1.337    0.252
        55  -9.7460    230.8280     69.2287   9.2821413053e+00   1.9862528002e+01    0.3374154    0.2401523 -19.86  0.001736229    2.267    0.559
        56 -10.5327    234.0640     63.7627   7.8614024685e+00   2.0052225763e+01    0.3962196    0.1892248 -48.47 0.0007906758    1.766    0.434
        57 -10.3968    146.3430     68.0012   2.2001002424e+01   3.8639888747e+01    0.5383978    0.3104454 -22.75  0.002229584    2.580    0.612
        58 -10.0647    111.3485    100.4345   3.9745727089e+01   4.0469789365e+01    0.2932129    0.1909484 -48.29 0.0007596166    1.592    0.372
        59  -9.6826    232.5757     55.1381   6.3493170688e+00   2.1586381616e+01    0.3828988    0.1373206 -49.61  0.001291804    2.372    0.578
        60  -9.1417    227.2339     68.9628   9.6374672029e+00   2.0606099732e+01    0.2152005    0.1537784 -52.16 0.0002739709    1.216    0.178
        61  -9.7147    228.2239     61.5979   8.0647035183e+00   2.1509168363e+01    0.2655538    0.1488176  60.22  0.001347243    1.908    0.476
        62 -10.5181    228.1851     56.5009   7.0656803231e+00   2.2254691120e+01    0.3878537    0.2299645 -54.06  0.001236279    1.442    0.307
        63  -9.0735    226.9426     65.4938   8.9788713693e+00   2.1185905572e+01    0.1731916    0.1611161 -80.96 0.0006365772    1.238    0.192
        64 -10.8192    222.3662     63.5429   9.1070402902e+00   2.2390419793e+01    0.3312457    0.2356141  71.97  0.000612945    1.407    0.289
        65 -10.3409    187.1741    216.8920   4.6528485071e+01   4.9628426456e-01    0.4324592    0.1928677 -36.33  0.001609724    2.327    0.570
        66  -9.2886    215.8410     66.7658   1.0541320150e+01   2.3235249220e+01    0.2051561    0.1822553 -84.32 0.0008715279    1.118    0.105
        67 -10.2314    183.9706     59.0291   1.3116366584e+01   3.1303092519e+01    0.3103918    0.2546364  23.93  0.001143708    1.790    0.441
        68 -10.9492    182.8908     65.2431   1.4738707241e+01   3.0607146918e+01    0.3569002    0.3007521  -1.67  0.002002906    1.740    0.425
        69 -10.7101    180.0038     62.9964   1.4653868017e+01   3.1606730958e+01    0.2753248    0.2528189  44.02 0.0004159619    1.317    0.241
        70 -16.4918    195.5957    168.6825   3.5564770640e+01   8.5084074697e+00     9.583956     4.121785  44.51   0.03791444    2.545    0.607
        71  -8.2248    110.3162     64.2916   2.9514723240e+01   4.7499393139e+01    0.1443618    0.1073675  21.29 0.0005792763    1.597    0.374
        72 -10.6690    238.3977     60.5390   6.7958265852e+00   1.9693828759e+01      0.20514    0.1804846 -70.86 0.0003085535    1.180    0.152
        73 -10.0991    246.4172     54.5173   4.9045129904e+00   1.9049710091e+01    0.3149706    0.1947792 -61.30  0.000173088    1.333    0.250
        74  -9.3888    247.3622     59.9579   5.8134522550e+00   1.8107011283e+01    0.1942782    0.1809662  86.28  0.001440296    1.368    0.269
        75  -9.0970    243.7475     59.0374   5.9877770059e+00   1.8904973239e+01    0.1852485    0.1508593 -73.30 0.0005928591    1.075    0.069
        76  -9.8292    144.4447     59.5723   2.0093572042e+01   4.0404151742e+01    0.2431763    0.2221633  78.68 0.0006161538    1.031    0.030
        77  -8.5012     72.6173     59.2776   3.9715129202e+01   5.5955773895e+01    0.1835917    0.1252173 -26.30 0.0007555664    1.569    0.363
        78 -10.2125    219.3971     55.8550   7.8852022697e+00   2.4115485418e+01     0.466979    0.2397569  43.99  0.002077156    3.300    0.697
        79  -8.8148    123.1606     55.8053   2.3674242397e+01   4.5927846795e+01    0.2532498    0.2009064 -15.73 0.0005990583    1.541    0.351
        80  -9.4639    125.0499     50.2098   2.1568346336e+01   4.6302109893e+01     0.343206    0.2230883  -5.31  0.001031617    2.519    0.603
        81  -9.8954    175.3130    222.4473   5.0039877696e+01   1.2882438170e+00    0.2324619    0.1917157  29.23 0.0007240744    1.180    0.152
        82  -9.6105     90.7931    215.3027   6.8920531808e+01   1.6410371402e+01    0.2330208    0.2157891 -38.18 0.0002052427    1.216    0.178
        83  -8.5654     70.5824    198.7222   7.1817836682e+01   2.3398183770e+01    0.1890956    0.1348923 -83.78 0.0003927502    1.504    0.335
        84 -10.1118    249.9545     47.5228   3.3291115942e+00   1.9362703400e+01     0.312254    0.1582652 -47.79   0.00182436    1.613    0.380
        85  -9.0721    139.8724     47.5334   1.7667502834e+01   4.3210949561e+01    0.2045749    0.1222277  59.88 0.0003774291    1.490    0.329
        86  -8.7246    133.1513     42.8421   1.7671625792e+01   4.5413478683e+01    0.1794203    0.1467758  38.84  0.001026807    1.305    0.233
        87  -9.4187    178.6630    193.2226   4.3993564027e+01   6.4846931269e+00    0.4780975     0.202871  45.67  0.001658954    2.722    0.633
        88  -9.6670     34.8721    193.6802   8.0491105839e+01   2.9206270119e+01    0.2214494    0.1679723 -65.98 0.0003333568    1.273    0.215
        89  -8.9637    131.0372     39.5119   1.7132665320e+01   4.6334411772e+01    0.1849031    0.1788965 -83.44 0.0003309269    1.132    0.117
        90  -8.8827    233.0534    192.4676   3.3160779164e+01  -1.8835172198e+00    0.2101972    0.1226672  29.87  0.001108113    1.902    0.474
        91 -10.7684    241.4136     35.8328   1.9379035507e+00   2.2490405380e+01    0.4555615    0.1582366  67.22  0.002232194    2.794    0.642
        92  -8.8739    136.1819     31.8166   1.3931931358e+01   4.6060840010e+01    0.1762833    0.1393253  43.79 0.0003732719    1.319    0.242
        93 -12.0480    192.5363    193.7052   4.1132920143e+01   4.0664077032e+00     1.176901    0.5612056 -59.56  0.003941249    4.049    0.753
        94  -9.4686    203.4618    187.9853   3.7820969549e+01   3.3928908010e+00    0.2973752    0.2343628 -75.17  0.001082243    1.958    0.489
        95  -9.9759    188.4827     25.9045   4.9792528493e+00   3.4666413406e+01    0.2656658    0.1530545  63.12  0.001214778    1.606    0.377
        96 -11.7145    178.8909     24.0048   5.6453937755e+00   3.7035784600e+01    0.5727543    0.3062105  72.17  0.003047066    1.618    0.382
        97  -9.8209    191.8407     21.8348   3.7301451200e+00   3.4391893314e+01    0.1737559     0.148161  77.19 0.0004419858    1.203    0.169
        98  -9.0491    229.4836    214.3427   3.7760873984e+01  -5.0997018806e+00    0.2462617    0.2002279 -64.80   0.00146129    2.005    0.501
        99  -9.0152    130.5221    244.4802   6.3536640794e+01   4.0188054210e+00    0.1365443    0.1182273  33.87 0.0008095005    1.047    0.044
       100  -8.3128     91.5939     15.5043   1.8295033407e+01   5.7868959136e+01    0.1244053    0.1049532  49.20 6.803952e-05    1.040    0.038
       101 -10.9428    245.9643    233.3560   3.8117873627e+01  -1.0074634754e+01    0.2901532    0.2422089  28.12  0.001443598    1.547    0.353
       102  -8.1988    107.7936     15.0467   1.4406871452e+01   5.4347047826e+01    0.1392574    0.1029239 -25.74            0    1.628    0.386
