#   1 NUMBER                 Running object number                                     
#   2 MAG_AUTO               Kron-like elliptical aperture magnitude                    [mag]
#   3 X_IMAGE                Object position along x                                    [pixel]
#   4 Y_IMAGE                Object position along y                                    [pixel]
#   5 X_WORLD                Barycenter position along world x axis                     [deg]
#   6 Y_WORLD                Barycenter position along world y axis                     [deg]
#   7 A_WORLD                Profile RMS along major axis (world units)                 [deg]
#   8 B_WORLD                Profile RMS along minor axis (world units)                 [deg]
#   9 THETA_WORLD            Position angle (CCW/world-x)                               [deg]
#  10 FWHM_WORLD             FWHM assuming a gaussian core                              [deg]
#  11 ELONGATION             A_IMAGE/B_IMAGE                                           
#  12 ELLIPTICITY            1 - B_IMAGE/A_IMAGE                                       
         1 -11.3306     53.8015     37.6597   6.2953512901e+01   6.5553098824e+01    0.6919007     0.415959 -23.35  0.001848402    2.162    0.537
         2 -11.4097     62.5419     17.0584   4.7587866950e+01   6.7242179962e+01     1.064745    0.3668092  54.83 0.0004420005    2.881    0.653
         3 -11.5877     69.8170     11.7498   4.1663014825e+01   6.6234980720e+01    0.3478678      0.31595  88.88  0.002006183    1.258    0.205
         4 -12.0312     76.8557     30.2048   4.9366645987e+01   6.2043191191e+01    0.9107621    0.7957228 -64.22  0.002657994    1.323    0.244
         5 -10.9379     89.4879     28.7806   4.4511956155e+01   5.9241337084e+01    0.8693649    0.4297326 -24.33  0.003037449    2.243    0.554
         6 -10.6150     85.9991     22.0283   4.2199134527e+01   6.1024997802e+01    0.4682553    0.2706878  66.24  0.001840138    1.858    0.462
         7 -10.5436     40.7659     21.6016   6.1183249003e+01   7.0920087118e+01    0.7388999    0.5305398  71.22  0.003489036    2.364    0.577
         8  -8.8857     31.2885     27.5203   7.0538108203e+01   7.1298286332e+01     1.190265    0.4451664 -38.35  0.004349772    2.952    0.661
         9 -10.9500     18.7081     28.3123   7.9753398857e+01   7.2691647286e+01    0.6787292    0.3203584 -63.48  0.002918986    2.318    0.569
        10 -11.2235    112.9953     34.2903   4.0792766130e+01   5.2539446441e+01    0.7481354    0.5350638 -34.14  0.003626356    1.392    0.282
        11 -10.1413    248.2697     30.6592   2.3180861121e+01   2.1498059872e+01    0.2623166    0.1846705 -18.64 0.0008285051    1.374    0.272
        12 -12.5413    105.1070     21.0005   3.6778627098e+01   5.6287585785e+01    0.4155796    0.3625821  -5.10 0.0005377302    1.223    0.182
        13 -10.4099      6.8778      8.8689   7.9225986024e+01   7.8019428381e+01    0.5460454    0.2269305  34.58   0.00210763    2.661    0.624
        14  -9.4560      4.9520      1.9714   7.6340588652e+01   7.9577756801e+01    0.4277513    0.2110739 -18.63  0.001717644    2.890    0.654
        15 -10.6152      2.8190     23.6521   9.0454116210e+01   7.5054475625e+01    0.5679591    0.1931116 -46.25  0.002384462    2.398    0.583
        16 -11.5270      7.1933     16.1089   8.3165482793e+01   7.6458316993e+01    0.6610644    0.4046519   1.77  0.002189652    1.820    0.450
        17 -10.8829    132.1987     21.7742   3.1982894282e+01   4.9075476951e+01    0.4239563    0.3823567  77.12  0.001365729    1.084    0.077
        18 -10.5068    166.0244     18.5199   2.6436326198e+01   4.0676833060e+01    0.5533546    0.3324737  28.16  0.002058523    2.310    0.567
        19  -9.2161    152.0862     13.5381   2.6258172883e+01   4.4714577156e+01    0.2903136    0.1925721 -56.44 0.0007833635    1.499    0.333
        20 -10.6246    151.9381     18.0441   2.7856803964e+01   4.4310582113e+01    0.3143676    0.2773831  33.32 0.0003084379    1.268    0.211
        21  -9.2583    220.4194     13.7866   2.0807612348e+01   2.8584294167e+01    0.2109244    0.1892147 -55.76 0.0005785564    1.103    0.094
        22  -9.2284    218.2588     10.9991   2.0225551014e+01   2.9294467695e+01     0.186979    0.1699704  81.19 0.0005913241    1.256    0.204
        23 -10.1773    238.1154     17.4527   2.0707288148e+01   2.4689593880e+01    0.2985908    0.2240373  14.39  0.001875472    1.800    0.445
        24 -11.1675    182.3128     18.4062   2.4831763648e+01   3.6692611796e+01    0.3177898    0.2710577  33.39  0.000468545    1.389    0.280
        25  -9.0739    184.0659     13.1316   2.3107605173e+01   3.6782804807e+01    0.2287783    0.2004599  33.95 0.0008173483    1.353    0.261
        26 -10.8103    174.9505     12.2512   2.3593409822e+01   3.9069625360e+01    0.6198851     0.414703  12.25  0.003100169    1.992    0.498
        27 -10.1101     16.7457     17.0105   7.5291538213e+01   7.5329578505e+01    0.4447224    0.2631927  -1.24  0.002108074    2.231    0.552
        28 -10.7090    125.2369     12.9795   2.9549461850e+01   5.1827075166e+01    0.7018719    0.4562487 -64.98  0.001430849    1.711    0.415
        29 -10.7034    229.1641     14.6732   2.0530876211e+01   2.6712203788e+01    0.4511356    0.2426742  88.41  0.002475742    2.103    0.525
        30 -10.3732    145.2115     12.8563   2.6807682991e+01   4.6565671714e+01    0.4175242    0.2159352  76.42  0.001502797    1.926    0.481
        31 -10.1645    117.9638     15.2429   3.1683470348e+01   5.3534127920e+01    0.4000169     0.289633  80.36  0.002005091    1.402    0.287
        32  -9.6988    210.0035     13.2788   2.1308809142e+01   3.0849916274e+01    0.2407074    0.1971468  65.57  0.001482187    1.392    0.282
        33 -10.2257    211.9497      8.7959   2.0016065378e+01   3.0839140036e+01    0.4008998     0.181447 -31.92 0.0007915361    1.788    0.441
        34 -10.0263    209.0018      4.9848   1.9181300139e+01   3.1816120086e+01    0.3157429    0.2349864  11.50   0.00140185    1.752    0.429
        35 -10.1495    206.3415      2.0501   1.8546169893e+01   3.2651082697e+01    0.2294243    0.1830125 -56.93 0.0003696971    1.082    0.076
        36 -11.2930    133.0208     12.6614   2.8295222959e+01   4.9792436498e+01    0.2832775    0.2411131 -45.30 0.0002881408    1.161    0.139
        37  -9.5130    200.2243     12.3026   2.1684286297e+01   3.3107999341e+01    0.2945992    0.1463502 -32.11  0.001461682    1.698    0.411
        38  -9.0900     98.6149      5.5967   3.0785469859e+01   5.9566672914e+01    0.3844769    0.2379264  10.62  0.001333553    1.991    0.498
        39  -9.5511     97.0386     12.5954   3.4584475395e+01   5.9314596639e+01    0.3114575    0.2289535  -6.24 0.0004653099    1.505    0.336
        40 -10.5541    101.4315     11.0848   3.2907897839e+01   5.8318249426e+01    0.3697101    0.2817532  64.86 0.0004791248    1.247    0.198
        41 -10.3880    107.7277      7.4226   2.9982666935e+01   5.6997761803e+01    0.5627498     0.238949  62.93  0.001840405    2.092    0.522
        42  -9.5761    106.9869      2.5660   2.7842114514e+01   5.7602541070e+01    0.4272359    0.2048574  42.39   0.00176456    2.216    0.549
        43 -10.3261     30.9411     12.3790   6.1342117623e+01   7.4202002039e+01    0.3370771    0.2744222  54.77  0.001031205    1.558    0.358
        44  -9.5730    191.5767     10.7787   2.1855338101e+01   3.5230975473e+01    0.3079481    0.2428667   7.59   0.00136847    1.557    0.358
        45  -9.4464    190.4958      6.9453   2.0830099295e+01   3.5826893253e+01    0.2752184      0.23441 -72.50  0.001019096    1.109    0.098
        46  -8.5294     48.4539      7.5363   4.7591776240e+01   7.1582440507e+01    0.2239932    0.1914268 -29.69 0.0007866432    1.217    0.178
        47  -9.1180     44.0128     10.3711   5.1890399648e+01   7.2115312911e+01    0.2396608    0.1746208  -6.58 0.0004424795    1.473    0.321
        48  -9.5122     45.6273      4.9172   4.7063633027e+01   7.2508263156e+01    0.3786407    0.2381796 -18.24  0.001585489    1.642    0.391
        49  -9.8842     37.9687      4.5613   5.0931250476e+01   7.4112903080e+01     0.338491    0.2123878  17.39  0.001440114    1.923    0.480
        50  -9.8430     42.4444      1.4535   4.6004131442e+01   7.3591555154e+01     0.262691    0.1817772  39.96 0.0007377057    1.354    0.261
        51  -9.9814     91.3389      9.1238   3.4119668288e+01   6.1140494819e+01    0.4687809    0.2040437  47.79  0.001868558    2.199    0.545
        52  -9.3150     88.0536      5.2671   3.2834609450e+01   6.2349872320e+01    0.4687522    0.1938187 -15.61  0.001791467    2.715    0.632
        53  -9.6289     91.7137      2.4415   3.0543439992e+01   6.1641555422e+01    0.3350985    0.2008645 -62.52 0.0007537217    2.074    0.518
        54  -9.7790     54.8292      8.9941   4.5682863930e+01   7.0017626054e+01    0.3321483    0.2378214 -51.78   0.00101837    1.747    0.427
        55 -12.2198    160.0877      2.1064   2.1566603438e+01   4.3663172323e+01    0.6106781     0.445791 -73.79  0.001371734    1.314    0.239
        56 -11.7948    156.0694      3.5740   2.2403480111e+01   4.4569178387e+01    0.5960467    0.2237738  63.61    0.0003966    2.466    0.594
        57 -10.5004     79.3712      4.4468   3.4489826516e+01   6.4642517095e+01    0.3782888    0.2164127 -20.41  0.001281483    1.814    0.449
        58 -11.1725     75.0541      2.4799   3.4476303796e+01   6.5905155245e+01    0.6426115    0.6209301  28.85  0.003938718    1.048    0.046
        59  -8.9557     14.8024      8.1371   7.1080416701e+01   7.7308329431e+01     0.305737    0.2273667  45.89  0.001554804    1.713    0.416
        60  -9.7425     22.3596      1.2772   5.8907485570e+01   7.7394295308e+01    0.4858741    0.1180491  40.67  0.001636524    4.167    0.760
        61 -10.1615     13.5303      3.2544   6.8444736045e+01   7.8362392671e+01    0.3591598    0.2952996  33.21  0.001636173    1.364    0.267
        62  -9.5264     24.7034      7.2823   6.2074473306e+01   7.6064595862e+01    0.1920038    0.1661669 -38.40 0.0002414538    1.247    0.198
        63 -11.0830     20.7537      5.5016   6.3821387282e+01   7.6967726332e+01    0.3163157    0.2402968  46.94 0.0007724544    1.611    0.379
        64  -8.1570    223.6609      8.3295   1.9265044698e+01   2.8411725182e+01    0.1364351    0.0674522 -52.05 0.0007051803    1.737    0.424
        65 -10.2685    138.9641      6.6950   2.5247266592e+01   4.8759373537e+01    0.2493958    0.1880238  63.55 0.0007448574    1.293    0.227
        66 -11.0100    136.2598      3.1838   2.4209661681e+01   4.9762784304e+01    0.4396438    0.2707828 -61.81  0.001329132    1.688    0.408
        67  -8.9275    124.0165      6.5202   2.7054422799e+01   5.2738971473e+01    0.3135623    0.1282592 -39.58 0.0009683674    2.372    0.578
        68  -9.3329    170.4052      6.2115   2.2072217223e+01   4.0731471222e+01     0.244063    0.1442796  61.32 0.0006810958    1.734    0.423
        69 -10.3042    238.5326      3.8042   1.7494333335e+01   2.5843928092e+01     0.323751    0.2191255  58.94  0.001409255    1.845    0.458
        70  -9.6403    232.6544      2.9360   1.7536429561e+01   2.7068373995e+01    0.2633448    0.1288147 -57.64  0.001164977    1.820    0.451
        71 -11.2490    219.0820      3.0930   1.8183967621e+01   2.9822184772e+01    0.3750632    0.2650793 -86.36 0.0009144319    1.455    0.313
        72 -10.9986    196.2338      3.3311   1.9450018959e+01   3.4812770287e+01    0.4758572    0.2336239  61.73 0.0009313373    2.188    0.543
        73 -10.1274     30.5745      2.7819   5.4132585415e+01   7.5755665393e+01    0.3296006     0.219863 -53.32  0.001258041    2.147    0.534
        74 -10.5064    249.9276      1.5745   1.6549083719e+01   2.3889993491e+01    0.1697665    0.1283441 -65.84 0.0003484788    1.262    0.208
        75  -9.7753    180.6778      1.9456   2.0011276531e+01   3.8580310647e+01    0.3260481    0.1822954 -88.65   0.00155759    1.811    0.448
        76  -9.9861    115.7234      1.9957   2.6270079748e+01   5.5319127905e+01    0.2301585    0.1862095  64.59 0.0002957391    1.165    0.142
        77  -8.9592    126.7164      1.3584   2.4577632761e+01   5.2436817938e+01    0.2481297    0.1272504  82.28 0.0005964409    1.948    0.487
        78  -9.6651     81.7222    115.8204   7.7313993067e+01   4.2614378568e+01     0.298529    0.2097002  33.71 0.0006177102    1.443    0.307
        79 -10.2183    201.2349    249.7461   7.2515174508e+01   2.0124335695e+00    0.2084321    0.1318517  15.30 0.0009806759    1.139    0.122
        80  -9.0328     46.5707    113.6982   8.9028757495e+01   4.8201496706e+01    0.2805456    0.1484659  47.46  0.001207088    1.955    0.488
        81  -8.7206     93.8195    111.7920   7.2539889990e+01   4.1470203743e+01    0.1975839    0.1728066  78.54 0.0002573646    1.275    0.216
        82 -11.3682     37.0517    110.1977   9.1973552118e+01   5.0183576288e+01    0.2950498    0.2599382  84.87 0.0003647663    1.077    0.071
        83 -11.2326     32.8204    105.6974   9.2887525604e+01   5.1795608039e+01    0.7708632    0.2912554 -54.12   0.00281232    2.464    0.594
        84 -10.8621     21.2206    108.7720   9.7781224455e+01   5.2037520874e+01    0.5135422    0.2665353 -70.40    0.0014106    1.721    0.419
        85  -9.3187      4.9099    110.6868   1.0412407699e+02   5.2665237714e+01    0.2408451    0.1553737 -54.73 0.0009020812    1.563    0.360
        86  -8.7660    123.8039    110.2153   6.3526598537e+01   3.6021086291e+01    0.2433078     0.116059  33.65 0.0008350884    2.508    0.601
        87  -8.1719     25.6629    110.7063   9.6336261518e+01   5.1154926523e+01    0.1408526   0.09750959 -39.24 0.0007027413    1.647    0.393
        88  -9.5007     90.0342    108.3470   7.2892393741e+01   4.2960085206e+01    0.2646455    0.2187584 -68.91 0.0003683301    1.291    0.226
        89  -8.7056    116.4995    107.9409   6.4905507849e+01   3.7977857156e+01    0.2205895    0.1478267 -44.44 0.0004360413    1.487    0.328
        90 -10.5102     56.3877    102.5565   8.3261347471e+01   4.9799816028e+01    0.7451323       0.2918 -45.67  0.002597161    2.860    0.650
        91  -9.3897     51.6731    104.8137   8.5503356173e+01   4.9855336589e+01    0.3339021    0.2014242 -62.74 0.0008011925    1.573    0.364
        92 -10.6926     51.0062     99.8734   8.4745325856e+01   5.1214809157e+01    0.6632099    0.5184016   5.70  0.003300833    1.543    0.352
        93  -8.5151     16.2920    107.6618   9.9540902369e+01   5.2709732868e+01    0.1450408    0.0894918  63.22 0.0004901474    1.645    0.392
        94  -9.2865     93.3768    104.8855   7.0958663464e+01   4.3157912119e+01    0.3295059     0.235021  70.04  0.001452038    1.866    0.464
        95  -9.8566     64.0381    103.6429   8.0668376700e+01   4.8419882994e+01    0.5202279    0.2923972 -26.56  0.001872958    3.063    0.674
        96 -10.2736     71.0212    102.4774   7.7882461279e+01   4.7626502728e+01    0.3381096    0.3143341 -17.37  0.001845898    1.175    0.149
        97  -9.0926      2.0038    104.9888   1.0479086962e+02   5.4300743113e+01    0.1499723    0.1389399  72.88 0.0003501731    1.094    0.086
        98  -9.3350    141.7738    103.5309   5.7280284352e+01   3.3620805256e+01    0.2781044    0.2320136 -56.24 0.0007835539    1.313    0.238
        99  -8.4311      7.6331    104.3376   1.0255775751e+02   5.4156919583e+01    0.1501144   0.08223444  57.81 1.629469e-05    1.839    0.456
       100  -8.1629    161.5219    103.5612   5.2957735098e+01   2.9435992660e+01    0.1435425    0.1365271 -24.41 7.085713e-05    1.043    0.041
       101  -9.0652    100.8245    103.1286   6.8184277082e+01   4.2143937744e+01    0.2384567    0.2079109 -18.61 0.0003322874    1.269    0.212
       102 -10.1806    104.1980    100.1683   6.6365024310e+01   4.2142810220e+01    0.5226656    0.3034907  51.97  0.002154683    1.901    0.474
       103  -9.1069     40.7284    103.2361   8.9399672744e+01   5.1598124931e+01    0.2333598    0.1731367  82.07  0.001179812    1.434    0.303
       104  -9.6283     86.5628    101.1285   7.2195783025e+01   4.5290549770e+01    0.3644882     0.229643 -79.73  0.001396848    2.528    0.604
       105  -9.6170     38.6675     99.6645   8.9565418309e+01   5.2762210509e+01    0.4803831    0.2096648  14.46  0.001728249    3.219    0.689
       106 -10.7555    117.6189     98.0809   6.1921357558e+01   3.9840367528e+01    0.2584836    0.2422511  33.89 0.0002537713    1.077    0.071
       107  -9.8503    125.5714     97.3282   5.9576334810e+01   3.8307000185e+01    0.3504843     0.270113  73.26  0.001637403    1.668    0.401
       108  -9.2169      3.8367     79.4230   1.0161062133e+02   6.0907510451e+01    0.2426631    0.1649975 -77.93 0.0004362723    1.280    0.219
       109  -8.5396      9.4799     98.5141   1.0125469435e+02   5.5571369463e+01    0.1932984     0.113592  37.01  0.000965475    1.738    0.425
       110  -9.1258      5.8251     98.1622   1.0270692736e+02   5.5877749298e+01    0.3601104    0.2237868 -72.63   0.00188773    1.406    0.289
       111  -9.3199      1.7498     91.7916   1.0381338151e+02   5.7758367434e+01    0.5423584    0.2053926  63.08  0.002056849    3.067    0.674
       112 -10.7480      2.4337     85.9595   1.0296270739e+02   5.9256564447e+01    0.3543021    0.2253332 -77.24 0.0005809974    1.357    0.263
       113  -8.6845    153.9483     96.5421   5.2653237889e+01   3.2299615098e+01    0.2130497    0.1461211  49.44 0.0003758714    1.520    0.342
       114  -9.0624    141.6721     95.9898   5.5230396336e+01   3.5077858667e+01    0.2152371    0.1847615 -35.77 0.0004943151    1.132    0.116
       115  -9.6095     89.1670     95.5183   6.9825486696e+01   4.6124159303e+01    0.6286635    0.2643394  29.64  0.001974801    3.416    0.707
       116  -9.1879     81.9275     95.8598   7.2368475074e+01   4.7378149948e+01    0.2855314    0.2049203  44.18  0.001342567    1.417    0.294
       117  -9.2423     62.6163     95.9185   7.9388171691e+01   5.0576745084e+01    0.3344897    0.1971832  43.57 0.0005875942    1.747    0.428
       118  -8.7594     28.0021     95.7734   9.3239616369e+01   5.4870688878e+01    0.1838011    0.1752255  79.78 0.0002295008    1.063    0.059
       119  -9.9211     31.2989     93.3813   9.1449810658e+01   5.5184726660e+01    0.3697426    0.2624931 -85.14  0.001230173    1.409    0.290
       120  -9.8161     33.7675     90.4371   8.9853719983e+01   5.5707642293e+01    0.2930664    0.2067246  15.35  0.001474594    1.621    0.383
       121 -10.5617     25.4458     88.2275   9.3056065832e+01   5.7093961654e+01     1.327206    0.6450368 -30.02   0.00510868    2.969    0.663
       122 -11.0115     18.0072     90.8094   9.6715811753e+01   5.7022942086e+01     0.402766     0.265274 -17.58 0.0003106276    1.907    0.476
       123  -8.7350     13.9624     88.7439   9.8191094843e+01   5.7858759284e+01    0.2252138    0.1889651  35.74  0.001011199    1.284    0.221
       124  -8.5809    165.6744     94.7126   4.9766850260e+01   3.0080153080e+01    0.1464532    0.1107341  11.84 0.0002406105    1.608    0.378
       125  -9.7096     48.0460     93.1481   8.4463306570e+01   5.3333963815e+01    0.3866335    0.2628927  86.71  0.001776788    1.787    0.440
       126  -9.6624     38.8260     90.6782   8.7751449740e+01   5.5093921862e+01    0.3585002    0.1849367 -40.75  0.001468338    2.229    0.551
       127  -9.5424     43.8705     88.8164   8.5219696976e+01   5.4980290074e+01    0.2509932    0.2231741 -88.78 0.0004105307    1.128    0.114
       128  -9.6057     46.0684     84.6638   8.3310898998e+01   5.5772089086e+01    0.2873887    0.2424512 -59.58   0.00105192    1.113    0.102
       129  -8.3453    131.2467     93.0048   5.6890312835e+01   3.7937523302e+01    0.1967766    0.1269693 -39.93 0.0004895239    1.519    0.342
       130 -10.0068    109.8722     86.1589   6.0610947966e+01   4.3995395811e+01    0.4202148    0.3014366 -89.15  0.001191393    2.178    0.541
       131 -10.0019    108.2102     90.6881   6.2465601396e+01   4.3389694372e+01    0.4133297    0.3089049  26.80  0.001377926    1.529    0.346
       132 -10.1066     65.6252     90.4773   7.6859247642e+01   5.1463896615e+01    0.4412147    0.2947067   6.74  0.001721325    2.186    0.542
       133 -10.5955     64.6438     86.4507   7.6151810212e+01   5.2615474788e+01    0.5090355    0.3437604  10.18  0.001886346    2.045    0.511
       134  -9.7406     70.1360     85.8317   7.3858103049e+01   5.1855360615e+01    0.3039117    0.2165116 -48.66  0.000974455    1.364    0.267
       135 -10.9906     72.8690     80.0385   7.1096759880e+01   5.2762806559e+01     0.525044    0.4021354 -51.60  0.001639632    1.269    0.212
       136 -10.1192     80.9620     82.8152   6.8955348937e+01   5.0624302701e+01    0.4191408    0.3034367 -24.04 0.0008847536    1.722    0.419
       137 -10.0991     77.2878     83.0577   7.0364364776e+01   5.1251197218e+01    0.4231837    0.2961191 -41.71 0.0007271289    1.446    0.308
       138  -9.7878     52.9383     90.6267   8.1896474276e+01   5.3325238701e+01     0.344762    0.2246775  80.64  0.001387694    2.119    0.528
       139  -8.2842    104.2954     90.2907   6.3516883965e+01   4.4294630971e+01    0.1513349    0.1219643  -2.71 0.0002626246    1.554    0.357
       140  -8.9491     98.2673     89.0631   6.5016357607e+01   4.5804425268e+01    0.2698021    0.2053248  64.61  0.001250669    1.556    0.357
       141  -9.2424     85.9141     88.9998   6.9068686912e+01   4.8253377182e+01    0.2388746    0.2314966 -31.25 0.0009833573    1.042    0.040
       142 -10.0602     56.9617     87.1072   7.9386726581e+01   5.3639854813e+01    0.4712855    0.2331956  49.02   0.00125175    2.362    0.577
       143  -8.5947      6.7060     88.5937   1.0135744260e+02   5.8344805064e+01    0.1675885    0.1212473  35.60  0.000923976    1.474    0.321
       144  -9.2883    117.4592     83.4505   5.7626669254e+01   4.2888752465e+01     0.273055    0.2262455  60.27 0.0007494302    1.296    0.229
       145 -10.5745    124.0061     85.7355   5.6579263074e+01   4.0972717521e+01    0.3332809    0.2729203  58.74 0.0009534816    1.304    0.233
       146 -10.1085    120.5052     85.5156   5.7439178806e+01   4.1796801944e+01    0.3758809    0.2437446 -47.76   0.00165548    1.563    0.360
       147  -9.7082    150.7172     79.8326   4.8535422710e+01   3.5964547735e+01    0.3523405    0.2878017  63.50 0.0009693981    1.335    0.251
       148 -10.5050    155.1421     84.8635   4.9105753363e+01   3.4088858854e+01     0.462265    0.3097627 -17.71 0.0002851263    1.755    0.430
       149  -9.8590    155.4800     79.0143   4.7322052895e+01   3.5007083104e+01    0.4218563    0.2878681  35.36  0.001365385    1.674    0.402
       150 -10.1425    143.2449     83.1567   5.1142606852e+01   3.7095848304e+01    0.4072296    0.2921303 -34.72  0.001006676    1.356    0.262
       151  -9.1494    138.8080     83.7241   5.2322349013e+01   3.8006616670e+01    0.3733375     0.219849  20.94  0.001314719    3.041    0.671
       152  -9.5413     42.1089     95.1644   8.7308274862e+01   5.3544329767e+01    0.2147451    0.1857132 -49.96 0.0005551482    1.152    0.132
       153 -10.6667     40.3888     81.0204   8.4911878115e+01   5.7417478911e+01    0.7052891    0.4207402 -12.52  0.002687268    2.643    0.622
       154  -9.1251     60.7817     82.6886   7.6641442787e+01   5.4158053431e+01    0.2277401    0.1890828   3.38 0.0008758547    1.416    0.294
       155 -10.0617     51.9019     82.2828   8.0215084664e+01   5.5587240544e+01    0.4625019    0.2885466 -37.45  0.002053358    1.804    0.446
       156 -10.4628     52.5662     76.2391   7.8252977098e+01   5.7003983747e+01    0.3940935    0.2606117 -48.60  0.001857544    1.444    0.307
       157  -9.0058     19.2881     80.9450   9.4577434569e+01   5.9529937969e+01    0.1990861    0.1670463 -68.90 0.0006750848    1.069    0.064
       158 -10.6384    166.9387     77.9719   4.4841695181e+01   3.2559601752e+01    0.3534683    0.2744862   9.29 0.0002855891    1.563    0.360
       159 -10.4601    169.2070     73.9501   4.3275074198e+01   3.2676851403e+01    0.4457004    0.2652716 -34.49 0.0005601565    1.554    0.357
       160 -10.6974    166.0000     72.0797   4.3289575936e+01   3.3704051385e+01    0.7077794    0.2596562 -27.98  0.002382612    2.981    0.664
       161  -8.8117    192.3073     78.9072   4.0941508108e+01   2.6844904983e+01    0.1909923    0.1567667 -29.49 0.0003018745    1.094    0.086
       162  -9.2048    120.5933     77.8767   5.5012103629e+01   4.3282839908e+01    0.3080625    0.2316938 -81.87 0.0009787197    1.846    0.458
       163  -8.6628     12.3407     78.3366   9.7431095049e+01   6.0713504812e+01      0.22075    0.1298021 -42.79   0.00106808    1.738    0.425
       164  -9.4762    135.9869     76.6469   5.0793803709e+01   3.9948294344e+01     0.202471    0.1956675  50.93  0.001099081    1.064    0.060
       165  -9.8236     29.0526     75.7674   8.8929193181e+01   6.0022503161e+01    0.4697876    0.1929831 -62.97  0.001878857    2.118    0.528
       166 -10.1976    109.3754     74.4265   5.6988225854e+01   4.6510990793e+01    0.5351338    0.3433159 -58.80  0.002235967    1.901    0.474
       167  -9.4259    144.9936     75.8013   4.8517129850e+01   3.7990142163e+01    0.2597634    0.2469645  11.62 0.0007179597    1.091    0.084
       168  -8.4673    141.5004     75.5628   4.9203814434e+01   3.8850419999e+01    0.1488351    0.1451714 -22.71 0.0001525597    1.015    0.014
       169  -9.4115     93.2859     66.6533   5.9264523512e+01   5.1657605273e+01    0.3764662    0.2448893 -42.10   0.00104483    1.515    0.340
       170 -10.9685     88.8595     73.7080   6.3230504060e+01   5.1107843668e+01    0.5966542    0.4541654 -26.65   0.00216929    1.477    0.323
       171 -10.5131     94.7226     71.9216   6.0651857340e+01   5.0253857632e+01    0.3215135     0.292854  75.54 0.0003261336    1.204    0.169
       172  -8.9624     59.2994     72.8939   7.4336535225e+01   5.6784049896e+01    0.2896322    0.2115645  40.01 0.0003432026    1.422    0.297
       173  -9.9820     64.5071     75.4424   7.2966828270e+01   5.5311248254e+01    0.3275498    0.3017094 -64.66 0.0009472859    1.087    0.080
       174  -9.7850     67.9726     74.5260   7.1273978841e+01   5.4931225125e+01    0.3105825    0.2469107  -9.77 0.0009974929    1.557    0.358
       175  -8.5432     21.5087     76.5168   9.2711150184e+01   6.0514915492e+01    0.1390269    0.1262089 -76.26 -6.491957e-05    1.033    0.032
       176  -9.3960     19.0149     72.5294   9.3153192142e+01   6.1761035793e+01    0.3420016     0.252755 -61.49   0.00181151    1.202    0.168
       177  -9.2550    180.0519     74.4533   4.1612056723e+01   3.0157688151e+01    0.2067529    0.1392935  54.27 0.0005199052    1.595    0.373
       178  -8.6085    152.0490     73.4426   4.6326594209e+01   3.6735500385e+01     0.210348    0.1467826  54.58 0.0003095314    1.491    0.329
       179  -9.0290      2.9922     73.0477   1.0123950519e+02   6.2620748603e+01    0.2201837    0.1311236 -45.82  0.000657149    1.638    0.389
       180 -10.6188    145.1012     70.3665   4.6791383032e+01   3.8892302716e+01    0.6048459    0.3716224  52.35  0.002695549    1.666    0.400
       181  -9.6031    140.9485     68.2335   4.6990746044e+01   4.0244270304e+01    0.2830029    0.1828592  34.17 0.0009345238    1.864    0.463
       182 -11.1587     52.0346     68.4600   7.6121431644e+01   5.8992384593e+01      0.58265    0.4647286 -80.98  0.002959192    1.450    0.310
       183  -8.8707     47.5929     63.6840   7.6632289314e+01   6.0806739977e+01    0.2311394    0.1723219 -79.16 0.0005836732    1.612    0.380
       184 -10.3498     54.5212     62.9805   7.3152441584e+01   5.9913719221e+01      0.33911    0.2722126 -74.67   0.00139638    1.427    0.299
       185 -11.8917     56.1204     56.7671   7.0140773600e+01   6.1083152146e+01    0.4136477    0.3416214  37.10 0.0003051535    1.260    0.206
       186  -8.6915    226.2197     70.1870   3.4393132274e+01   2.1190318745e+01    0.1692512     0.126256 -46.52 0.0002664874    1.281    0.219
       187  -9.8459    218.7373     69.9241   3.5164235800e+01   2.2666043234e+01    0.1940906    0.1815946 -63.70 0.0002870426    1.195    0.163
       188  -9.0369    102.7206     69.4785   5.7272011249e+01   4.8997851977e+01    0.3304843    0.1919276 -27.80  0.001290541    2.114    0.527
       189  -9.0954     45.1777     69.4899   7.9607206596e+01   5.9725363862e+01    0.2263912     0.193675 -89.49 0.0005779251    1.296    0.228
       190 -10.3974     14.4637     65.1992   9.4034033922e+01   6.4010217764e+01    0.6652068    0.2935923 -18.79  0.002423548    3.568    0.720
       191 -10.6590     21.7807     66.8222   9.0525535421e+01   6.3016632569e+01    0.6345428    0.3895704 -77.89  0.002727495    1.640    0.390
       192 -10.6264     29.4981     68.1227   8.6880180863e+01   6.1950708580e+01    0.3820809    0.3548298  29.13  0.001328179    1.168    0.144
       193  -9.5192    173.3771     68.7545   4.1061360636e+01   3.2513910361e+01    0.2403401    0.2008552 -54.96 0.0004298825    1.228    0.186
       194  -8.8623    157.3002     68.5401   4.3804345493e+01   3.6293899876e+01    0.2450835    0.1781723  -5.36 0.0009455821    1.711    0.415
       195  -8.8710     64.5043     69.0653   7.0887915903e+01   5.6817241749e+01    0.2312871    0.1437603 -51.84 0.0005914606    1.557    0.358
       196 -11.0044      2.3183     66.4407   1.0070298978e+02   6.4377833462e+01    0.4201203    0.2122473 -67.84  0.001440193    1.646    0.392
       197 -11.5138      5.6773     61.2378   9.8075062473e+01   6.5571230756e+01    0.6517878    0.5456762 -22.61  0.002373026    1.293    0.226
       198 -10.1722     11.3469     51.1768   9.2676975576e+01   6.7818776123e+01    0.5341881    0.2242024 -79.78  0.002072225    2.730    0.634
       199  -9.7009      5.6903     55.3030   9.6981341586e+01   6.7100983071e+01    0.2283755    0.1738194  60.70 0.0001896703    1.469    0.319
       200 -11.2718      5.9013     51.7013   9.6126837369e+01   6.8010732174e+01    0.4349504     0.286149 -36.33 0.0008991497    1.507    0.336
       201  -8.7596    119.7783     67.5549   5.1785683111e+01   4.5424534592e+01    0.2162481    0.1506718  66.13 0.0009537843    1.659    0.397
       202 -10.4835     75.9363     65.6622   6.5103896359e+01   5.5468423383e+01      0.53606    0.3689282  39.24  0.002104837    1.496    0.332
       203  -9.5324     77.5026     61.5498   6.2979753298e+01   5.6044723664e+01    0.2744193    0.2168519  40.71 0.0006789456    1.293    0.227
       204  -9.2291    147.6730     65.9644   4.4860391283e+01   3.9004245714e+01    0.2601385    0.1765579 -28.72 0.0008142595    1.473    0.321
       205  -8.2655    125.5295     66.4788   4.9959911261e+01   4.4250074582e+01    0.1510872    0.1482518 -21.78 0.0002109676    1.018    0.017
       206  -8.6646    106.2955     65.9874   5.4965957271e+01   4.8871704287e+01    0.2104598    0.2053968 -48.27 0.0006997408    1.024    0.024
       207 -11.1204    134.7158     63.5016   4.6793449636e+01   4.2548029515e+01    0.6082476    0.3821639 -60.03  0.001600953    2.035    0.509
       208 -10.0332     97.7756     63.8555   5.6790703595e+01   5.1227152927e+01    0.3991646    0.2707207 -62.36 0.0003680066    1.867    0.465
       209  -9.3794     94.3134     59.3372   5.6204876276e+01   5.2891757960e+01    0.3330549    0.2299086  -9.91  0.001386959    2.087    0.521
       210  -9.6377    165.8156     64.0038   4.0905336723e+01   3.4981244823e+01    0.2205448    0.2067196  58.28 0.0002986917    1.130    0.115
       211  -9.3219    193.3969     61.9296   3.6185930074e+01   2.8979924017e+01    0.3593941    0.1945539 -23.51  0.001547409    1.831    0.454
       212 -10.0340     65.5497     61.8556   6.7893375938e+01   5.8279289488e+01    0.4656627    0.2543302  31.74  0.001628028    2.073    0.518
       213  -9.3892     70.9119     60.2881   6.5087526768e+01   5.7618297978e+01    0.2848799    0.2729046 -66.75  0.001011949    1.095    0.087
       214  -9.6168     26.9974     62.9617   8.6823635084e+01   6.3520880532e+01    0.3155495    0.3119431  52.78  0.001939846    1.105    0.095
       215  -9.4628     29.7992     52.3726   8.2104201111e+01   6.5860817576e+01    0.4362272     0.194361  30.44  0.001825696    2.331    0.571
       216 -10.7179     24.7137     54.7426   8.5749977746e+01   6.5815568332e+01     0.401898    0.2773752 -69.49 0.0009220123    1.420    0.296
       217 -10.8663     19.4864     53.9304   8.8533141692e+01   6.6502185102e+01    0.4433759    0.3319278  53.83   0.00193052    1.554    0.357
       218 -10.1775     35.1310     54.9769   8.0031983719e+01   6.4595953896e+01    0.6839287    0.2995522 -51.32  0.002802788    2.030    0.507
       219  -9.3196     30.7580     58.1819   8.3436621179e+01   6.4324832019e+01     0.277691    0.2542382 -85.40  0.001620148    1.163    0.140
       220  -9.8116    155.1411     61.4204   4.1979581085e+01   3.7920100606e+01    0.2664003    0.2341712 -28.23 0.0004295662    1.110    0.099
       221  -9.7100     82.5167     61.4731   6.1083029381e+01   5.5029111149e+01     0.308112    0.2558824  -6.79 0.0007157557    1.410    0.291
       222  -8.6093     43.6746     61.5298   7.7820578366e+01   6.1884736466e+01    0.2416408    0.1261885 -56.03 0.0007736185    1.787    0.440
       223  -8.7882    175.9966     60.9619   3.8367718445e+01   3.3043111497e+01    0.2374753     0.155261 -56.06  0.001119703    1.689    0.408
       224  -8.8504    213.1157     60.0550   3.3303933872e+01   2.5037174891e+01    0.1824965    0.1550922 -17.18            0    1.158    0.137
       225  -9.3918    164.9883     59.7655   3.9749748293e+01   3.5804188492e+01     0.427514    0.1861044  67.84  0.001496051    2.853    0.650
       226  -8.0594    114.3232     60.3220   5.0664838592e+01   4.8038761225e+01     0.158046    0.1204843  14.52 0.0007046437    1.679    0.404
       227  -8.3556     99.3078     59.6630   5.4745254681e+01   5.1692603198e+01    0.1570542     0.121364 -75.33  0.000521776    1.678    0.404
       228  -9.0201    142.9267     58.5503   4.3385604270e+01   4.1345035582e+01    0.2212124    0.1455598  55.88 0.0006066156    1.547    0.353
       229  -8.3987     85.5065     57.5368   5.8489160732e+01   5.5194142768e+01    0.2177229    0.1980973  37.53 0.0008704879    1.114    0.102
       230 -10.0444     82.9397     55.0425   5.8413314241e+01   5.6245267052e+01    0.4145645    0.3541382 -14.72  0.001223443    1.274    0.215
       231  -9.1971    136.3240     56.9555   4.4207820954e+01   4.3227153346e+01    0.2204775     0.189887 -33.45  0.000599649    1.138    0.121
       232  -9.0522    125.4864     56.9809   4.6645084072e+01   4.5900557568e+01    0.2310664    0.1155721 -53.70 0.0008105107    2.607    0.616
       233  -9.5218    225.9107     55.5262   3.0840659263e+01   2.3026038713e+01    0.2382901    0.1490565 -35.37  0.000314937    1.308    0.235
       234  -8.9319    116.2688     55.8287   4.8499344493e+01   4.8356685632e+01    0.2671425    0.2143149  75.89  0.001297281    1.412    0.292
       235  -9.0047    105.6122     55.6355   5.1326557380e+01   5.0962231538e+01    0.3345738    0.2173137   0.66  0.001093767    2.639    0.621
       236 -10.1577     63.5710     53.6324   6.5550328804e+01   6.0447856063e+01    0.7731619    0.4150942  61.42  0.002677202    3.340    0.701
       237 -10.3613    115.6302    248.1820   8.7817849445e+01   1.1970591062e+01    0.2069598    0.1696063   4.36  0.001120831    1.291    0.225
       238  -9.5209     50.9957     32.7113   6.1856163125e+01   6.7028697485e+01    0.7661512    0.2910674  35.07  0.002335497    3.167    0.684
       239 -10.5456     71.3051     50.9398   6.1174940700e+01   5.9503733640e+01    0.4875326     0.424422 -44.83  0.001790096    1.140    0.123
       240 -12.9360     61.4592     44.4950   6.2565827334e+01   6.2749502987e+01    0.6132723    0.3785668  44.49  0.002808336    1.674    0.403
       241  -9.9584    146.4650     52.9795   4.0825303643e+01   4.1323098770e+01    0.4708284    0.2384979 -56.22  0.001728746    2.637    0.621
       242  -8.9236     92.3264     54.3331   5.4894793395e+01   5.4300041019e+01    0.2713821     0.218702  23.39 0.0008238108    1.404    0.288
       243  -9.4860     95.4992     52.4552   5.3119784683e+01   5.3919249159e+01    0.2890912    0.2381577  62.18 0.0006467685    1.292    0.226
       244  -9.8248     96.9204     48.5959   5.1103630118e+01   5.4277265382e+01    0.2600577    0.2112971 -22.79 0.0004419024    1.295    0.228
       245  -8.5815    129.8201     53.8555   4.4530831765e+01   4.5337128568e+01    0.1999711     0.170557 -61.86 0.0003957468    1.242    0.195
       246  -9.6849     43.2469     52.8374   7.4954427424e+01   6.4011446938e+01    0.4978576    0.2645973 -63.38  0.001832536    2.159    0.537
       247  -8.7629     52.1628     46.4953   6.7845336629e+01   6.4022538769e+01    0.2573655     0.171855 -58.58 0.0006084718    1.667    0.400
       248  -9.8356     47.0845     46.9543   7.0607950498e+01   6.4762455602e+01    0.4500845    0.2742284  22.30   0.00137723    1.970    0.492
       249  -9.0957    192.1699     52.8513   3.3817341337e+01   3.0443717264e+01     0.206018    0.1675907 -50.01 0.0005972613    1.165    0.142
       250  -9.5728    123.0291     52.0831   4.5440578548e+01   4.7313548882e+01    0.3664932    0.2668274 -25.13  0.001122362    1.440    0.306
       251 -10.5517    128.1643     48.4282   4.2922949834e+01   4.6601767870e+01    0.3823186    0.3412731  89.80 0.0007109006    1.188    0.158
       252  -9.9966    123.3902     44.9361   4.2669855683e+01   4.8340186731e+01    0.5562173    0.2539896  50.00  0.001897558    2.183    0.542
       253  -9.1814    133.4788     48.5489   4.1837059764e+01   4.5242267426e+01    0.2586539    0.2206379  76.83 0.0005596587    1.232    0.188
       254  -9.7408    136.9581     49.3231   4.1404985728e+01   4.4248791716e+01    0.2676763     0.258483 -45.02 0.0004080904    1.013    0.013
       255  -9.9537    140.7008     47.4197   4.0001174182e+01   4.3584914818e+01    0.3920802    0.2998801 -32.48  0.001734346    1.277    0.217
       256  -8.9364    183.7755     52.3248   3.4738465332e+01   3.2421058867e+01    0.1934129     0.157072 -44.39 0.0005928588    1.135    0.119
       257 -11.1241    110.9157     51.7766   4.8367567795e+01   5.0355969647e+01    0.2979565    0.2554343  54.21  0.001528531    1.172    0.146
       258  -8.8744    199.1187     50.1406   3.2242580673e+01   2.9242258763e+01    0.1841554    0.1428538 -58.69 0.0003773852    1.302    0.232
       259  -8.7692    227.9780     48.7957   2.8993178206e+01   2.3401187277e+01    0.2914968   0.09610178 -44.21  0.001195477    2.658    0.624
       260  -8.4192    174.9692     41.9508   3.2796411378e+01   3.5823747796e+01    0.1927736    0.1485154 -57.35            0    1.290    0.225
       261  -9.3227    176.0482     48.1987   3.4553036172e+01   3.4768753931e+01    0.2962759    0.2038862   0.49  0.001403417    1.891    0.471
       262  -8.9668    177.8574     44.1350   3.3086911860e+01   3.4859897470e+01    0.2589022    0.1896784 -77.25  0.001159053    1.539    0.350
       263  -9.8664    154.3613     48.5462   3.7943651336e+01   3.9999699499e+01     0.379444    0.2674668  77.55  0.001828565    1.583    0.368
       264  -9.4985    150.5426     44.7127   3.7301942622e+01   4.1484669909e+01    0.3845424    0.2003015 -42.90  0.001614166    1.859    0.462
       265  -9.9052     87.2800     48.8396   5.4325683995e+01   5.6470207992e+01    0.4260333    0.2637907  55.48  0.001472911    1.712    0.416
       266 -10.6006     80.3625     44.5403   5.4902858945e+01   5.8811405458e+01    0.8589997    0.5917733  16.52  0.003744678    1.999    0.500
       267  -9.6108     74.4446     41.3216   5.5666368997e+01   6.0697791215e+01    0.5857329    0.3243335  40.50  0.002477221    1.881    0.468
       268  -8.6234     57.0300    249.0075   9.9466242974e+01   1.8280224046e+01    0.1218191   0.09249132  42.07 0.0009278455    1.039    0.038
       269 -10.3420     35.6467    115.3107   9.3259626399e+01   4.8999699553e+01    0.4397676    0.1735802  41.06  0.001186329    2.431    0.589
       270  -9.5454     65.6030     28.1513   5.2647377114e+01   6.4892878510e+01    0.4225198    0.2290552  46.96  0.001167722    1.819    0.450
       271  -9.2599    158.4667    244.4527   7.9302160078e+01   7.4370493420e+00    0.1106414   0.08098564  18.46 0.0001779165    1.016    0.016
       272  -9.0854      1.4814    244.0620   1.1017205350e+02   2.4107654772e+01    0.1329834   0.08575384  78.16 0.0004127688    1.518    0.341
       273  -8.5784     43.9984    244.0000   1.0180109773e+02   2.0374711362e+01    0.1785448   0.04764555  28.27 0.0007981167    2.913    0.657
       274  -9.3632     32.0407     47.4455   7.9067999182e+01   6.6778494267e+01    0.2336648    0.1755674 -50.81  0.000788141    1.216    0.178
       275  -9.4552     23.1516     47.6029   8.4411075630e+01   6.7728809276e+01    0.3036859    0.2009692 -21.92  0.001014518    1.734    0.423
       276 -10.7280      2.9889     43.1996   9.6116758360e+01   7.0303718923e+01    0.7614966     0.644493 -40.82  0.003084589    1.121    0.108
       277  -9.8811    244.9029    242.2764   6.4736072783e+01  -1.7474621936e+00    0.1425412   0.08923285  11.56 0.0009339579    1.136    0.120
       278 -10.3402     17.1587     46.7529   8.7847358378e+01   6.8487205544e+01    0.5142946     0.265326 -62.72  0.000759047    1.716    0.417
       279  -9.2516    189.2630    240.4202   7.3320777690e+01   4.3391965643e+00    0.1469188   0.08025961  33.95 0.0009494821    1.645    0.392
       280 -10.8967     37.0530     26.5153   6.6312780568e+01   7.0626147320e+01    0.3914923    0.3417841  43.40 0.0004730877    1.288    0.223
       281 -11.9302     13.6819     36.4434   8.6746830456e+01   7.1277423302e+01     0.560387     0.313706 -59.38 0.0002552361    1.564    0.361
       282 -10.0698     23.7278     31.4246   7.7622083418e+01   7.1444247401e+01    0.3343427    0.2059932  31.30  0.001695377    1.723    0.420
       283  -9.2563    145.9970    241.9837   8.1336399561e+01   9.2273276649e+00    0.1369488    0.1028551  21.32 0.0006047982    1.004    0.004
       284 -10.1048      4.4805     32.3788   9.2124581737e+01   7.2888813467e+01    0.5568179    0.2333264 -61.16  0.001799014    1.932    0.482
       285 -11.2159      7.5026     35.9680   9.1007904389e+01   7.1839497016e+01    0.5564349    0.2366208 -70.13  0.002392792    2.231    0.552
       286 -10.8734      9.6973     31.7367   8.7946749243e+01   7.2704281279e+01    0.3064047    0.2806583  23.63 0.0002789787    1.233    0.189
       287  -9.2162    234.9918     47.0897   2.7977871896e+01   2.2239661057e+01    0.1860863    0.1474146 -40.45  0.000457521    1.060    0.056
       288  -8.8961     38.7073     46.9464   7.5092235543e+01   6.6019153227e+01     0.227323    0.1914574   6.58 0.0007401608    1.272    0.214
       289  -9.7739    184.5890     44.9790   3.2492252483e+01   3.3171281152e+01    0.3520045    0.2219079  14.74  0.001553072    2.415    0.586
       290 -10.6519    115.1970     44.9428   4.4595768513e+01   5.0407437922e+01    0.3355045    0.2804911  59.33 0.0005872385    1.199    0.166
       291  -9.5406    245.0773     44.4798   2.6571148633e+01   2.0647426200e+01    0.1990699    0.1900441  14.47  0.000706058    1.284    0.221
       292  -9.4993    249.1156     43.1012   2.5960326045e+01   2.0065166475e+01    0.1817057    0.1439385 -34.44 0.0003090645    1.022    0.021
       293  -9.4796    108.2482     40.4009   4.4504221737e+01   5.2853331267e+01    0.2434707    0.2031281 -56.82 0.0003478357    1.282    0.220
       294  -9.4887    107.2439     43.6229   4.6098135014e+01   5.2601550884e+01    0.3343045    0.2448917  51.80  0.001198129    1.352    0.260
       295  -9.5418    103.9228     41.6577   4.6178038414e+01   5.3736183025e+01    0.3162841    0.2884583 -66.63 0.0009239838    1.169    0.145
       296  -9.1743    200.9740     43.0023   3.0084028579e+01   2.9696071098e+01    0.1974981     0.190239  -1.02  0.001267436    1.162    0.139
       297  -9.1213     45.9092     42.6543   6.9350712335e+01   6.5888485520e+01    0.2601633    0.1856348 -25.11  0.001276663    1.552    0.356
       298 -10.2800     28.5673     42.3709   7.9180970190e+01   6.8386755446e+01    0.4445752    0.2690863 -17.85  0.001898957    2.208    0.547
       299  -8.9994     34.6078     41.4539   7.5159613698e+01   6.7831415394e+01    0.2616352    0.1903849  13.44  0.001240048    1.539    0.350
       300  -9.9252    143.9458     41.0198   3.7155104948e+01   4.3657185749e+01    0.3244462    0.2326629  69.14 0.0007521798    1.435    0.303
       301 -10.1700    228.8738     39.2188   2.6565055665e+01   2.4289152371e+01    0.3965523    0.2960406  20.80  0.002376436    1.768    0.434
       302  -9.2205    223.0725     39.7839   2.7177853718e+01   2.5387268426e+01    0.2103674    0.1524418 -34.18  0.001270458    1.147    0.128
       303  -8.6736    138.2235     41.3135   3.8289735217e+01   4.5078536717e+01    0.2036839    0.1868265 -18.85 0.0007579538    1.127    0.113
       304  -9.0131    159.0182     39.4527   3.4203930893e+01   4.0052503367e+01    0.3669597    0.2171989 -70.25  0.000717033    2.190    0.543
       305  -9.1745    129.2325     39.5990   3.9394278778e+01   4.7622869717e+01    0.2950203    0.2651948  58.74  0.001592405    1.114    0.103
       306  -9.2923    131.1151     36.4960   3.7846645381e+01   4.7561803782e+01    0.3271243    0.2430267 -87.92  0.001290899    1.540    0.351
       307  -9.1240     24.2030     39.2352   8.0684932281e+01   6.9613547166e+01    0.4322678    0.2113244 -29.34   0.00157517    2.731    0.634
       308 -10.8987    238.5066     37.5463   2.5432421571e+01   2.2604852608e+01    0.2810206    0.1823883 -43.27  0.001114804    1.267    0.211
       309 -10.3177    203.2829     38.8860   2.8727748479e+01   2.9665487178e+01    0.2314017    0.1936753 -58.32 0.0002067434    1.146    0.128
       310  -9.4834    177.7062     37.2684   3.1025538518e+01   3.5737942441e+01    0.3075894    0.1945888 -60.10  0.001138372    1.690    0.408
       311  -9.9944    165.9125     36.8288   3.2381756831e+01   3.8664562066e+01    0.4155699    0.2140739  57.33  0.001194319    1.969    0.492
       312  -9.2239    148.7787     38.2051   3.5359178566e+01   4.2797605949e+01    0.2213094     0.185374 -56.90 0.0007943779    1.188    0.158
       313  -8.9230     93.9617     38.0343   4.7465907027e+01   5.6752340185e+01    0.2241109    0.1746923  16.13   0.00031944    1.517    0.341
       314  -9.9908     98.0290     35.1038   4.4971124618e+01   5.6206029321e+01     0.305096    0.2295457  52.41 0.0004790215    1.303    0.232
       315  -8.7310    207.5111     37.5043   2.7954042566e+01   2.8899879669e+01    0.1299201    0.1149418 -37.04 -2.759318e-05    1.047    0.045
       316  -8.8187    198.8939     36.8398   2.8595406079e+01   3.0871763592e+01     0.192413    0.1753531  10.29 0.0008150761    1.265    0.210
       317  -9.0458    187.2068     37.1193   2.9890891374e+01   3.3509336733e+01    0.2794414    0.1553238 -66.67   0.00123839    2.197    0.545
       318  -9.5277    153.7889     37.0207   3.4169546692e+01   4.1676517046e+01    0.2329471    0.2021107  89.39 0.0004196528    1.179    0.152
       319  -9.1294    140.0711     36.5365   3.6225101701e+01   4.5244703878e+01    0.2189688    0.1944749 -33.96 0.0004596066    1.112    0.101
       320 -10.5002    142.0150     30.9747   3.3876837674e+01   4.5442916179e+01     0.472715    0.2563052  35.25  0.001561846    2.453    0.592
       321 -10.2876    146.4308     28.9774   3.2473347797e+01   4.4539278474e+01    0.3004834    0.2602232  82.07 0.0003540164    1.155    0.134
       322  -9.7517    119.2823     31.3271   3.8180698917e+01   5.1314638046e+01    0.2856263    0.2327728  23.33 0.0008143894    1.386    0.278
       323 -10.4002    188.0328    235.6952   7.2908209080e+01   5.0182053178e+00    0.1590267    0.1077713  18.38 0.0005578853    1.109    0.098
       324 -11.8021    107.4458     29.9083   4.0225951966e+01   5.4562567844e+01    0.5398775    0.3849803   2.35  0.002505356    1.755    0.430
       325  -9.6517    224.7544     34.3200   2.5674235814e+01   2.5638322073e+01    0.2971278    0.2651064  40.07     0.002005    1.372    0.271
       326 -10.7756     87.5620     38.2895   4.9589461578e+01   5.8244060473e+01    0.8007779    0.4548961 -58.63   0.00283508    2.615    0.618
       327  -9.2859     60.9605     34.7903   5.8137860652e+01   6.4715680766e+01    0.2251103    0.1931765 -34.55 0.0002558769    1.142    0.124
       328  -8.5601    242.4320     34.4877   2.4439590639e+01   2.2185667541e+01    0.1207564   0.09573238 -36.55 8.657369e-05    1.019    0.019
       329  -8.7468    190.2115     32.7760   2.8313134214e+01   3.3307949317e+01    0.1721911    0.1553305  27.35 0.0006922488    1.293    0.227
       330  -9.9413    157.4480     32.4498   3.2093893009e+01   4.1310737490e+01    0.4681774    0.2441953  65.15  0.001776179    1.913    0.477
       331  -9.5956    221.9906    233.9610   6.7042616267e+01   1.3931262852e+00    0.1358879    0.1172474  18.00 0.0007561877    1.660    0.398
       332  -9.9828    133.3734     31.5106   3.5535280523e+01   4.7621745867e+01    0.2776183    0.2361272 -50.76 0.0003807153    1.169    0.144
       333  -8.4784    134.3315     27.7312   3.3930386867e+01   4.7833309489e+01    0.1980018    0.1733685  47.20  0.001070593    1.183    0.154
       334  -8.8026    203.4336     31.5224   2.6707436334e+01   3.0452142523e+01    0.1331103    0.1116255 -45.37 0.0002361028    1.036    0.035
       335  -9.4782    178.4979     30.0848   2.8746106757e+01   3.6377591020e+01    0.2037309    0.1684434 -33.09  0.001160332    1.137    0.121
       336  -8.6991    126.8452     29.9575   3.6128144691e+01   4.9518820412e+01    0.4385547    0.1537088  54.89  0.001543772    2.632    0.620
       337 -10.4937     62.5214     22.6538   5.0889030057e+01   6.6431336840e+01    0.3818093     0.280571 -12.54  0.001931001    1.494    0.331
       338 -10.2921    221.6678     26.4154   2.3917319207e+01   2.7091942158e+01     0.359064    0.2349575 -49.69  0.001669112    1.333    0.250
       339  -8.9714    189.4695     28.5143   2.7152879129e+01   3.3950002628e+01    0.2617331    0.1313696  73.14  0.001199707    2.127    0.530
       340  -8.9114    211.5429     26.8321   2.4776307147e+01   2.9181002024e+01    0.1903078    0.1127845 -25.59  0.001004427    1.527    0.345
       341  -9.7567     47.0954     26.1825   6.0332007487e+01   6.8958109453e+01    0.5020768    0.3054871  54.80  0.002296995    2.062    0.515
       342  -9.1254    101.2713     26.3340   4.0132315285e+01   5.6617166501e+01    0.2472367    0.1724074  57.95 0.0005821345    1.386    0.278
       343  -9.3003     31.8943    232.0749   1.0371467273e+02   2.3535491758e+01    0.1722836    0.1067348  50.18 0.0003688228    1.254    0.203
       344  -9.1632    109.4765     23.4728   3.6929216919e+01   5.4855336405e+01     0.201392    0.1841381  71.54  0.000121288    1.079    0.073
       345  -9.8349     80.0388     19.4940   4.2694420772e+01   6.2816727450e+01     0.349888    0.3234416  65.17  0.001855986    1.118    0.106
       346  -9.0774    228.6437    233.9412   6.6003095862e+01   6.8602659697e-01    0.1789826    0.1032738  13.12 0.0008422218    1.344    0.256
       347  -8.6515    178.4953    231.4576   7.4024475809e+01   6.6492723499e+00    0.1130604   0.08284125  12.99 8.830841e-05    1.033    0.032
       348  -8.6622    163.4789    226.9105   7.6176584937e+01   9.0682730303e+00    0.1428757    0.1076565 -31.51 0.0007731071    1.518    0.341
       349  -8.5472    207.4829    226.5217   6.8326313603e+01   3.8008704121e+00    0.1113418   0.07806584   6.99  0.000144936    1.061    0.057
       350 -10.3657    172.5128     22.9974   2.7190563442e+01   3.8604399155e+01    0.4811209     0.295641  56.85  0.002319847    1.709    0.415
       351 -10.2234    233.9915     30.7496   2.4127330358e+01   2.4178837800e+01    0.3192761    0.2210555  56.21  0.001230026    1.753    0.430
       352  -9.3518    229.9746     23.3976   2.2610259027e+01   2.5710895542e+01    0.2192747     0.156105 -12.07 0.0008083194    1.519    0.342
       353  -8.9359    223.9223    225.1164   6.5463463138e+01   2.0946603862e+00    0.1495382    0.1172898   8.13 0.0006167088    1.259    0.206
       354  -9.4526    189.5073     22.9401   2.5531041241e+01   3.4530504215e+01    0.3641337    0.2220925 -74.76  0.001822091    1.798    0.444
       355  -8.6910    132.3596    225.2015   8.2035871502e+01   1.3243756327e+01    0.1285981     0.113441 -66.90 0.0004034762    1.591    0.371
       356  -8.0923    125.3173    225.6397   8.3518770212e+01   1.4070708280e+01    0.1155482   0.07982671  53.44 0.0007043057    1.761    0.432
       357  -9.7388    153.8095     22.6286   2.9223495803e+01   4.3350955481e+01    0.2577484    0.2391204 -27.72  0.001020786    1.107    0.097
       358  -8.5716    109.8258    221.8400   8.6314910479e+01   1.6618655684e+01    0.1556318     0.116558  45.59 0.0003583028    1.291    0.225
       359  -8.8147    122.5171     22.7221   3.4014429010e+01   5.1521159756e+01    0.3643967      0.19053 -52.62  0.001468057    2.208    0.547
       360  -9.1576    116.9854     22.4542   3.4943543656e+01   5.3008356671e+01    0.1962639    0.1935555 -21.51 6.462559e-05    1.047    0.045
       361 -10.7226     50.5717     22.0030   5.6057519062e+01   6.9018802381e+01    0.2962297    0.2337745 -16.47 0.0006381207    1.287    0.223
       362  -8.9742     12.9079     22.9533   8.1688212173e+01   7.4455628581e+01     0.280637    0.1417411  37.65  0.001316419    2.278    0.561
       363  -9.3198    205.3283     18.3364   2.2974342769e+01   3.1392204413e+01    0.2143726    0.1615876 -48.96 0.0002290527    1.146    0.127
       364  -9.0622     26.2754     22.1369   7.0966655811e+01   7.3092146168e+01    0.2137863    0.1612767 -28.83  0.001193946    1.254    0.202
       365  -9.7821    221.7114     21.0242   2.2553691799e+01   2.7622428680e+01     0.223723    0.1702604 -71.39 0.0005058934    1.319    0.242
       366  -9.9658    217.1697     17.5035   2.1952177474e+01   2.8913661644e+01    0.2638918    0.2054672 -41.75 0.0005610595    1.065    0.061
       367  -9.4343     89.1603    220.8678   9.0651560203e+01   1.9329382172e+01    0.2077807    0.1679863   3.04 0.0009053206    1.420    0.296
       368  -8.9345    174.9380    217.7017   7.2767487888e+01   8.8305513458e+00    0.1597154    0.1210541  15.66 0.0004006777    1.030    0.029
       369  -8.6501    144.4233     20.7395   2.9785975987e+01   4.5981399663e+01    0.2266676    0.1436408 -58.04  0.000418541    1.668    0.401
       370  -9.6552    139.9848     20.3685   3.0269096214e+01   4.7181062718e+01     0.273971    0.2130299 -22.33 0.0005904706    1.327    0.246
       371  -8.1286     56.0548    216.7471   9.7618316210e+01   2.3853274026e+01    0.1332194   0.08124322  35.31            0    1.312    0.238
       372  -9.3142    193.2404     20.0828   2.4388820967e+01   3.3953225345e+01    0.1812462    0.1687108 -15.41 0.0003602127    1.180    0.152
       373  -8.6028    117.8055    212.1666   8.3495453214e+01   1.7166985900e+01    0.1614618    0.1258977   9.07 0.0004415825    1.301    0.231
       374  -8.3958    242.5072    209.5482   6.0251409419e+01   1.6601893809e+00    0.1062967   0.07589307   0.27 0.0001025691    1.042    0.040
       375  -8.4174    123.8712    206.0989   8.1421132270e+01   1.7359023540e+01    0.1556445    0.1239135   8.75 0.0009948383    1.247    0.198
       376  -9.5759    178.8914     13.1517   2.3536632820e+01   3.8025009965e+01    0.2645848    0.1864565  85.40  0.000556228    1.434    0.303
       377  -8.4000    132.9727    199.0184   7.8488143503e+01   1.7276426519e+01    0.1497894    0.1197189  25.73 0.0009483646    1.057    0.054
       378  -8.1243    221.6298    198.7311   6.1723140493e+01   5.2825562367e+00    0.1176958   0.06830526   6.19 0.0006994781    1.668    0.400
       379  -8.0379     81.3025    198.7065   9.0208317407e+01   2.4304794058e+01    0.1274638   0.08182396  54.68 0.0003535065    1.573    0.364
       380  -8.9975    144.2048     16.4200   2.8235584675e+01   4.6482847840e+01    0.2039829    0.1732117 -85.71 0.0003911308    1.154    0.133
       381  -8.2536    109.3469    196.3359   8.3380483793e+01   2.1043669556e+01    0.1291942   0.09282671  -5.41 0.0007048361    1.776    0.437
       382  -8.6426    218.4786    195.4668   6.1690882220e+01   6.0611067992e+00    0.1149339   0.08683807   1.48 5.901127e-05    1.011    0.011
       383  -9.9189     44.6176     15.2094   5.4894719918e+01   7.1274883752e+01    0.4160658    0.1780696  43.19  0.001720195    2.314    0.568
       384  -9.6388    243.4975     14.0158   1.9630652149e+01   2.3984477552e+01    0.2262001    0.1211052  52.50  0.001257971    2.457    0.593
       385  -8.2262     95.7157    195.6905   8.6464286747e+01   2.3011893634e+01    0.1197878   0.09394657  -8.83 0.0003444809    1.569    0.363
       386  -9.1625      6.3943    194.8078   1.0789409585e+02   3.2803723173e+01    0.1489693   0.09587701 -72.39 0.0006593265    1.695    0.410
       387  -9.4953    248.5241    191.7784   5.6488050712e+01   2.8503164796e+00    0.2298804    0.0810549 -37.28  0.001134754    3.147    0.682
       388  -8.9769     28.4929    178.6530   1.0164462382e+02   3.4348901280e+01    0.1543478    0.1106524 -68.34 0.0009320238    1.498    0.333
       389  -9.6596     17.9702    174.0397   1.0412279938e+02   3.6303211573e+01    0.2269591    0.1704001   6.00  0.001390923    1.653    0.395
       390  -9.3575    195.0343     15.0486   2.2818655942e+01   3.4031865843e+01    0.1922476    0.1657831 -54.64 0.0003818716    1.027    0.027
       391  -8.9113      5.2875    174.6819   1.0745638762e+02   3.7161632271e+01    0.1295977    0.0677114  56.62 0.0004847303    1.593    0.372
       392 -10.5126     13.0374    166.1332   1.0502289782e+02   3.8488066121e+01    0.2983416    0.1944198  -7.06  0.001623094    2.196    0.545
       393 -12.1228     19.6777    151.6520   1.0226156991e+02   4.1339240900e+01    0.9431932    0.5563902  -3.70  0.004572046    2.491    0.599
       394 -12.4433     34.0379    157.9988   9.8569091552e+01   3.8519736702e+01     1.211556    0.3931953  55.55  0.004283304    3.566    0.720
       395  -9.9152     24.0554    163.4442   1.0182527039e+02   3.8182281072e+01    0.2072886    0.1644724 -62.93 0.0005143775    1.381    0.276
       396 -10.1957     20.5908    158.3375   1.0245615891e+02   3.9674929929e+01    0.3293855    0.1980861 -85.74  0.001059635    1.588    0.370
       397 -10.1353     10.0971    157.9909   1.0541591228e+02   4.0595246716e+01    0.2902872    0.1336727  74.61  0.001264535    2.100    0.524
       398 -10.1027      2.1157    155.6519   1.0756023600e+02   4.1706641685e+01    0.4315259    0.1525431 -81.62  0.001891917    2.586    0.613
       399  -9.5891    248.8551    154.0939   4.9712080472e+01   7.0476365675e+00    0.1704137    0.1295688 -22.93 0.0007388071    1.220    0.180
       400  -9.2588     58.3204    150.9232   9.0691835196e+01   3.7493998348e+01    0.2152142    0.1654135  46.97 0.0003110644    1.209    0.173
       401 -11.6158     39.2990    160.1686   9.7254678316e+01   3.7478079185e+01    0.6704477     0.321495  59.41  0.002586037    2.194    0.544
       402 -10.3980     11.1849    146.9819   1.0448575390e+02   4.3132163142e+01    0.2859124    0.1816939 -29.43  0.001420077    2.183    0.542
       403  -9.7886      3.9156    145.2019   1.0656868999e+02   4.4069035508e+01    0.3844663    0.1928812 -46.52   0.00183383    2.498    0.600
       404  -8.6214    236.4761    145.5681   4.9779763437e+01   9.7881404698e+00    0.1202258   0.09351938  -9.79 9.862603e-05    1.016    0.016
       405  -9.7288    241.2105    144.0449   4.8814823400e+01   9.3019075549e+00    0.1562015    0.1200161 -27.71 0.0005347778    1.256    0.204
       406 -10.1060     28.9607    144.0740   9.8837891842e+01   4.2360172437e+01    0.2341676    0.1923721  13.85  0.001385103    1.396    0.284
       407  -9.6312      2.1938    140.0881   1.0684182939e+02   4.5419685144e+01    0.3388342    0.1943129  60.43  0.001824234    1.549    0.355
       408 -10.1995     41.0780    137.5866   9.4328879225e+01   4.2750069731e+01    0.3173719    0.2332007  41.73  0.001124893    1.296    0.229
       409  -9.3764     34.3153    136.8708   9.6420856983e+01   4.3629885555e+01    0.2937313    0.1591237  61.24  0.001342438    1.944    0.486
       410  -8.2885     83.2562    135.3568   8.0783449286e+01   3.7702192473e+01    0.1443641     0.108852 -29.13 0.0002842863    1.614    0.380
       411 -10.2048     60.7450    133.1617   8.7395588349e+01   4.1486414630e+01    0.4779911    0.2891277 -49.82  0.001339523    1.744    0.427
       412 -10.5737     16.0042    132.8318   1.0199488695e+02   4.6259103426e+01     0.535122    0.1613848 -70.52  0.001394522    2.838    0.648
       413  -9.9571     18.9653    126.4093   1.0045561322e+02   4.7653572706e+01    0.2427355    0.1760526 -80.92   9.7351e-05    1.262    0.208
       414 -11.0783      7.0475    132.5854   1.0489492097e+02   4.6959562870e+01     0.603116    0.2884315  32.91  0.002877706    1.963    0.491
       415  -9.1909     22.9983    131.6973   9.9592942272e+01   4.5978264725e+01    0.2938797    0.1296269  70.38 0.0007704294    2.666    0.625
       416  -8.4564     19.6194    132.6931   1.0079781388e+02   4.6008435868e+01    0.1366437   0.09275723 -39.23 0.0007024747    1.788    0.441
       417 -10.3336     41.5903    129.4218   9.3129894967e+01   4.4745632295e+01    0.2938646    0.2451043  29.62  0.001671445    1.250    0.200
       418  -9.7811     33.5416    126.7960   9.5518107247e+01   4.6253107737e+01    0.2711737    0.2286384 -86.28  0.001574394    1.105    0.095
       419  -9.2904     12.6349    126.2050   1.0259215414e+02   4.8183417514e+01     0.223996    0.1683972  68.70 0.0003056125    1.212    0.175
       420  -9.7269    241.5638    124.3739   4.4771877659e+01   1.1695311581e+01    0.2020738    0.1751384 -16.79 0.0008529554    1.159    0.137
       421 -10.0968      7.6464    121.2925   1.0393262703e+02   4.9772308861e+01    0.3339429    0.1781482  38.67  0.001076666    1.792    0.442
       422 -10.3108      3.4139    119.2104   1.0526545469e+02   5.0561094487e+01      0.31015    0.1733091  77.47  0.001345663    1.659    0.397
       423  -9.9871     45.9111    119.9966   9.0289728655e+01   4.6659642242e+01    0.3582595    0.2221108  51.24  0.001699653    1.649    0.394
       424 -10.8084     28.9559    118.8106   9.6145802355e+01   4.8747228209e+01    0.5696659     0.294845  76.82  0.002412924    2.272    0.560
       425 -11.1636     21.1318    118.7207   9.8938904654e+01   4.9453952804e+01    0.5535917    0.4123266  70.33  0.003087344    1.280    0.219
       426  -9.8214    221.3636    119.5077   4.6502253300e+01   1.5556897686e+01    0.2428896    0.2024877  -3.26 0.0006822373    1.107    0.097
       427  -9.2716     93.9413    119.0848   7.4207175471e+01   3.9750257089e+01    0.2263626    0.2131578   1.31 0.0006638188    1.130    0.115
       428  -9.7115     38.7200    124.0523   9.3387081500e+01   4.6423162520e+01    0.3319529    0.1818994 -75.23  0.001168993    1.782    0.439
       429  -8.9213     53.8479    117.1685   8.7030940921e+01   4.6405853410e+01    0.1923428    0.1678567 -25.56 0.0003813288    1.320    0.242
       430 -10.7285     11.0142    114.0953   1.0215399690e+02   5.1403650819e+01    0.4624616    0.3532335  14.50  0.002670193    1.498    0.332
