#   1 NUMBER                 Running object number                                     
#   2 MAG_AUTO               Kron-like elliptical aperture magnitude                    [mag]
#   3 X_IMAGE                Object position along x                                    [pixel]
#   4 Y_IMAGE                Object position along y                                    [pixel]
#   5 X_WORLD                Barycenter position along world x axis                     [deg]
#   6 Y_WORLD                Barycenter position along world y axis                     [deg]
#   7 A_WORLD                Profile RMS along major axis (world units)                 [deg]
#   8 B_WORLD                Profile RMS along minor axis (world units)                 [deg]
#   9 THETA_WORLD            Position angle (CCW/world-x)                               [deg]
#  10 FWHM_WORLD             FWHM assuming a gaussian core                              [deg]
#  11 ELONGATION             A_IMAGE/B_IMAGE                                           
#  12 ELLIPTICITY            1 - B_IMAGE/A_IMAGE                                       
         1 -11.3781     17.6121     45.0063   1.1149341419e+02   6.4813480972e+01    0.7554868    0.6058219 -85.67  0.004671662    2.555    0.609
         2 -11.8820     76.8346     21.5800   8.0769396356e+01   5.9806813521e+01    0.5556862    0.4143412 -41.72  0.003215735    1.728    0.421
         3 -11.7596     39.7634     22.6048   9.3966601736e+01   6.5593702024e+01    0.7225699    0.3247387 -19.16   0.00317848    2.807    0.644
         4 -11.1314    190.6625     14.6427   5.7731186045e+01   3.5894785011e+01    0.3559348    0.1568259 -52.67  0.001682052    2.343    0.573
         5 -11.6070     88.8193     13.6698   7.4649849369e+01   5.8304460238e+01    0.4061317    0.3292813  77.34  0.001672287    1.587    0.370
         6 -10.3028     93.0698      8.8270   7.1931573836e+01   5.7883376038e+01    0.2482508    0.1623903  -2.72 0.0009720544    1.825    0.452
         7 -10.3159     90.6160      2.4484   7.0313406175e+01   5.8874360665e+01    0.4347458    0.1990227  59.73  0.001682397    1.926    0.481
         8 -10.9920    231.7052     14.2267   5.3777774594e+01   2.7153135491e+01    0.1940318    0.1304512 -73.76 0.0003476156    1.197    0.164
         9 -10.7372    155.2717     14.5812   6.2143045566e+01   4.3886716207e+01    0.3183134    0.1854484  47.81  0.001378102    1.737    0.424
        10 -11.5806     40.3380      9.1366   8.8196547646e+01   6.6999809172e+01    0.4212943    0.2236732 -10.78  0.002450746    2.063    0.515
        11 -11.6735     35.2127     12.7929   9.1768720498e+01   6.7323741302e+01    0.2905861    0.2317432 -17.48  0.001194895    1.327    0.247
        12 -11.8980     30.1209      7.1550   9.1446862564e+01   6.8582565715e+01    0.3024161    0.2486589   7.80  0.001052081    1.220    0.180
        13 -10.9761    162.4198     13.1430   6.0791798142e+01   4.2406321299e+01    0.2234587    0.1740462  72.38 0.0002192754    1.066    0.062
        14  -9.3860      9.3209     10.2878   1.0221281597e+02   7.0553799741e+01     0.193546   0.09584197   7.07 0.0004695079    2.142    0.533
        15 -10.0263      2.5569      2.7178   1.0223384260e+02   7.2068833963e+01     0.218977    0.1293132  25.40  0.000849819    1.674    0.403
        16 -11.0792      4.0263     10.0075   1.0468749193e+02   7.1064009546e+01    0.2067632    0.1425253 -11.80 0.0004505752    1.060    0.057
        17 -10.8317      2.5314      6.4769   1.0391525607e+02   7.1626572122e+01    0.2679298    0.1450602  10.58 0.0007433683    1.641    0.391
        18 -10.3580     14.9969      8.9366   9.8929731358e+01   7.0151389218e+01    0.1989262    0.1395615  -8.60 0.0007361753    1.103    0.093
        19 -11.0190     11.0129      6.8022   9.9880284515e+01   7.0803031955e+01    0.2753736    0.2122271  36.14  0.002069799    1.950    0.487
        20 -10.4860    119.0889     12.1637   6.7466426358e+01   5.2172971980e+01    0.1830529    0.1368376  46.31 0.0002827846    1.181    0.153
        21 -11.9139     56.9194      4.2712   8.0285291229e+01   6.4891948131e+01     0.468186    0.2795853   1.72  0.002508881    1.808    0.447
        22 -11.0701    151.0548      7.1107   6.0821599643e+01   4.5533276258e+01    0.3078603    0.2448165 -38.14 0.0009717933    1.476    0.323
        23 -10.7005     22.3547      9.5488   9.5841001460e+01   6.9274232734e+01    0.2725076    0.1772775  10.16   0.00128165    1.258    0.205
        24 -11.0276    210.4012      7.4124   5.4281840692e+01   3.2357243529e+01    0.1875307    0.1455067 -86.71  0.000991951    1.020    0.019
        25 -11.6453    144.6143      5.7333   6.1378327397e+01   4.7095942194e+01    0.3192249    0.1987073  82.68            0    1.581    0.367
        26  -9.4339     88.6045      7.1787   7.2434661810e+01   5.8902127805e+01     0.147894    0.1040313   5.95 0.0006477018    1.586    0.369
        27 -10.7812     71.3733      6.5585   7.6769282826e+01   6.2200720860e+01    0.2971443    0.1748291  36.02  0.001387755    1.408    0.290
        28  -9.9855     64.7120      6.9925   7.8909483774e+01   6.3341765009e+01    0.1556204    0.1277695  11.76 0.0005643651    1.138    0.121
        29 -11.7421    195.2225      4.2004   5.5027320461e+01   3.5960687791e+01    0.3820323    0.1886514  59.23  0.002099657    1.911    0.477
        30 -11.0525    130.2590      3.8373   6.3060733282e+01   5.0434545511e+01    0.2419872     0.143355  59.18 0.0008298356    1.350    0.259
        31  -9.8135    120.9592      4.0236   6.4684904118e+01   5.2446282730e+01    0.1797597    0.1457038  55.03 0.0003789603    1.039    0.037
        32 -10.3363     20.0392      2.5036   9.3747846577e+01   7.0294195349e+01    0.1995684    0.1440971   8.84 0.0006868405    1.043    0.042
        33 -10.2694     16.5546      3.5049   9.5791302564e+01   7.0585989687e+01    0.1741627    0.1540851 -46.03  0.001333922    2.200    0.545
        34  -9.9785    230.6844      3.6613   5.1920943427e+01   2.8536115423e+01    0.1012762   0.08107969  56.02 0.0007047931    1.701    0.412
        35 -10.3072    176.5161      2.5137   5.6572145429e+01   4.0243794657e+01    0.1975609    0.1531983  80.49 0.0008701818    1.032    0.031
        36 -11.1348    161.0512      1.9329   5.8221456220e+01   4.3744535165e+01    0.2920977    0.1719707  70.35  0.001717497    1.370    0.270
        37  -9.0549    112.6743      2.6994   6.5792105684e+01   5.4322726302e+01    0.1250487   0.07243705  40.00 0.0007029115    1.636    0.389
        38  -9.9262    100.2508      1.9075   6.8008032150e+01   5.6973134657e+01    0.2028362    0.1538587  84.73 0.0009103935    1.612    0.380
        39 -11.6189     80.1772      1.7173   7.2588522548e+01   6.0952834680e+01    0.3177515    0.1350082  54.15  0.001040395    1.923    0.480
        40 -10.9605    155.8667      8.3269   6.0470857828e+01   4.4341705339e+01    0.3916034    0.1796146  46.46  0.001216685    2.351    0.575
        41  -9.8689     10.0590      1.6762   9.8033933662e+01   7.1471030228e+01    0.1502661   0.09988672  10.33 0.0008828474    1.175    0.149
        42  -9.3841    187.0167      1.1618   5.5182557852e+01   3.8048579177e+01    0.1574941    0.0701104  72.59  0.000321286    1.831    0.454
        43 -10.3599    235.5049      4.5089   5.1718230304e+01   2.7473786632e+01    0.1590739    0.1104054 -26.99  0.001011519    2.153    0.536
        44  -9.6257     67.0946      1.4855   7.6055990445e+01   6.3371892598e+01    0.1606062   0.09241276  48.25 0.0003233999    1.449    0.310
        45  -9.6065     28.4364      1.2712   8.9543913377e+01   6.9379306417e+01    0.1703253   0.07803202  37.72  0.000570232    1.940    0.485
        46 -11.1041     11.9140    129.7080   1.3259607614e+02   4.7570085034e+01    0.2400599    0.1808905 -86.70 0.0008854725    1.327    0.247
        47 -10.4464     12.2881    249.6043   1.4408623467e+02   1.9782066047e+01    0.2294038    0.1366958 -50.48  0.001319348    2.530    0.605
        48 -11.6012      1.7662    248.4698   1.4584980530e+02   2.1114931473e+01    0.3679155    0.1644625 -82.28  0.002088485    1.884    0.469
        49 -12.4760     10.0039    245.1347   1.4421032157e+02   2.0944501424e+01     0.515316    0.2796886  21.40  0.002687453    3.216    0.689
        50 -10.7852    248.2213    129.2247   7.4564613147e+01   6.0559198441e+00     0.223791    0.1422348 -71.06  0.001066781    2.135    0.532
        51  -9.9236     28.9014    128.4492   1.2740126587e+02   4.6456081725e+01    0.1703154    0.1320184  26.61 0.0004238169    1.512    0.338
        52 -11.7585     23.4586    121.1984   1.2779338573e+02   4.8671093893e+01    0.5646765    0.3225337 -89.66 0.0007180851    2.464    0.594
        53 -10.9620     20.2804    112.9674   1.2731557893e+02   5.0859403296e+01    0.2043722    0.1863155  37.15 0.0005942613    1.317    0.240
        54 -10.8845     65.3948    111.2302   1.1247862412e+02   4.6280030860e+01     0.467182    0.1773033 -53.07  0.001479443    2.396    0.583
        55  -9.4080      2.0099    114.2363   1.3321268301e+02   5.1840733094e+01    0.1308131    0.1042258   8.50 0.0003519044    1.549    0.354
        56  -9.5482     72.2828    113.0359   1.1074690510e+02   4.4858619317e+01    0.1964196      0.17024 -49.76 0.0002687126    1.085    0.078
        57 -10.8172     12.0610    108.7001   1.2916535162e+02   5.2456821123e+01    0.1739674    0.1494206 -45.68 0.0007127502    1.095    0.087
        58 -11.1297      4.1903    109.2404   1.3174988326e+02   5.2848253849e+01     0.276891    0.1630644  21.75  0.001596362    2.052    0.513
        59 -10.9044     57.5926    107.9395   1.1419309263e+02   4.8094742303e+01    0.2640726    0.1919333   0.59   0.00126819    1.671    0.402
        60 -10.7300     89.8946    104.8716   1.0324209122e+02   4.3817356760e+01    0.2279537    0.2191054 -19.03   0.00050864    1.017    0.016
        61  -9.2640    186.9865    103.2637   7.9002549715e+01   2.3438922971e+01    0.1830632    0.1277583  56.92 0.0006236145    1.469    0.319
        62  -9.6921    113.5041    102.4962   9.5758108751e+01   3.9853476680e+01    0.1486674    0.1456092 -12.77 0.0003733661    1.012    0.012
        63 -10.6321     57.3141    101.8846   1.1281229464e+02   4.9490747560e+01    0.2341949    0.1924015  41.81  0.001327577    1.387    0.279
        64 -10.7252     24.8718    101.8793   1.2365898783e+02   5.3004478389e+01     0.188452    0.1870097 -54.18 0.0002741819    1.203    0.169
        65  -9.9590     62.3753     98.2348   1.1021611998e+02   4.9606493618e+01    0.2022171    0.1267846 -60.32 0.0009566397    1.752    0.429
        66 -11.5731     18.3952     94.9255   1.2440457132e+02   5.5069787006e+01    0.3272009    0.2313164  35.80  0.001428959    1.721    0.419
        67  -9.2225    129.6664     97.6740   9.0157582163e+01   3.7452608351e+01    0.1547773    0.1205478   5.36 0.0007051348    1.714    0.417
        68  -9.9266     36.5175     96.4759   1.1851204781e+02   5.3110049761e+01    0.2569156   0.08930513 -47.37  0.001039605    2.374    0.579
        69  -9.5955    100.7214     95.7059   9.7526195161e+01   4.3778311523e+01    0.3043959    0.2250762 -86.82  0.001361719    2.136    0.532
        70  -9.7328      3.4321     95.6870   1.2964933513e+02   5.5912324033e+01    0.1696964   0.08718429 -54.01 0.0009291009    1.471    0.320
        71 -10.2795     78.8761     94.8565   1.0395820741e+02   4.7829582615e+01    0.2076239    0.1777468 -16.13 0.0002484296    1.173    0.148
        72 -10.9327     11.0643     90.4748   1.2601819668e+02   5.6563563487e+01    0.4537137    0.1484327 -61.00  0.001949068    2.509    0.601
        73 -10.5698     10.7924     84.8300   1.2491971614e+02   5.7781806901e+01    0.2280099    0.1740381 -75.34  0.001016439    1.510    0.338
        74 -10.8713     58.0459     91.6084   1.0992152158e+02   5.1615453616e+01    0.3183877    0.2195178 -22.35  0.001028662    1.575    0.365
        75 -10.1975     29.1907     92.1286   1.2003630109e+02   5.4765332856e+01    0.2032896    0.1860738   1.38 0.0008021843    1.204    0.170
        76 -10.6523     25.4387     90.1411   1.2089436038e+02   5.5527835203e+01    0.2393324    0.2116101  55.35  0.001016252    1.466    0.318
        77 -10.7833     76.4499     89.2927   1.0318542913e+02   4.9372778452e+01    0.2511197    0.2287508  -7.22 0.0005924754    1.049    0.047
        78 -10.0395      1.8087     89.7444   1.2908892290e+02   5.7289812258e+01      0.20587    0.1177732 -53.24 0.0002088588    1.330    0.248
        79 -10.4836    107.8523     89.1292   9.3625712717e+01   4.3703230629e+01    0.2143218    0.2030071  82.17   0.00039769    1.181    0.153
        80  -9.9938     91.6825     95.5164   1.0016357222e+02   4.5492746440e+01    0.2523162    0.1294122 -45.92 0.0005719459    1.904    0.475
        81 -11.0399     18.3806     87.3866   1.2277017830e+02   5.6694003635e+01    0.4018956    0.2040957 -40.85   0.00210737    1.683    0.406
        82 -10.9262     54.8153     85.0714   1.0925347988e+02   5.3397795273e+01    0.2947477    0.2320597 -61.70  0.001130552    1.479    0.324
        83  -9.8405     78.4102     83.8753   1.0099949447e+02   5.0134718892e+01    0.2700212     0.181478 -62.45  0.001273969    2.001    0.500
        84  -9.8276     73.0820     84.0948   1.0279671606e+02   5.0953149893e+01     0.314604    0.1965231 -12.19  0.001377804    2.301    0.565
        85 -10.6191      3.7247     82.6842   1.2700331610e+02   5.8673535873e+01     0.425229    0.1881575 -66.04  0.002103681    2.164    0.538
        86 -11.1940     64.2332     79.7925   1.0450766921e+02   5.3143508165e+01    0.4611032     0.252557 -48.22   0.00205177    1.795    0.443
        87  -9.4161    250.3363     81.2864   6.4751123201e+01   1.3997516852e+01    0.1104273      0.10261   6.93 0.0004994717    1.629    0.386
        88 -10.3692     89.6083     80.0742   9.6354473748e+01   4.8921862279e+01    0.3867944    0.2066698 -32.07  0.001659169    2.091    0.522
        89  -9.5079    124.4140     79.1578   8.6331453837e+01   4.2109639562e+01    0.1969448    0.1345405 -53.66 0.0004195616    1.656    0.396
        90 -11.1168     16.0743     76.5290   1.2106934231e+02   5.9118561199e+01    0.3309793    0.2737557   5.84   0.00218031    1.317    0.241
        91 -10.5259    177.1548     76.9651   7.4407697430e+01   3.0456144318e+01    0.2560765    0.2037219  65.31 0.0008641367    1.214    0.176
        92  -9.6205     28.2057     77.1271   1.1668854506e+02   5.7979828379e+01    0.1489939    0.1382759 -56.91 0.0002870022    1.283    0.220
        93 -10.9960     56.2649     75.2153   1.0592509801e+02   5.5149738103e+01    0.4248805    0.2716145  25.07  0.001642906    1.621    0.383
        94 -11.3901      6.9469     74.6530   1.2405163683e+02   6.0126659002e+01    0.2965547    0.1844165 -58.03  0.001202807    1.419    0.295
        95 -10.0179      2.9149     74.0000   1.2541986899e+02   6.0500510127e+01    0.2600209    0.1438087  -1.72  0.001262436    2.087    0.521
        96  -9.9991     32.1794     73.1361   1.1412756380e+02   5.8387249197e+01     0.182239    0.1599712 -28.74 0.0002485767    1.093    0.085
        97  -9.9211     37.3100     75.3135   1.1281865990e+02   5.7431204077e+01    0.2079732    0.1243627 -25.21   0.00108313    1.731    0.422
        98 -10.8553     35.9913     71.9988   1.1237804795e+02   5.8216288014e+01     0.398721    0.2116739 -34.55  0.001249968    1.750    0.429
        99  -9.5967    136.6073     74.2259   8.1975923227e+01   4.0272698355e+01    0.1883601    0.1396901 -25.80 0.0003542355    1.555    0.357
       100  -9.4240     81.5025     72.9852   9.6745482118e+01   5.1661185148e+01    0.1767239    0.1217745 -66.88 0.0008071247    2.348    0.574
       101  -9.3895    217.0032     72.0401   6.7030336274e+01   2.2299920126e+01    0.1627683    0.1381422 -70.01 0.0004690599    1.022    0.021
       102 -10.3471    105.5976     71.6045   8.9113430320e+01   4.7378785014e+01    0.2364511    0.2168776  29.43 0.0004694981    1.037    0.036
       103  -9.5532     92.4714     72.4959   9.3193891188e+01   4.9775535258e+01    0.1373888    0.1296244   8.20  7.09267e-05    1.031    0.030
       104  -9.2208     55.6371     69.7190   1.0449251619e+02   5.6264723528e+01    0.1359626   0.09194627  -7.98 0.0006333574    1.677    0.404
       105 -10.1779     10.5082     68.0021   1.2107356606e+02   6.1209621175e+01    0.3202364    0.1427452 -56.43  0.001300011    1.958    0.489
       106 -10.9215      9.9622     60.0658   1.1920158692e+02   6.2758055031e+01    0.2872545    0.1759408 -26.59 0.0003428536    1.434    0.303
       107 -11.4418      5.4653     63.4667   1.2190492989e+02   6.2414193103e+01    0.2721106    0.1979178  14.86  0.001024513    1.541    0.351
       108 -10.9920      3.3189     60.6928   1.2205310184e+02   6.3071778569e+01    0.2048039    0.1980861  88.73  0.001265667    1.462    0.316
       109 -10.5344    132.7875     65.0095   8.0242610638e+01   4.2646961580e+01    0.3047494    0.2294083  36.17  0.001587603    1.394    0.283
       110 -10.1503     40.5134     59.0016   1.0674641811e+02   6.0101957633e+01    0.3055956    0.2102314 -14.32  0.001807293    1.415    0.293
       111 -10.3625     34.8390     64.7334   1.1069770893e+02   5.9707483666e+01    0.2528604    0.1530668 -38.37 0.0009475764    1.426    0.299
       112 -10.5578     38.9054     62.8862   1.0857817559e+02   5.9597979964e+01    0.2548175    0.1714209  -2.64 0.0003451605    1.564    0.361
       113 -10.6412     13.9849     63.6920   1.1857431403e+02   6.1786871447e+01    0.2484167    0.1530282 -58.23 0.0004983327    1.661    0.398
       114  -9.1932     75.9748     64.4982   9.5870145665e+01   5.4086448062e+01    0.1851903    0.1251636  36.36 -0.0002919126    1.446    0.308
       115  -9.7955     72.4436     63.0454   9.6570122694e+01   5.4916877750e+01    0.1915936     0.123941 -38.80  0.000425582    1.538    0.350
       116 -10.5231     62.8111     62.4959   9.9681834005e+01   5.6519187736e+01    0.2738509    0.1615111 -30.74  0.001400085    1.685    0.406
       117  -9.6973     66.7600     60.4616   9.7654187332e+01   5.6258410627e+01    0.2415663    0.1217866  31.92 0.0008199019    2.002    0.501
       118 -10.2648    100.7612     61.8763   8.7478582200e+01   4.9957133887e+01    0.2212767    0.2107649  52.23 0.0003993428    1.149    0.130
       119  -8.9125    127.2464     61.6814   8.0569427855e+01   4.4401990493e+01    0.1325389     0.106983 -72.94 0.0001353007    1.523    0.343
       120 -10.5388     54.8027     61.1237   1.0209047696e+02   5.7908476254e+01    0.3868143    0.1698565  26.19  0.001198177    2.594    0.614
       121 -11.0001     83.7186     56.8826   9.0928218725e+01   5.3976680824e+01    0.2408261      0.21464 -12.04 0.0006662355    1.097    0.089
       122 -11.5884     88.5781     53.1771   8.8228748032e+01   5.3647757956e+01    0.4653471    0.3131839  44.98  0.001019756    1.431    0.301
       123 -13.2307     20.5126     57.2002   1.1410235826e+02   6.2458014761e+01    0.4228078    0.2891532 -51.09  0.002666877    1.476    0.322
       124  -9.0026     48.4660     58.4544   1.0355784114e+02   5.9214924584e+01    0.1259688    0.1070621 -10.63 0.0001657107    1.018    0.018
       125  -9.8478     15.2752     58.0017   1.1646578157e+02   6.2744940401e+01    0.1660929    0.1236373 -37.22 0.0004362104    1.108    0.097
       126 -10.2106     34.4498     53.4908   1.0733907294e+02   6.1737426649e+01     0.313329    0.1514625 -21.79  0.001421385    2.653    0.623
       127 -10.3830    225.1646     54.8265   6.2373917642e+01   2.3205423127e+01    0.3421327    0.2676249  -8.09  0.001896936    2.255    0.557
       128  -9.5515    174.3493     55.7552   6.9615039356e+01   3.4459907583e+01    0.1700384    0.1307517 -29.98 0.0003620548    1.533    0.348
       129 -13.3174      5.9556     50.8800   1.1827559326e+02   6.4700087966e+01    0.5306768    0.2911123 -15.75 0.0006836597    1.829    0.453
       130 -11.5175     18.0555    248.9539   1.4301908683e+02   1.9282384213e+01    0.2364733    0.1995804   0.84   0.00156541    2.118    0.528
       131 -11.6235    114.6616     54.0313   8.1337392523e+01   4.8282190996e+01    0.3015945    0.2800926  38.85 0.0007235594    1.014    0.014
       132  -9.4427     54.4031     55.4387   1.0037134688e+02   5.8918983860e+01    0.1251827     0.107153  -7.71 3.056614e-05    1.024    0.024
       133 -11.8973     66.0442     52.5748   9.5276292545e+01   5.7640023570e+01    0.4924992    0.2055061  37.02  0.001952849    2.323    0.569
       134  -9.3668    169.5061     52.5370   6.9610541749e+01   3.6051603849e+01    0.1366187    0.1220324  80.51 -1.067643e-05    1.009    0.009
       135  -9.7440    145.3117     52.3229   7.3971214513e+01   4.1697818516e+01    0.1381038    0.1026915  28.43 0.0007038884    1.654    0.396
       136 -10.1881    123.6105     52.0959   7.8586256087e+01   4.6622468443e+01    0.2397146    0.1817427  69.82 0.0006756074    1.442    0.306
       137 -10.0222     75.9685     49.5282   9.0930768399e+01   5.6457748742e+01    0.3032324     0.194942  11.13  0.001544406    1.892    0.471
       138 -10.4366     78.8940     45.8817   8.8753957973e+01   5.6469362866e+01    0.2762105    0.1696603  31.93 0.0002760322    1.551    0.355
       139  -9.9730     53.9649     48.0333   9.8010815144e+01   6.0154752975e+01     0.187802    0.1572771  -4.51 0.0004316705    1.020    0.020
       140  -9.3727    154.5850     47.5414   7.0907959435e+01   4.0216844655e+01    0.1338436     0.121236  73.94 7.517485e-05    1.011    0.011
       141 -10.8104    103.7743     46.8661   8.1891467457e+01   5.1563521988e+01    0.3575452    0.2123991  36.23  0.001783218    1.669    0.401
       142  -8.9420     47.2971     47.3106   1.0025126764e+02   6.1182631186e+01    0.1260774   0.08283588  -6.72  0.000331325    1.597    0.374
       143  -9.7266    135.3645     46.0968   7.4236289333e+01   4.4821663900e+01     0.173595    0.1681558 -84.59 0.0004289554    1.102    0.092
       144 -11.1210     26.0006     43.6471   1.0749305249e+02   6.4246540137e+01    0.2577234    0.2298025 -21.98  0.001280682    1.286    0.222
       145 -10.7770     22.9379     38.6818   1.0706296316e+02   6.5331215001e+01    0.2028595    0.1769149  -5.94 0.0003953891    1.241    0.194
       146 -11.1922     26.6331     35.0057   1.0416397729e+02   6.5506827745e+01    0.3027491    0.1801551  -9.64  0.001231155    1.701    0.412
       147 -11.0035    180.7994     41.5599   6.5152804366e+01   3.4937400334e+01    0.3208143    0.2746021   6.39  0.001359286    1.674    0.403
       148 -10.2650     95.0237     42.2822   8.2765136962e+01   5.3931955495e+01     0.196209     0.174644  -4.58 0.0005790191    1.147    0.128
       149 -10.1274     69.7892     41.7039   9.0243246209e+01   5.8618930827e+01    0.2551353    0.1705281  13.72 0.0009607686    1.593    0.372
       150 -10.5366    139.7542     40.6669   7.1805536832e+01   4.4528061047e+01    0.2386804    0.2028045  86.82 0.0005772894    1.227    0.185
       151 -10.1717     36.0594     41.0807   1.0245744501e+02   6.3543791617e+01    0.2457264    0.1565722  -8.51   0.00145718    1.574    0.364
       152  -9.6485     51.1523     39.6827   9.6085229026e+01   6.1784918620e+01    0.2175103   0.07986322 -39.65 0.0009647898    2.759    0.638
       153 -10.0702    133.5147     39.1602   7.2614884092e+01   4.6129524555e+01    0.3742096    0.2246946  89.67  0.001608695    2.747    0.636
       154 -11.2245    134.2200     34.4193   7.1105391168e+01   4.6542717906e+01    0.2143461    0.1868246  46.06 0.0003529335    1.110    0.099
       155 -12.3317    121.8861     37.3581   7.4537555902e+01   4.8935431160e+01    0.6845165    0.4214523  64.05  0.003529031    1.625    0.384
       156 -10.3418    123.0009     33.0097   7.2981543574e+01   4.9204500236e+01    0.1742805    0.1543933  50.65            0    1.014    0.014
       157 -10.8854      2.5115     34.8138   1.1479588903e+02   6.7637353390e+01    0.4252982    0.1225825 -40.51  0.002055096    2.608    0.617
       158  -9.8047      2.7542     42.2791   1.1708359587e+02   6.6396909556e+01    0.2232442   0.09076062  14.29  0.001183481    2.639    0.621
       159 -10.2791     91.4053     32.9474   8.0626133993e+01   5.5800266531e+01    0.2318847    0.1966475  40.68 0.0006538244    1.087    0.080
       160  -9.9658     86.5885     31.7154   8.1549296336e+01   5.6872494683e+01     0.261769    0.1537322  33.65 0.0009312876    1.613    0.380
       161  -9.1207     29.2740     27.7266   1.0029727215e+02   6.6241589221e+01    0.1412132    0.1042803  -2.32 0.0001999146    1.089    0.082
       162 -11.2600     19.1472     32.0628   1.0632553275e+02   6.6696885230e+01    0.5251606    0.2331116   6.97  0.001781978    3.334    0.700
       163 -10.1776     25.8894     29.5768   1.0245389794e+02   6.6364820177e+01    0.1742162    0.1389202 -34.84 0.0003167774    1.446    0.309
       164 -10.0770    145.0530     33.0806   6.8702309288e+01   4.4239758615e+01    0.1885777    0.1658532  68.82 0.0003525915    1.015    0.015
       165 -10.6074    166.2688     31.1759   6.4738226121e+01   3.9583084827e+01     0.210695    0.1845633 -77.26 0.0003597729    1.124    0.111
       166 -11.4623     38.6864     30.9207   9.7644155030e+01   6.4672153713e+01     0.256107    0.1645003   9.80 0.0003758476    1.481    0.325
       167 -11.6263     43.4920     29.2358   9.5099148700e+01   6.4262116993e+01     0.512235    0.3244796  -1.17  0.002630775    1.619    0.382
       168  -9.8313     77.1363     31.0632   8.4106990888e+01   5.8699526473e+01    0.1810789    0.1429073  14.95 0.0003863556    1.167    0.143
       169  -9.9944    204.9653     30.4695   5.9572284841e+01   3.0896026686e+01    0.1836567   0.09115175 -84.51 0.0008094429    2.512    0.602
       170  -9.4586    187.5705     30.1809   6.1574652595e+01   3.4824283329e+01    0.1564384    0.1268297 -21.83 0.0009539439    1.653    0.395
       171  -9.8475    149.3370     29.9826   6.7116051313e+01   4.3616546138e+01    0.2866226    0.1311883  73.45  0.001197743    2.506    0.601
       172  -9.1604    168.3923     38.4769   6.6246400083e+01   3.8200609508e+01    0.1294866    0.1148358  81.42 0.0001233298    1.027    0.026
       173 -11.9492      8.3862     29.1170   1.1010866235e+02   6.8081573280e+01    0.2231235    0.2019768   8.81  0.001782776    1.493    0.330
       174  -9.7514     69.6099     28.7225   8.5618725627e+01   6.0297977542e+01    0.1475284    0.1105643 -33.04 0.0002919418    1.513    0.339
       175  -9.6384    229.1952     26.7394   5.6358862309e+01   2.6169469276e+01    0.1466628    0.1268483  74.34 0.0004571372    1.343    0.255
       176  -9.8693    229.6881    248.0385   1.0047853081e+02  -1.1826620125e+01    0.1697098    0.1341192 -18.12 0.0007594679    1.145    0.127
       177  -9.6571    147.0411     26.4550   6.6550434897e+01   4.4534810403e+01    0.1864035    0.1109262  64.43 -5.387225e-06    1.456    0.313
       178 -10.4101    100.7995     25.9310   7.5822678274e+01   5.4705690562e+01    0.1791057    0.1644597 -81.19  0.001191222    1.366    0.268
       179  -9.3966     18.3594     26.2994   1.0450788003e+02   6.7598329616e+01    0.1185695   0.06820774  -8.78 0.0007035718    1.712    0.416
       180  -9.7981    153.9175     25.5328   6.5186032145e+01   4.3063537479e+01    0.1954964    0.1110008  66.85 0.0006542781    1.538    0.350
       181 -10.5533    113.8878     24.1803   7.2230538712e+01   5.2146039944e+01    0.2736103    0.2212586  17.96  0.001091759    1.354    0.261
       182 -10.5076     59.1484     24.2767   8.7435023695e+01   6.2546540417e+01    0.3149029      0.18493  17.44  0.001754258    1.814    0.449
       183  -9.3994    224.6923    246.6708   1.0118070020e+02  -1.0943416539e+01    0.1285386   0.08317599  -4.25 0.0006894086    1.660    0.397
       184 -10.3936    219.1994     23.1992   5.6603837027e+01   2.8701926439e+01    0.1877499    0.1199178  37.79 0.0009627522    2.895    0.655
       185  -9.5020     89.4985     23.0709   7.7746736789e+01   5.7262895322e+01    0.1675733    0.1191043 -18.75    0.0010173    1.550    0.355
       186 -11.0849      2.0207     20.8057   1.1002824967e+02   6.9783440558e+01    0.2611806    0.1520765 -33.09  0.001509191    1.379    0.275
       187 -11.2398     13.5343     21.0312   1.0465013352e+02   6.8781933173e+01       0.2359    0.2038873 -16.23  0.001182047    1.386    0.278
       188 -10.1053     20.1422     16.8459   9.9929631557e+01   6.8660843300e+01    0.1523346    0.1203316   5.81 0.0004651729    1.175    0.149
       189 -10.9798     14.1974     16.0943   1.0234315760e+02   6.9364138902e+01    0.3181472    0.1564701  31.12  0.001265259    2.070    0.517
       190  -9.8849     84.7729     21.1574   7.8355677513e+01   5.8369680225e+01    0.2346441    0.1194131  33.28 0.0008110938    1.955    0.488
       191  -9.7642     30.8520     20.3897   9.6718446174e+01   6.7000403865e+01    0.1742121    0.1111697 -18.43 0.0006056114    1.400    0.286
       192  -9.2212    131.7278     20.6409   6.7606928895e+01   4.8599298623e+01    0.1263633   0.08649492  32.95 0.0007000613    1.650    0.394
       193 -10.4545    100.4422     19.1563   7.3665058371e+01   5.5465369543e+01    0.2662729     0.212875 -66.78  0.001183991    1.731    0.422
       194  -9.6666    199.7729     17.3751   5.7348562070e+01   3.3581619674e+01    0.1660027   0.09504451  65.51 0.0004032572    1.557    0.358
       195  -9.7164    136.4963    245.5763   1.1889016388e+02   2.9717933424e+00    0.1347243    0.1174943  46.33  0.000805341    1.041    0.040
       196 -10.5253    108.4842     16.3927   7.0942403629e+01   5.4056364638e+01    0.1848565     0.162832  41.35 0.0002329176    1.066    0.062
       197  -9.5561     44.8453    244.3713   1.3766574672e+02   1.7035839533e+01    0.1531413    0.1125474  32.80 0.0003981618    1.633    0.388
       198 -11.7649      6.0727    241.4526   1.4468098914e+02   2.2118600200e+01    0.2500769    0.1828353  67.91  0.001498763    1.112    0.101
       199  -9.6329    202.5030    240.0842   1.0434692758e+02  -6.6839908291e+00    0.1836021    0.1217078 -37.43 0.0006949532    1.534    0.348
       200  -9.7548     62.9782     16.2250   8.3048387907e+01   6.2780342912e+01    0.1753369    0.1116123   9.52 0.0009698276    1.648    0.393
       201 -10.1349     49.0802     16.0592   8.7777123906e+01   6.5011728680e+01     0.170087    0.1417638  13.54 0.0006133576    1.124    0.111
       202  -9.8266     26.7109     16.6046   9.6929877336e+01   6.7953231985e+01    0.1372719     0.091732  31.58 0.0005877537    1.541    0.351
       203  -9.7432     60.5627    241.0000   1.3423746082e+02   1.5668832395e+01    0.2686393   0.06609596  35.98 0.0009294944    3.893    0.743
       204 -11.2568     14.7696    239.3556   1.4296956075e+02   2.1643960365e+01     0.282572    0.1275112  64.19  0.001029003    2.031    0.508
       205 -12.0257     26.3610    235.9514   1.4054361646e+02   2.1081055876e+01     0.334378    0.2459884 -84.31  0.001435785    1.189    0.159
       206 -11.9316      4.1011    232.5320   1.4447636303e+02   2.4199727753e+01    0.3619991    0.1906404  71.72 0.0003309497    1.631    0.387
       207 -13.4550      9.9240    228.6640   1.4313550697e+02   2.4445900121e+01     0.816093    0.4822714  80.12  0.004651383    1.414    0.293
       208  -9.3984    200.2355    235.9632   1.0409171154e+02  -5.6406869717e+00    0.1613536    0.1056907 -40.33 0.0006624633    1.570    0.363
       209  -9.9164    249.2133    234.0872   9.4523495351e+01  -1.2296268241e+01    0.1803831    0.1337098  -9.55 0.0004463508    1.158    0.136
       210  -9.6022      5.8011     13.9732   1.0547353221e+02   7.0407013259e+01    0.1485364    0.1153314 -16.15 0.0006736129    1.201    0.167
       211  -9.1921    209.5296    229.5167   1.0111961895e+02  -5.9710281286e+00    0.1310256    0.1148473  -0.71 0.0001582286    1.011    0.011
       212 -10.1881    140.2688    227.5909   1.1535691197e+02   5.9197615111e+00    0.2408165    0.1797147 -71.74  0.001021897    1.622    0.383
       213 -10.0895     33.0570    225.2729   1.3833935337e+02   2.2649576956e+01    0.3078529   0.09666885  47.35  0.001294778    2.793    0.642
       214 -11.9814      8.1346    217.5333   1.4268358124e+02   2.7077286723e+01    0.3506624    0.2690903 -82.99  0.002392347    1.146    0.127
       215 -10.2733     15.7307    212.8369   1.4080251748e+02   2.7374385157e+01    0.3127557    0.1228841 -46.41  0.001148885    4.740    0.789
       216  -9.3326    209.5111    211.4983   9.7834009055e+01  -2.7746662505e+00    0.1363158    0.1216712  -8.72 0.0001306514    1.004    0.004
       217  -9.6253    203.0067     11.7605   5.5848046659e+01   3.3487562350e+01    0.1537043   0.08421189  74.95 0.0002692367    1.540    0.351
       218 -10.3793     20.5909    209.9447   1.3955711720e+02   2.7531802892e+01    0.2201149    0.1390131  59.80 0.0003310228    1.460    0.315
       219  -9.6448    246.6560    207.2093   9.0102759946e+01  -7.6807422990e+00    0.1903371    0.1004276 -32.33 0.0009513728    1.713    0.416
       220 -10.3757      2.9575    205.4919   1.4281713048e+02   3.0282241404e+01      0.16288     0.114754  37.76    0.0010462    1.632    0.387
       221  -9.4558    197.0108    204.0209   9.8934504167e+01   7.3131595718e-01    0.1712039    0.1565349 -17.04 0.0006633609    1.027    0.026
       222 -11.0865      9.5221    203.5215   1.4131692657e+02   3.0123734000e+01    0.2223416    0.1763766  84.32 0.0008175285    1.040    0.039
       223 -10.1737     23.1359    197.3228   1.3784853856e+02   3.0218053078e+01    0.2159966    0.1477134 -67.92 0.0004806182    1.311    0.237
       224 -11.2392     13.5326    194.1801   1.3965782074e+02   3.1920286377e+01    0.3602813    0.1572548 -68.25  0.001109173    1.870    0.465
       225  -9.6472     15.3576    185.1584   1.3839753824e+02   3.3891058044e+01     0.188155   0.09916744 -85.28 0.0009404762    1.725    0.420
       226  -9.0988      1.0000    183.0457   1.4141586900e+02   3.5651427319e+01    0.1967698   0.05630252 -74.10 0.0004611474    2.778    0.640
       227 -10.0339    249.5277    169.0221   8.2291170945e+01  -1.4348927890e+00    0.1881348    0.1032895 -58.54 0.0005319904    2.531    0.605
       228 -11.1104      5.3358    167.5925   1.3897103383e+02   3.8973637486e+01    0.2685576    0.1758347  81.53  0.001006039    1.447    0.309
       229  -9.9441     14.4957    164.0011   1.3635448009e+02   3.9081277985e+01    0.1939566   0.07112704 -52.29 0.0008104969    2.552    0.608
       230  -9.3023     41.3295    157.7135   1.2857940351e+02   3.7972545001e+01    0.1388759   0.09681414  71.38 0.0003900274    1.615    0.381
       231  -9.4553    247.4954    155.5233   7.9948138811e+01   1.3549984814e+00    0.1354295    0.1145968 -38.31 3.844053e-05    1.020    0.019
       232 -10.4948      2.9642    153.5178   1.3805990203e+02   4.2526010645e+01    0.1632757    0.1252542  26.95  0.001044346    1.627    0.385
       233 -10.5956     23.9630    150.7747   1.3224337495e+02   4.1471592842e+01     0.196454    0.1582102 -50.64 0.0005363851    1.233    0.189
       234 -10.5107     22.4245    143.2019   1.3159302289e+02   4.3464919709e+01    0.2623218   0.09959845 -62.41  0.001125648    2.059    0.514
       235  -9.9102     12.1652    141.3710   1.3416132371e+02   4.4759195714e+01    0.1553052    0.1130904  43.79 0.0002381017    1.594    0.373
       236 -10.6959      2.2465    138.3860   1.3647287625e+02   4.6184187585e+01    0.1904243    0.1563611  47.68 0.0008023373    1.440    0.306
       237 -10.7202      9.0753    135.4179   1.3421032230e+02   4.6417519037e+01    0.2197824    0.1379292 -61.06 0.0004075963    1.270    0.213
       238  -9.5916    216.3209    135.6908   8.1042633878e+01   1.0830743907e+01    0.2323948    0.1402665  61.66 0.0008159597    2.063    0.515
       239  -9.8675    212.7662    133.8531   8.1272451917e+01   1.1903426213e+01    0.2342717    0.1894979 -70.83 0.0006709134    1.339    0.253
       240 -10.4683      2.4929    133.0178   1.3572233574e+02   4.7438447184e+01    0.2657913    0.1563963  48.35  0.001474649    2.050    0.512
       241  -9.8920     35.3066    130.6582   1.2587448818e+02   4.5299825444e+01    0.2324755    0.1279974 -47.62 0.0005793452    1.647    0.393
