#   1 NUMBER                 Running object number                                     
#   2 MAG_AUTO               Kron-like elliptical aperture magnitude                    [mag]
#   3 X_IMAGE                Object position along x                                    [pixel]
#   4 Y_IMAGE                Object position along y                                    [pixel]
#   5 X_WORLD                Barycenter position along world x axis                     [deg]
#   6 Y_WORLD                Barycenter position along world y axis                     [deg]
#   7 A_WORLD                Profile RMS along major axis (world units)                 [deg]
#   8 B_WORLD                Profile RMS along minor axis (world units)                 [deg]
#   9 THETA_WORLD            Position angle (CCW/world-x)                               [deg]
#  10 FWHM_WORLD             FWHM assuming a gaussian core                              [deg]
#  11 ELONGATION             A_IMAGE/B_IMAGE                                           
#  12 ELLIPTICITY            1 - B_IMAGE/A_IMAGE                                       
         1 -14.4742    149.1492     62.6847   8.5733674624e+01   3.9692507634e+01     1.518767     1.187074  24.03  0.001146142    1.495    0.331
         2 -14.7868    160.4548     47.5980   7.8914452530e+01   3.9243400798e+01     1.116897     1.053002 -17.82  0.003696247    1.171    0.146
         3 -15.0283    173.3100     17.2811   6.8129412418e+01   3.9833421149e+01     1.353992     1.206109 -10.69  0.005263166    1.369    0.270
         4 -13.4190    201.0097      9.1821   6.2542980479e+01   3.3939216139e+01    0.5014781    0.2768637 -66.60  0.002459707    1.988    0.497
         5 -14.1527    189.5374     14.7036   6.5257141207e+01   3.6133484293e+01     1.284988      0.63849 -72.51  0.005253075    2.844    0.648
         6 -10.6882     28.1858    232.9297   1.4661242043e+02   2.3192682480e+01    0.1480802   0.09553261 -87.97 0.0006659108    1.256    0.204
         7 -20.2595     79.2648    175.5406   1.3037238158e+02   2.8888823682e+01     16.98258     7.150636 -64.47   0.07030868    2.286    0.562
         8 -12.6214    192.6836    164.8977   1.0241834596e+02   9.4046694993e+00    0.4239489    0.3224297 -37.59 0.0008136136    1.337    0.252
         9 -12.4302    189.8070    160.9765   1.0216824638e+02   1.0804387235e+01    0.3975566    0.3323097 -81.75  0.001276552    1.473    0.321
        10 -12.4615    230.3952    167.4460   9.5550604217e+01   1.2604129217e+00    0.4552133    0.2223829 -52.39   0.00175932    2.722    0.633
        11 -10.4736    139.5951    250.2048   1.2806423964e+02   3.5365543587e+00    0.2659836    0.1477443 -48.87 0.0008865959    2.217    0.549
        12 -11.0511    139.5325    246.0436   1.2754110287e+02   4.2505673519e+00    0.2466715     0.165521  63.54 0.0008892852    1.534    0.348
        13  -8.1535     32.3087    222.1952   1.4511376764e+02   2.4854480062e+01    0.3227901    0.1912788 -49.03  0.001813962    2.666    0.625
        14 -10.2608      5.7564    162.3347   1.4526530780e+02   4.0334954463e+01    0.1634885    0.1149132  69.42 0.0006470252    1.349    0.259
        15 -11.8984    167.0710    155.8174   1.0598191135e+02   1.6797676781e+01    0.2431242     0.210071  81.49 0.0006683827    1.292    0.226
        16 -11.2185    140.1897    240.6321   1.2669986105e+02   5.0729432667e+00    0.2281605    0.1833689 -53.41 0.0008001435    1.477    0.323
        17 -11.1280    217.6137    218.3395   1.0801645936e+02  -4.9573773839e+00    0.2318431    0.1231447 -43.06  0.001012526    2.105    0.525
        18 -11.5745     24.6342    215.5861   1.4598283392e+02   2.7069463618e+01    0.1576153    0.1240393  64.89  0.000498563    1.222    0.182
        19 -11.1844     17.9444    154.0268   1.4174350667e+02   4.1184912836e+01    0.2036804    0.1462594 -59.84 0.0004750934    1.324    0.245
        20 -11.1574     18.4459    149.2190   1.4108639617e+02   4.2234649436e+01    0.3041338    0.2535453 -84.72  0.002132488    1.083    0.077
        21 -13.1904     11.5942    205.8637   1.4761662576e+02   3.0430961844e+01    0.3723364    0.2968533  24.76  0.002445679    1.932    0.482
        22 -12.1050    173.9981    148.4131   1.0277279988e+02   1.6863750953e+01    0.5346733    0.3476645 -57.03  0.001822618    1.720    0.419
        23 -11.7190    140.5548    201.2246   1.2071713991e+02   1.2526172216e+01    0.5147663    0.3685715  50.49   0.00237981    1.283    0.221
        24 -11.2245    134.1183    198.7872   1.2170550940e+02   1.4244357830e+01    0.4290657    0.2906523  18.63  0.001594565    2.285    0.562
        25 -10.9451     29.7942    200.5466   1.4380984034e+02   2.9662708560e+01    0.1636518     0.126121 -78.03 0.0004235675    1.215    0.177
        26 -10.2670      3.0781    134.9286   1.4311112312e+02   4.6633866165e+01    0.1743293    0.1080573 -50.73 0.0006178126    1.588    0.370
        27 -10.5250     20.8270    195.3064   1.4508961770e+02   3.1740145387e+01    0.1405337     0.115168  86.75 0.0003922838    1.144    0.126
        28 -12.9396    160.4466    128.1349   1.0104477604e+02   2.4276640839e+01    0.5399325    0.4013817 -58.99  0.001683004    1.441    0.306
        29 -10.8687     24.7853    202.8831   1.4496074319e+02   2.9707255210e+01    0.1587929    0.1202298 -83.90 0.0002783194    1.145    0.127
        30 -12.6945    135.4724    238.1914   1.2728914834e+02   6.3220492721e+00    0.3743035    0.3051406 -81.36  0.001394303    1.378    0.274
        31 -11.4749    115.1683    249.6428   1.3256873924e+02   7.7037781329e+00    0.1786259    0.1567361 -75.99 0.0004894543    1.307    0.235
        32 -10.4679    238.6811    184.6823   9.7605367242e+01  -3.2393003912e+00    0.1401583   0.09899324   2.08 0.0004159191    1.659    0.397
        33 -11.1094    167.4779    112.7596   9.5560002685e+01   2.5904763269e+01    0.3763186    0.2655712 -79.06  0.001218503    2.001    0.500
        34 -13.3357    189.2575    177.5330   1.0579985550e+02   7.6161204663e+00    0.7557611    0.4492061 -60.15   0.00231749    2.302    0.566
        35 -10.8396    205.3662    110.2417   8.7129854220e+01   1.7431962213e+01    0.3099315    0.2122822  48.64 0.0009005988    1.514    0.339
        36 -12.2229     25.5485    106.4959   1.3310287887e+02   5.1347977896e+01    0.3566771    0.2375703   2.72  0.002093215    2.053    0.513
        37 -12.2917    185.1526    170.2446   1.0514563627e+02   9.9180414878e+00    0.4287734    0.2921842 -54.40  0.001052946    1.627    0.385
        38 -13.0733     47.3171     92.7778   1.2365264357e+02   5.2307151519e+01    0.4200207    0.2873241  18.62  0.001490073    1.747    0.428
        39 -10.8830    207.9839    172.1538   1.0085139455e+02   4.8304661736e+00    0.3673907    0.1910541 -53.72  0.001439418    2.465    0.594
        40 -12.8282    204.0499    174.6703   1.0216821180e+02   5.1509367773e+00    0.6022826     0.439676 -59.95  0.001948995    1.696    0.410
        41 -10.9718     38.0320    248.9296   1.4607215783e+02   1.8970903788e+01     0.244659    0.1111235  85.97  0.001330661    2.199    0.545
        42  -9.4961    156.2884     92.2747   9.2630947601e+01   3.2680356204e+01    0.1497604    0.1226508  14.48 0.0001632875    1.513    0.339
        43 -12.0072      6.0266     89.1033   1.3589965177e+02   5.6489091338e+01    0.4864501    0.2206852  -9.71  0.002289548    3.753    0.734
        44 -12.6375    195.9474    174.3093   1.0374252075e+02   6.8720029010e+00    0.7151641    0.4424635 -61.71   0.00264852    2.287    0.563
        45 -10.8453    143.6762     81.9810   9.2687312025e+01   3.7610223245e+01    0.2154292    0.1972042 -41.13 0.0005404566    1.109    0.098
        46 -12.9652    189.5241    155.6369   1.0104827140e+02   1.1949742888e+01     0.562031    0.5326739  47.28  0.001556394    1.056    0.053
        47 -13.4003    164.6718     39.0154   7.5636214573e+01   3.9379515365e+01    0.4626136    0.4351428  74.83 0.0008340767    1.036    0.034
        48 -11.1898    128.0940    245.5070   1.2964970891e+02   6.2869128288e+00    0.1633464     0.145205  78.11  0.001090113    1.158    0.136
        49 -11.1858     13.5515     59.9097   1.2719464432e+02   6.1949136220e+01    0.1749765    0.1592802  -2.14 0.0004040006    1.300    0.231
        50 -10.9970     13.8929    240.9545   1.4946349945e+02   2.3236254136e+01    0.2335143     0.104054  77.22  0.001150724    1.946    0.486
        51 -10.6670    145.0494    232.2546   1.2458544068e+02   5.7072331287e+00    0.3210152    0.1365978 -51.62  0.001406299    2.710    0.631
