#   1 NUMBER                 Running object number                                     
#   2 MAG_AUTO               Kron-like elliptical aperture magnitude                    [mag]
#   3 X_IMAGE                Object position along x                                    [pixel]
#   4 Y_IMAGE                Object position along y                                    [pixel]
#   5 X_WORLD                Barycenter position along world x axis                     [deg]
#   6 Y_WORLD                Barycenter position along world y axis                     [deg]
#   7 A_WORLD                Profile RMS along major axis (world units)                 [deg]
#   8 B_WORLD                Profile RMS along minor axis (world units)                 [deg]
#   9 THETA_WORLD            Position angle (CCW/world-x)                               [deg]
#  10 FWHM_WORLD             FWHM assuming a gaussian core                              [deg]
#  11 ELONGATION             A_IMAGE/B_IMAGE                                           
#  12 ELLIPTICITY            1 - B_IMAGE/A_IMAGE                                       
         1 -12.8172    186.3895     37.9183   5.6478138416e+01   3.3294309286e+01     1.445738     1.043143  19.19  0.004429114    1.700    0.412
         2 -11.7072    191.0208     31.3988   5.3787600318e+01   3.2891206496e+01    0.5814435    0.5095949  55.49   0.00143865    1.176    0.150
         3 -12.4446    209.5024      6.0579   4.4130072636e+01   3.0817586236e+01     0.917288    0.8436968  83.85  0.004577767    1.117    0.104
         4  -9.1205      2.0000      7.0251   1.1369823109e+02   7.6241379388e+01    0.2006806   0.05629462 -67.99 0.0005058002    2.948    0.661
         5 -10.3946     61.6511    234.8520   1.2155405565e+02   2.1672131584e+01    0.1745541    0.1348767  72.42 0.0008071728    1.289    0.224
         6 -10.3901    248.7588    248.9041   9.1129774961e+01  -3.8568573405e+00    0.2262706    0.1496422  11.05   0.00190665    1.130    0.115
         7  -8.5878     41.8609    214.1902   1.2418446157e+02   2.7151887195e+01    0.2674895     0.057986  46.01  0.001266147    2.715    0.632
         8  -9.7887     55.1229    211.1318   1.2141686782e+02   2.6219259843e+01    0.1592513     0.110289  53.10 0.0002983464    1.062    0.058
         9 -10.0831     70.8680    210.0933   1.1820699357e+02   2.4539697983e+01    0.1634074    0.1187591  52.02 0.0003433084    1.033    0.032
        10  -9.0771    142.5238    209.4814   1.0391543398e+02   1.4747507195e+01    0.1191576   0.09210826  36.80 1.849538e-05    1.008    0.008
        11  -9.5016     63.0268    205.9950   1.1949614335e+02   2.6182948667e+01    0.1873624    0.1232746  45.29 0.0006181984    1.172    0.147
        12 -10.3462     63.8267    198.6677   1.1880419408e+02   2.7373789591e+01    0.2918016    0.2041835 -44.29  0.001436613    2.172    0.540
        13  -9.4353    193.3266    195.7315   9.2500314926e+01   8.7741433980e+00    0.5017917    0.2896979 -61.49  0.001840471    6.782    0.853
        14  -9.4255    152.3653    197.4695   1.0044526188e+02   1.4970544748e+01    0.2011625    0.1554651 -47.76  0.001328088    1.638    0.389
        15  -8.6672     81.6697    195.7966   1.1480658113e+02   2.5636062746e+01    0.2229393    0.1583601 -39.83  0.001375994    2.129    0.530
        16 -11.7467    111.1175    189.1792   1.0782987400e+02   2.2649175197e+01    0.4900889    0.2642955  29.47  0.002528585    1.919    0.479
        17  -9.3735     72.3552    250.4140   1.2052007404e+02   1.8200546227e+01     0.195608   0.07992653  43.16  0.001112181    1.599    0.375
        18  -9.9228     73.3797    187.1808   1.1581413910e+02   2.8277446634e+01    0.6262554    0.4271057  59.81  0.004015233    1.264    0.209
        19 -10.6178     74.2810    182.9934   1.1522899396e+02   2.8945083063e+01    0.3932464    0.3002507  61.32  0.002624667    1.116    0.104
        20 -11.6934    115.1435    183.5854   1.0627419460e+02   2.3007023395e+01    0.4194104    0.2930411 -35.82  0.002434644    1.972    0.493
        21  -8.1256    147.3505    185.3172   9.9726701624e+01   1.7601258983e+01    0.1270046   0.09002008  12.30 0.0003570361    1.735    0.424
        22  -9.5837     99.5065    180.8642   1.0937304993e+02   2.5844464455e+01    0.2388323    0.1725379  44.73 0.0006089683    1.144    0.126
        23 -10.9759    119.2223    173.6683   1.0405185465e+02   2.4121259027e+01    0.3903949    0.2290128  34.77  0.002054042    1.554    0.356
        24  -8.5462    204.4171    176.2573   8.7313881518e+01   9.4371151016e+00    0.2144883    0.1140374 -27.95  0.001137511    2.056    0.514
        25 -10.2141    248.6432    232.0034   8.8867596475e+01  -2.5315720949e+00    0.2041483    0.1011271  19.53  0.001353543    1.644    0.392
        26 -11.3514    105.4906    172.5823   1.0699661432e+02   2.6477006489e+01    0.6702697    0.2063816  39.32  0.002655009    2.675    0.626
        27  -9.3798     95.3098    168.0228   1.0876071659e+02   2.8887228284e+01    0.1802297    0.1578892  65.90  0.001169665    1.082    0.076
        28  -8.1241     59.5304    229.0726   1.2162119509e+02   2.2799131979e+01    0.1208782   0.08343975  68.75 0.0003901716    1.318    0.242
        29  -8.1847     72.0524    231.0730   1.1941582024e+02   2.1041041999e+01    0.1117505   0.08606862  56.94  0.000369481    1.119    0.107
        30 -10.0809     93.0187    159.3597   1.0817686123e+02   3.0945232437e+01    0.2391267    0.2214508  53.32 0.0004567221    1.111    0.100
        31 -11.0271     98.5444    152.6126   1.0587136198e+02   3.1463219577e+01    0.5432102     0.428156 -13.64  0.001815397    1.885    0.469
        32  -8.8592    113.1211    151.6495   1.0215224727e+02   2.9281151538e+01    0.2241062    0.1822557 -82.38 0.0009744355    1.398    0.285
        33  -9.7880    134.1720    147.0496   9.6352694931e+01   2.6473166891e+01    0.6745374    0.1937761 -53.27  0.002129227    4.554    0.780
        34  -9.4561    250.0000    225.9633   8.7810520986e+01  -2.2042315533e+00    0.1424852   0.05144277 -26.63 0.0008040277    2.953    0.661
        35 -10.3834     45.8600    223.6293   1.2388636437e+02   2.5167932991e+01    0.2132622    0.1183483  58.53  0.001222176    1.391    0.281
        36  -8.1302    115.3694    144.6939   1.0044057519e+02   3.0283928218e+01    0.1460076   0.09921435  66.70 0.0006575325    1.755    0.430
        37 -10.3597    108.7385    139.2370   1.0115251150e+02   3.2543079288e+01    0.4883655    0.2852285 -41.29  0.002258878    2.123    0.529
        38 -10.8627     97.6467    138.1944   1.0384105044e+02   3.4619753447e+01    0.2654617    0.2497439  53.21 0.0002825716    1.083    0.076
        39  -9.7673    105.8385    130.9068   1.0040357230e+02   3.4797449836e+01    0.3444243    0.2930153  72.66  0.001131141    1.196    0.164
        40  -9.8267    115.4605    129.6587   9.7651928944e+01   3.3347879026e+01    0.3006716    0.2500207 -27.62  0.001105805    1.461    0.316
        41  -9.7323    103.5258    125.3786   9.9977663244e+01   3.6389885444e+01    0.2678352    0.2477513  -3.49  0.001010133    1.293    0.227
        42  -9.3054    135.6783    127.5135   9.2144780892e+01   2.9947371221e+01    0.4497795    0.1276485 -54.66  0.001094936    6.610    0.849
        43  -8.6126    110.8692    118.6231   9.6624529583e+01   3.6530495918e+01    0.2228379    0.1980128 -39.43 0.0005647714    1.242    0.195
        44 -10.6470     67.5678    115.7158   1.0858329062e+02   4.4247729276e+01    0.2833989    0.2232225 -89.35 0.0009653713    1.241    0.194
        45  -8.5635    168.2436    113.0751   8.1384097691e+01   2.5882566585e+01    0.2338062    0.1713597 -69.24   0.00107117    2.005    0.501
        46  -8.6431    135.0000    111.9808   8.8821961903e+01   3.3165554944e+01    0.2430049   0.08505156 -45.27 0.0008090045    2.988    0.665
        47  -9.7330    120.1180    111.2316   9.2497889293e+01   3.6336756250e+01    0.2891914    0.2018371  60.29  0.001356207    1.582    0.368
        48  -8.9773    205.2280    109.9984   7.3486055345e+01   1.8487910407e+01    0.3043485    0.1924315  36.40   0.00107257    1.591    0.371
        49  -9.0443    134.6174    105.1840   8.7261523380e+01   3.4609106055e+01    0.2173241     0.141527 -33.66 0.0009604836    1.740    0.425
        50  -8.6273     60.5417    217.7917   1.2076347629e+02   2.4487315863e+01    0.1398806   0.08244754  72.66 0.0009183935    1.678    0.404
        51 -10.6841    166.3644     66.7450   6.9023665672e+01   3.4265246478e+01    0.4343326    0.3299409 -86.02 0.0006133773    1.713    0.416
        52 -11.3748     48.3791    216.8778   1.2306278112e+02   2.6002604963e+01    0.3577347    0.1288175  51.15  0.001987975    2.027    0.507
        53 -11.6863    171.6905     52.4175   6.3492815825e+01   3.5131758657e+01    0.6166217    0.4982904 -15.89  0.001078835    1.301    0.231
        54  -8.6982    238.3108    248.9751   9.2670746090e+01  -2.6394057524e+00    0.1155267   0.07556695 -47.56 0.0007044327    4.243    0.764
        55 -10.6699      1.9132    247.3365   1.3231675440e+02   2.5704676535e+01     0.117684   0.07676873  50.70 0.0002410993    1.094    0.086
        56 -19.4404     25.4675    141.8829   1.2364332859e+02   4.2948152723e+01     17.78708     3.244945 -79.01   0.05564069    5.525    0.819
        57  -9.5905    189.8881     15.1050   4.8757881420e+01   3.5007024011e+01    0.2354377    0.1842777 -56.27 0.0007744832    1.259    0.206
