#   1 NUMBER                 Running object number                                     
#   2 MAG_AUTO               Kron-like elliptical aperture magnitude                    [mag]
#   3 X_IMAGE                Object position along x                                    [pixel]
#   4 Y_IMAGE                Object position along y                                    [pixel]
#   5 X_WORLD                Barycenter position along world x axis                     [deg]
#   6 Y_WORLD                Barycenter position along world y axis                     [deg]
#   7 A_WORLD                Profile RMS along major axis (world units)                 [deg]
#   8 B_WORLD                Profile RMS along minor axis (world units)                 [deg]
#   9 THETA_WORLD            Position angle (CCW/world-x)                               [deg]
#  10 FWHM_WORLD             FWHM assuming a gaussian core                              [deg]
#  11 ELONGATION             A_IMAGE/B_IMAGE                                           
#  12 ELLIPTICITY            1 - B_IMAGE/A_IMAGE                                       
         1 -14.5007     68.6743    144.3484   9.8492160550e+01   3.7466877968e+01     5.091579     2.464592  65.79   0.01542521    4.445    0.775
         2 -13.2340    201.0584     42.5405   4.1350826470e+01   3.0194729080e+01      1.07958    0.9920635 -65.89  0.004436329    1.127    0.113
         3 -13.4745    211.4896     32.4929   3.7836188352e+01   2.9175397734e+01     0.829262    0.7782493  26.41  0.001910621    1.468    0.319
         4 -12.8569    237.0898      6.6641   3.0234008627e+01   2.6790679893e+01    0.8059633    0.6027761 -78.41  0.005090784    1.068    0.064
         5 -10.6860    122.2922    198.7658   9.3518505886e+01   1.5816290852e+01    0.3725511    0.2590472 -74.94  0.001114681    1.801    0.445
         6 -10.5105    139.9912    249.7188   9.6925875771e+01   3.0456847462e+00    0.2611997    0.1989285  41.64   0.00161789    1.165    0.142
         7 -12.8175     53.6938    186.1655   1.0864853076e+02   2.9026412345e+01     1.255877    0.9747493  87.64  0.007205992    1.207    0.171
         8 -14.2462     38.0870    192.2953   1.1310281427e+02   2.9398511787e+01     4.974792      1.73717  64.57   0.01326138    5.598    0.821
         9 -10.9260    111.6979    197.0657   9.5792061535e+01   1.7955393773e+01    0.6010756    0.3597273  -5.10   0.00194178    4.543    0.780
        10  -9.6756     58.9567    196.3236   1.0852343701e+02   2.5943381845e+01    0.2205553    0.1783701 -76.95 0.0004115758    1.187    0.157
        11 -10.6339    183.6675    212.3625   8.2106370900e+01   2.8160793006e+00    0.2842103    0.2084832 -31.42  0.001152438    1.384    0.277
        12  -9.3557     20.7141    195.2231   1.1739813363e+02   3.0521084832e+01    0.2538384    0.1596645  40.56  0.001474884    1.558    0.358
        13  -8.9675    151.0128    193.4836   8.5891158781e+01   1.1983812484e+01    0.2327116    0.2091647  77.08 0.0009517078    1.310    0.237
        14  -9.3260    148.2882    189.6143   8.5822260543e+01   1.3278565829e+01    0.3231286    0.2264393  76.53  0.001411986    2.279    0.561
        15  -9.4409    146.4770    186.0035   8.5584828075e+01   1.4372788672e+01    0.2644237    0.1988794  55.05 0.0005451611    1.466    0.318
        16 -10.2874    118.2087    190.7216   9.3193547535e+01   1.8294322404e+01    0.2822678    0.1980467 -89.55  0.001292384    1.950    0.487
        17  -9.2553     85.1513    185.7515   1.0066269625e+02   2.4788229036e+01    0.3742994    0.2239608  73.10  0.001017169    2.266    0.559
        18  -9.6317     81.5304    181.9782   1.0103484024e+02   2.6236661278e+01     0.490118      0.23805  36.57  0.001430058    1.992    0.498
        19 -15.5800      6.3835    167.2734   1.1857603575e+02   3.8369183341e+01     13.03505     1.156296 -74.74    0.0305159    8.277    0.879
        20  -9.6461     99.4481    180.9395   9.6277571016e+01   2.3691999327e+01    0.2786272    0.2114697  38.83  0.000625926    1.287    0.223
        21  -8.2411     88.4790    178.4993   9.8714339741e+01   2.6021533288e+01    0.1449066    0.1344739  74.37 -2.239372e-05    1.018    0.018
        22 -10.4680     41.3997    176.4321   1.1063650029e+02   3.2843590927e+01    0.4339393    0.3108397  -7.61  0.002099569    2.130    0.530
        23 -10.3836    186.8704    174.9196   7.4437116685e+01   9.3143371719e+00    0.3933086     0.305601 -53.63  0.001198754    1.432    0.301
        24 -12.0557     80.6781    158.7825   9.7581604999e+01   3.2077208585e+01     1.050246    0.5829841  64.26 0.0004905444    2.575    0.612
        25 -12.8568     69.0584    153.7849   1.0000613921e+02   3.5029823686e+01    0.6186966    0.4468088 -54.05  0.001184181    1.344    0.256
        26 -10.0416     92.6576    249.0903   1.0667713570e+02   1.0078984150e+01    0.3071228     0.139688  39.81 0.0008595251    1.795    0.443
        27  -9.1665    230.0000    165.9886   6.4389919898e+01   3.5128779643e+00    0.2199252   0.06805224 -40.61 0.0007738429    2.884    0.653
        28 -13.5616     19.8695    220.1582   1.1934982723e+02   2.5037686830e+01    0.7645172    0.6006513  59.63  0.005269612    1.116    0.104
        29 -10.0057     33.2257    156.0712   1.1042325241e+02   3.8754418737e+01    0.2965299    0.2559054  56.64  0.001279004    1.190    0.160
        30 -11.4853     88.0692    152.1372   9.4319112676e+01   3.2582234815e+01    0.6782287    0.4646184 -24.48   0.00296714    2.052    0.513
        31 -10.4714    133.7534    145.4352   8.0520052265e+01   2.5920129911e+01     1.198585    0.2840647 -54.15  0.002691138    6.068    0.835
        32 -10.6715     54.5944    147.4497   1.0314627077e+02   3.8541230744e+01    0.7787752    0.2981876 -53.32  0.003006634    2.392    0.582
        33 -10.4940     58.4964    146.4869   1.0185062418e+02   3.8293571799e+01    0.2651667    0.2273188 -38.34  0.001311737    1.272    0.214
        34  -8.5440    112.0381    150.2141   8.7289969282e+01   2.8929948593e+01    0.2528839     0.169341  63.98  0.001062251    1.902    0.474
        35  -9.3089    174.8438    149.1389   7.1584343497e+01   1.6842275844e+01     0.225218    0.2071868 -72.97 0.0004688876    1.210    0.173
        36  -9.6392     48.8272    145.2984   1.0449841220e+02   3.9778925890e+01    0.3294936     0.240255  15.55  0.001718565    1.668    0.400
        37 -10.7785     28.3600    143.9665   1.1028165634e+02   4.2252752173e+01    0.3917511    0.3162467  25.88  0.001862135    1.430    0.301
        38 -10.3381    101.9395    138.3958   8.7606156848e+01   3.3629341298e+01    0.5788357    0.3674748 -20.59  0.002206255    2.584    0.613
        39 -10.1179    105.8955    130.9681   8.4824965413e+01   3.4712611283e+01    0.4195664    0.3305326 -61.90  0.001620377    1.304    0.233
        40  -9.5917    111.3920    129.1647   8.2844001865e+01   3.4112190057e+01    0.3209141    0.2440605  11.84  0.000785371    1.677    0.404
        41 -11.5915     89.3953    137.7722   9.1107746965e+01   3.5942557478e+01    0.2988214    0.2628783 -38.13 0.0004767823    1.182    0.154
        42 -10.8042     25.4305    137.4263   1.1028842317e+02   4.4152658193e+01    0.3317056    0.2201393  35.13  0.001420128    1.650    0.394
        43 -10.0790    134.8870    128.3298   7.6280714634e+01   2.9618891730e+01    0.4277267    0.3361894 -55.11  0.002045064    1.297    0.229
        44 -11.3774     67.9388    171.7517   1.0310007005e+02   3.0688596255e+01    0.4604509     0.304862 -31.99  0.002128218    2.095    0.523
        45  -9.7137    116.9968    123.7078   7.9970556177e+01   3.4309081873e+01    0.2247805    0.2048203  36.68 0.0009154969    1.117    0.105
        46  -8.6632    163.3953    121.1998   6.7644586382e+01   2.5100730374e+01    0.2179317    0.1410213 -54.03 0.0005642956    1.634    0.388
        47  -9.1745    135.0000    120.0113   7.4214063926e+01   3.1465616384e+01    0.2608681   0.08808249 -46.42 0.0008013751    2.935    0.659
        48 -10.1348     98.4696    124.9541   8.5603232247e+01   3.7514596829e+01    0.3187834    0.2478409 -18.09  0.001060412    1.594    0.373
        49  -8.7784     86.0106    119.9545   8.8220831181e+01   4.0881406422e+01    0.2460051    0.1817938  74.24  0.001117516    1.796    0.443
        50 -11.4252     72.1527    167.1399   1.0128172149e+02   3.1244094247e+01    0.4507452    0.3178189 -59.53 0.0008334115    1.369    0.270
        51  -9.1042    107.7859    118.2486   8.1255919679e+01   3.7376789084e+01    0.2096287    0.2036729  73.64 0.0003506754    1.062    0.058
        52  -9.8137    231.0707    113.7089   5.3337570879e+01   1.2527834015e+01    0.2648273    0.2396402 -47.09 0.0007663614    1.036    0.035
        53  -8.9561     34.8355    171.8204   1.1180972812e+02   3.4685241617e+01    0.1887202    0.1599803 -69.54 0.0004081574    1.146    0.127
        54 -11.0142    244.4979    107.9971   5.0215461227e+01   1.1012967861e+01    0.2729411    0.1945522  33.64  0.001509146    1.894    0.472
        55 -10.2880    115.3913    108.5967   7.6608008172e+01   3.8085078138e+01    0.3933736    0.2557196 -26.53  0.001621401    1.989    0.497
        56  -8.8880    134.7639    106.7169   7.0862644931e+01   3.4419667554e+01    0.2494972     0.122884 -54.39 0.0008897642    2.369    0.578
        57 -10.5028    240.1721    169.1386   6.3285644419e+01   1.3611310202e+00    0.2031266    0.1593124 -14.66 0.0004901897    1.210    0.174
        58 -10.7845     33.4913    109.0982   1.0325556562e+02   5.0447429533e+01    0.2905251    0.2390709 -67.32  0.001387731    1.122    0.109
        59 -10.5982     33.3246    100.0827   1.0156633335e+02   5.2638533831e+01     0.298035    0.2699969 -10.81 0.0009441586    1.185    0.156
        60 -10.0350     41.3587    104.1572   9.9546470967e+01   5.0855914441e+01    0.2041948    0.1661076 -61.14 0.0005910873    1.132    0.117
        61 -10.2039     38.0156    102.3005   1.0034386433e+02   5.1648932775e+01     0.230523    0.2108529  46.13  0.000665574    1.241    0.194
        62  -9.3169    205.5829    110.1211   5.6640115941e+01   1.8231787402e+01     0.255277    0.2079965  44.75 0.0006379707    1.354    0.262
        63 -17.0285     14.2337    242.6337   1.2175541728e+02   2.0966601762e+01     6.821749     2.209802  25.07   0.02701464    4.782    0.791
        64  -9.4176     53.0247     91.0332   9.2330307131e+01   5.2590798696e+01    0.2125922    0.1708992  75.55 0.0009299307    1.658    0.397
        65  -9.0869     31.9445    204.8141   1.1563708121e+02   2.7169809810e+01    0.2383447    0.1254573  69.19  0.001187187    1.913    0.477
        66  -8.9095     74.9506     85.1878   8.2883940001e+01   5.0721010092e+01    0.2135398    0.1909873  66.01 0.0006850612    1.345    0.257
        67  -8.5953    159.3033     83.3301   5.8781557450e+01   3.3501730242e+01    0.1484339    0.1193484  11.93 0.0003092815    1.652    0.395
        68  -9.0421    151.0112     82.8296   6.0445547368e+01   3.5521773867e+01    0.2284179    0.1941136 -84.09 0.0005820979    1.305    0.234
        69  -9.1992    110.6145     80.6435   7.0123834060e+01   4.4964934613e+01    0.2861218    0.2153242  88.75  0.001101914    1.977    0.494
        70  -8.5417     69.4842     81.4941   8.3745687979e+01   5.2383627135e+01    0.1401122     0.132653 -23.43 0.0001260658    1.044    0.042
        71  -8.7488     54.8552     65.8292   8.4491848849e+01   5.7770788582e+01    0.1960413    0.1634901 -16.82  0.000296421    1.120    0.107
        72 -12.7822    190.8339     50.1619   4.4553950963e+01   3.1479737981e+01    0.9385719    0.7353355  52.24  0.001143678    1.393    0.282
        73 -14.6226      9.3490    207.4985   1.2073578040e+02   2.8815260257e+01     1.132157    0.9343106  10.95  0.007730334    1.713    0.416
        74 -10.9951    194.5133    198.0126   7.7312706099e+01   3.6349370253e+00    0.3444042    0.2733282 -46.58  0.001952779    1.391    0.281
        75  -8.8595     88.8621    210.1485   1.0307912660e+02   1.8609402443e+01    0.1983862    0.1670001  71.09 0.0004261431    1.145    0.126
        76  -8.7957    198.0501     23.9063   3.7301881065e+01   3.3233077023e+01     0.183025    0.1485061  38.98  0.000683665    1.641    0.391
        77 -10.7545    191.6341    192.2754   7.6828114389e+01   5.1652855085e+00    0.5927119     0.318098 -59.93  0.002287044    3.238    0.691
        78  -8.7007    189.5012     14.9763   3.6100326196e+01   3.6194146600e+01    0.1748765     0.120323 -36.54  0.001007576    1.562    0.360
        79 -11.4550    109.8564    203.6948   9.7236923998e+01   1.6782324062e+01    0.4904197    0.2903997  28.70  0.001019239    1.787    0.440
