#   1 NUMBER                 Running object number                                     
#   2 MAG_AUTO               Kron-like elliptical aperture magnitude                    [mag]
#   3 X_IMAGE                Object position along x                                    [pixel]
#   4 Y_IMAGE                Object position along y                                    [pixel]
#   5 X_WORLD                Barycenter position along world x axis                     [deg]
#   6 Y_WORLD                Barycenter position along world y axis                     [deg]
#   7 A_WORLD                Profile RMS along major axis (world units)                 [deg]
#   8 B_WORLD                Profile RMS along minor axis (world units)                 [deg]
#   9 THETA_WORLD            Position angle (CCW/world-x)                               [deg]
#  10 FWHM_WORLD             FWHM assuming a gaussian core                              [deg]
#  11 ELONGATION             A_IMAGE/B_IMAGE                                           
#  12 ELLIPTICITY            1 - B_IMAGE/A_IMAGE                                       
         1 -13.9985     68.9917    144.4618   9.5575588678e+01   3.7417758244e+01     4.164007     2.083953  69.24  0.006014496    5.312    0.812
         2 -13.4405    205.1642     42.9460   3.8256350159e+01   2.9270154115e+01     1.182649     1.133175  53.79    0.0062571    1.329    0.248
         3 -13.3949    217.3363     31.8401   3.4545125900e+01   2.8094705801e+01    0.9287958    0.7296847  48.25  0.003867132    1.685    0.407
         4 -11.7200    246.3911      9.4412   2.7880276409e+01   2.4915711644e+01     0.518505    0.3353316  56.25  0.003349551    2.074    0.518
         5 -12.3708    243.6214      3.5891   2.6987936532e+01   2.6073182153e+01    0.6795172     0.509272  61.62  0.004945949    1.709    0.415
         6  -9.9126      1.8707      4.4868   8.2607537190e+01   7.4064753133e+01    0.3180421    0.0583303 -43.59  0.001208167    4.860    0.794
         7 -10.0103     52.3998      4.6937   5.7263288123e+01   6.7199461373e+01     0.242266    0.1839803  53.54 0.0009986227    1.501    0.334
         8  -9.7526     47.7151      2.2725   5.7896499377e+01   6.8237607991e+01    0.2127051    0.1803618  60.66 0.0007611538    1.626    0.385
         9  -9.3430    111.1819    204.0390   9.4266088409e+01   1.6174153555e+01    0.2091816    0.1903464  -8.48 0.0004576817    1.227    0.185
        10 -10.0817    139.7489    249.6651   9.4356551284e+01   2.5640927961e+00    0.2997067    0.1969425  52.58   0.00162215    1.741    0.425
        11 -10.1378    102.0000    249.0544   1.0235297377e+02   8.1630456234e+00    0.2785416     0.181299 -65.33  0.001249027    1.795    0.443
        12 -11.4470    101.3284    243.4599   1.0185540363e+02   9.3414659338e+00    0.6505043    0.3744797 -80.74  0.003085352    2.550    0.608
        13 -14.9785      5.5013    142.0173   1.1434464697e+02   4.4634917645e+01     6.450932     1.791979 -77.80    0.0221551    3.533    0.717
        14 -11.2559     68.5957    167.1890   9.9600009458e+01   3.1640187500e+01    0.3377824    0.2571023 -22.23  0.001661651    1.699    0.411
        15 -16.7009     14.2021    242.0641   1.1993090237e+02   2.0479700255e+01     6.926124     2.555815  21.86   0.02807377    4.412    0.773
        16  -9.4544    186.1183    173.3341   7.1180861871e+01   9.7470830549e+00    0.3258839    0.2367985 -43.85  0.001266685    1.336    0.252
        17 -10.3269    114.7301    173.4444   8.8145508809e+01   2.2734218652e+01    0.2985304    0.1400737  40.79  0.001057553    2.088    0.521
        18 -12.5619     77.6386    158.1202   9.5516592136e+01   3.2648582363e+01      1.77895    0.7205696  56.54 0.0007091719    5.030    0.801
        19 -12.7392     65.4880    154.2549   9.8369372569e+01   3.5387841413e+01    0.5303016    0.4123518 -26.07 0.0008157498    1.549    0.355
        20  -8.7266    107.6572    204.3022   9.5165248359e+01   1.6679125237e+01    0.1499372    0.1048561  63.87 0.0006398496    1.679    0.404
        21 -11.0681    241.3975    169.7689   6.0194112273e+01   1.3187227226e+00    0.3014279    0.1770068  29.55   0.00157765    2.031    0.508
        22  -8.7260    110.6490    167.1201   8.8022178671e+01   2.4981563200e+01    0.2407693    0.1879083 -78.40  0.001140844    1.486    0.327
        23  -9.6030     45.9911    166.9405   1.0586027256e+02   3.4590414704e+01     0.211355    0.1859271  86.74 0.0004594532    1.059    0.055
        24  -8.3352    102.0107    163.8139   8.9724968674e+01   2.7290041799e+01     0.217609    0.1619419 -81.17 0.0005125407    1.607    0.378
        25  -9.0343     53.5966    161.8216   1.0300735413e+02   3.4991204600e+01    0.2469827    0.1877647   5.08  0.001257409    1.683    0.406
        26 -10.3680     69.8179    160.7929   9.8217667624e+01   3.3104114504e+01    0.3565705    0.2717011  45.79  0.001812806    1.340    0.254
        27 -11.4198     85.3347    152.2933   9.2216824966e+01   3.2944028000e+01    0.6295477    0.4514538 -20.80  0.002821864    1.860    0.462
        28 -14.4834     37.4964    195.7483   1.1138639899e+02   2.8379589709e+01     3.193569     1.469623  70.73   0.00710834    2.858    0.650
        29 -13.6093     47.1939    186.7269   1.0800045415e+02   2.9471263138e+01      1.70308     1.096544  57.87  0.008711549    1.560    0.359
        30 -10.4991    133.6045    144.2743   7.7132445046e+01   2.6168016190e+01        1.192    0.2968931 -54.17   0.00268028    5.905    0.831
        31  -9.1088    174.6673    149.3008   6.8503989372e+01   1.6854692263e+01    0.2299681    0.1821065 -82.27 0.0009832646    1.725    0.420
        32 -10.1833     54.3877    147.1948   1.0047876385e+02   3.8664752609e+01    0.3969363    0.2232734 -69.31  0.001748925    1.741    0.426
        33  -9.0677    144.0000    146.0093   7.4892554919e+01   2.3696376790e+01    0.2663245   0.08728933 -47.68 0.0008096854    2.993    0.666
        34 -10.0584     32.4732    144.0312   1.0660765281e+02   4.1917120715e+01      0.39794    0.2854836  65.07  0.002103237    1.536    0.349
        35 -11.6462     87.3730    137.7592   8.8663961161e+01   3.6291475189e+01    0.3116556    0.2801466 -33.97 0.0004354398    1.141    0.124
        36 -10.1281    100.2510    138.5411   8.5019672159e+01   3.3880888329e+01    0.5702232    0.3624974 -19.47  0.002162304    2.507    0.601
        37  -9.0794     82.7323    195.0117   9.9999864938e+01   2.2691579867e+01    0.2041782    0.1869029  83.90  0.001171033    1.057    0.054
        38  -9.8155    105.9816    130.7983   8.1582602126e+01   3.4729545813e+01    0.3720948     0.350681 -26.59  0.001321626    1.078    0.072
        39  -9.5212    110.0189    129.4767   8.0105269197e+01   3.4285707297e+01    0.3222032    0.2458789 -10.84 0.0009279533    1.704    0.413
        40 -10.3637    135.5670    129.0812   7.3048754572e+01   2.9276540034e+01    0.5523243    0.1525131 -48.86  0.001534312    3.690    0.729
        41  -9.8007     97.1415    125.0066   8.2822810418e+01   3.7755707538e+01    0.3222646    0.2596171  -0.37 0.0008969831    1.504    0.335
        42 -11.1178    232.8625    169.9267   6.1643792708e+01   2.5804063508e+00    0.4289308    0.3257598 -83.33  0.002197603    2.477    0.596
        43  -8.7052     81.0746    183.4725   9.8735589286e+01   2.5746828897e+01    0.2060942    0.1396268  35.78 6.311935e-05    1.469    0.319
        44 -15.2175     10.5716    209.5172   1.1871075284e+02   2.7872728211e+01     1.927251     1.211977  89.75   0.01148342    1.370    0.270
        45  -9.8721     44.0897    129.8256   1.0070183145e+02   4.4348991514e+01    0.2217208    0.1892122  80.51 0.0008685156    1.267    0.211
        46  -9.4089     99.3469    180.8954   9.3511460413e+01   2.3530721184e+01    0.2660464    0.2188771  22.81 0.0006761816    1.311    0.237
        47  -9.0519    106.8844    118.2205   7.8248440698e+01   3.7554227901e+01    0.2124477    0.2060982  79.06  0.000339821    1.088    0.081
        48  -9.9346    231.3430    113.8534   5.0397461099e+01   1.2749431036e+01    0.2594513    0.2179313 -43.11 0.0008181204    1.043    0.041
        49  -8.8520    135.0000    112.9434   6.9133984448e+01   3.2988726621e+01    0.2605331   0.08762613 -45.01  0.000801185    2.934    0.659
        50 -11.3751     52.9803    108.4569   9.3372560837e+01   4.8645542915e+01    0.7771795    0.2296939 -56.30  0.002612959    2.954    0.661
        51  -9.1928    114.9773    109.5043   7.3644491593e+01   3.7943640082e+01    0.3533119    0.1953668 -30.00  0.001292993    2.423    0.587
        52 -10.1813     28.0444    107.8866   1.0212069607e+02   5.1460383802e+01    0.4145931    0.1784891  11.21  0.001634699    3.167    0.684
        53  -9.0139    134.6259    106.7725   6.7608176014e+01   3.4394584201e+01    0.2251137    0.1430568 -53.49 0.0006639475    1.677    0.404
        54 -10.7314    249.5501    100.7383   4.5260421331e+01   1.1692274704e+01    0.3333259   0.09944609 -42.06  0.001314754    2.676    0.626
        55 -10.7391    242.2871    175.7972   6.1210581901e+01   1.6884140918e-01    0.2470171    0.1723914  19.26  0.001426604    1.640    0.390
        56 -10.2965     86.5553    173.8468   9.5737526681e+01   2.7306736380e+01     0.503004    0.3211457  20.70  0.002220548    1.899    0.473
        57  -8.0472     45.3140    101.6657   9.4562744582e+01   5.1213013493e+01    0.1388285    0.1085093  73.46 0.0007046123    1.686    0.407
        58  -9.1156    205.4428    110.1024   5.3624978902e+01   1.8425446639e+01     0.216821     0.199302  36.94 0.0006237102    1.245    0.196
        59  -9.9068     18.3191     90.3086   1.0226913258e+02   5.6469572548e+01     0.227167    0.1609282  19.30 0.0006135956    1.586    0.369
        60  -8.3963    160.4608     83.5090   5.5401184262e+01   3.3138906445e+01    0.1448823    0.1409586 -81.50 5.842496e-05    1.027    0.026
        61  -8.7957     72.4374     83.4570   7.9833164320e+01   5.1562212281e+01    0.2321099    0.1308088  46.27 0.0004542722    2.029    0.507
        62  -8.2781    129.9233     65.0135   5.6883148320e+01   4.3394514644e+01    0.1727459    0.1582434  54.69 0.0004007594    1.045    0.043
        63  -8.5464     89.5697     65.0743   6.8156225936e+01   5.2067815839e+01    0.1855872    0.1243763 -64.59 0.0004977627    2.342    0.573
        64  -9.1734     48.8609     62.9034   8.2415645380e+01   5.9269677789e+01    0.1950756    0.1729309 -16.76 0.0003712092    1.041    0.039
        65 -10.5773     13.4502     60.0420   9.7122428533e+01   6.3513441560e+01    0.2755563     0.184032 -47.67 0.0004492775    1.257    0.204
        66 -12.8210    195.4516     49.5011   4.0960644594e+01   3.0520026492e+01    0.9755273    0.7882772  34.98  0.001032408    1.671    0.401
        67  -9.0384    122.8651    199.8219   9.0748548998e+01   1.5205747842e+01    0.2721248     0.190108 -89.30  0.001218156    2.109    0.526
        68 -10.8683    192.5680    194.1773   7.3954975558e+01   4.5848547549e+00    0.8739595    0.4493776 -63.14  0.002636921    5.524    0.819
        69 -11.5609     63.8603    171.9156   1.0163242275e+02   3.1085374288e+01    0.7711591    0.4575208 -22.91   0.00300025    2.983    0.665
        70  -8.3433    234.4757     45.4574   3.5733650913e+01   2.2827490111e+01    0.1246793   0.09684207 -66.59 6.892069e-05    1.048    0.046
        71  -8.6716    189.4135     14.7617   3.3497589391e+01   3.6141369895e+01    0.1464528    0.1206052 -19.66 0.0007736076    1.608    0.378
        72 -10.5520    119.3326    212.0974   9.3548415846e+01   1.3084699709e+01    0.2822354    0.1920447  42.25 0.0007029367    1.378    0.274
        73  -9.2175     32.8032    210.2290   1.1381944391e+02   2.5476485910e+01    0.1593964    0.1387886 -63.65 0.0003071396    1.290    0.225
        74  -9.9354     74.6445    207.8992   1.0371062058e+02   2.0807530270e+01    0.3165828     0.226479  87.96 0.0009394244    1.515    0.340
        75  -8.0589    224.2822    206.6907   7.0142153100e+01  -2.4298859678e+00    0.1105076    0.1019817 -58.37 0.0002037427    1.565    0.361
