#   1 NUMBER                 Running object number                                     
#   2 MAG_AUTO               Kron-like elliptical aperture magnitude                    [mag]
#   3 X_IMAGE                Object position along x                                    [pixel]
#   4 Y_IMAGE                Object position along y                                    [pixel]
#   5 X_WORLD                Barycenter position along world x axis                     [deg]
#   6 Y_WORLD                Barycenter position along world y axis                     [deg]
#   7 A_WORLD                Profile RMS along major axis (world units)                 [deg]
#   8 B_WORLD                Profile RMS along minor axis (world units)                 [deg]
#   9 THETA_WORLD            Position angle (CCW/world-x)                               [deg]
#  10 FWHM_WORLD             FWHM assuming a gaussian core                              [deg]
#  11 ELONGATION             A_IMAGE/B_IMAGE                                           
#  12 ELLIPTICITY            1 - B_IMAGE/A_IMAGE                                       
         1 -13.5714    225.8588      7.2277   3.5440568421e+01   2.8464564737e+01     1.760742     1.078205  49.94   0.00944677    2.199    0.545
         2 -13.0242    182.1340     52.1027   5.0291280065e+01   3.2754896733e+01     1.196975    0.9134463  43.76 0.0007554849    1.478    0.324
         3 -13.1790    195.7372     40.9776   4.5703985208e+01   3.1117078527e+01    0.9293088    0.8227531 -72.42  0.003752753    1.016    0.015
         4 -13.4361    202.2768     33.9021   4.3276633738e+01   3.0530232326e+01    0.9948569     0.860755 -25.10  0.001440022    1.330    0.248
         5 -11.0684     40.9862     14.6233   7.4176188077e+01   6.9506824008e+01    0.2275029    0.1655771 -28.79  0.001355979    1.469    0.319
         6 -10.4064     67.1478      3.6564   5.7391762645e+01   6.5588969769e+01    0.2614409     0.116744  64.43  0.001102076    2.589    0.614
         7 -12.8545    107.6687    203.9189   1.0268073438e+02   1.7494526761e+01    0.8723777    0.6671239 -42.36  0.003528617    1.426    0.299
         8 -19.0206     13.8244    177.8132   1.2435786232e+02   3.4708505187e+01     18.53994     5.022625 -81.16   0.06359185    3.900    0.744
         9  -8.7271     80.4667    184.4725   1.0698277018e+02   2.5781806136e+01    0.1415078    0.1328562  43.25 -3.543413e-06    1.016    0.016
        10 -10.6718     99.0398    180.8601   1.0137429386e+02   2.3909388695e+01    0.4136237    0.2556436  25.94  0.001644116    1.603    0.376
        11 -15.3192     71.0435    147.0089   1.0377346117e+02   3.6346371774e+01     10.40944      5.20354  72.73   0.01220541    7.456    0.866
        12  -8.8196     86.8380    203.1814   1.0784643096e+02   2.0633855685e+01    0.1918605    0.1602933 -11.71 0.0007251438    1.381    0.276
        13 -10.2563     53.5151    163.5080   1.1173311671e+02   3.4398728899e+01    0.2407479    0.1844754   9.26 0.0006967662    1.485    0.327
        14 -10.8858     51.9380    166.7176   1.1262191518e+02   3.3774350511e+01    0.3971483    0.2971835 -25.95  0.001368405    1.615    0.381
        15 -11.6293     47.5261    172.4736   1.1460549016e+02   3.2836909485e+01    0.4535255    0.4276838 -57.15  0.001309832    1.110    0.099
        16 -10.1528     51.2121    171.3838   1.1342233982e+02   3.2692339911e+01    0.4304383    0.2369227  45.86 0.0006975915    1.807    0.446
        17 -10.0766    187.5144    176.0832   7.8904121130e+01   1.0185259400e+01    0.3340684    0.3057941 -16.53  0.001239771    1.171    0.146
        18 -10.0200    146.9563    172.7059   8.7411516075e+01   1.7754665584e+01    0.5172983    0.3277249 -71.30  0.001971753    3.082    0.676
        19 -10.4754    237.4444    173.7239   6.9159913419e+01   3.0070115839e+00    0.2440339     0.103659 -39.30  0.001026795    2.108    0.526
        20  -8.8152    193.6703    171.0136   7.6619303194e+01   1.0085964213e+01    0.1975509     0.164495 -23.32 0.0007539544    1.107    0.097
        21  -9.8412    185.3007    169.1871   7.7968836438e+01   1.1810940269e+01    0.2404646    0.2243779 -18.00 0.0008711414    1.180    0.152
        22  -9.7243     84.2893    173.5572   1.0428387007e+02   2.7842307552e+01     0.294379    0.2301871 -27.75 0.0009062717    1.458    0.314
        23  -9.6324    137.4038    167.7665   8.8808318141e+01   2.0480946418e+01    0.3567322    0.2043833  42.95  0.001518477    1.794    0.443
        24  -9.1405    110.5434    168.1359   9.6004145512e+01   2.5025491698e+01    0.2814897    0.2112905  30.88 0.0008841513    1.273    0.215
        25  -9.7674    230.0091    166.9587   6.9079828674e+01   5.1112362703e+00    0.2189889    0.1243388 -51.59  0.001016848    2.564    0.610
        26 -11.8563    120.5934    195.2292   9.8088807160e+01   1.7370077606e+01    0.6230266    0.3740167 -80.79  0.001591042    3.588    0.721
        27  -9.5104     81.7702    195.0589   1.0808947492e+02   2.3148428290e+01    0.3272024    0.2623106 -30.43  0.001786807    1.441    0.306
        28 -11.5173     92.7809    151.3388   9.7893897235e+01   3.1971981784e+01    0.7603957    0.5421206 -20.04  0.003413893    1.738    0.425
        29 -10.9464    133.7997    145.5667   8.5015078144e+01   2.6030737488e+01     1.228464    0.3395602 -53.26  0.003001984    5.380    0.814
        30  -9.4687    112.3549    150.6675   9.2032159085e+01   2.8812185456e+01       0.4027    0.2746556  61.42  0.001695614    2.005    0.501
        31  -9.3499    174.9164    149.1170   7.5900950411e+01   1.7461356473e+01    0.2174913    0.2063903 -63.97 0.0007499775    1.299    0.230
        32  -8.9754    143.6550    144.3346   8.2180930323e+01   2.4409624914e+01    0.1543757    0.1260286  81.29 -6.31296e-06    1.767    0.434
        33 -10.3334    105.1448    137.8329   9.1348580851e+01   3.3157077588e+01     0.590586    0.3453852 -26.25  0.002201566    2.393    0.582
        34 -10.3465    105.8923    130.7578   8.9496964668e+01   3.4715506834e+01    0.4221047    0.3431346 -57.84  0.001122975    1.321    0.243
        35 -11.6702     92.8754    137.4576   9.5013846577e+01   3.5381447824e+01    0.3038514    0.2712838 -23.95  0.000374166    1.138    0.121
        36 -10.6201    135.9410    127.5554   8.0186396225e+01   2.9589153055e+01    0.9225752    0.1991135 -46.98  0.002275014    4.874    0.795
        37 -10.0279    134.6406    106.6576   7.5092898085e+01   3.4326056929e+01    0.7126666    0.1490653 -45.12  0.001728494    5.011    0.800
        38 -10.2396    134.9071    119.3267   7.8381845477e+01   3.1586538668e+01    0.5103673     0.195461 -40.76  0.001686662    2.665    0.625
        39 -10.3472    113.2547    129.0550   8.6893349748e+01   3.3737417471e+01    0.3678856    0.3058102  -8.66 0.0006314389    1.315    0.239
        40 -11.1819    119.5637    123.1118   8.3590189653e+01   3.3878044118e+01    0.6541709    0.4350921  -6.21  0.002536741    2.289    0.563
        41  -9.2648    160.9911    127.9655   7.4100890385e+01   2.4379808649e+01    0.2732729    0.1640239 -61.64  0.001029879    2.587    0.613
        42  -8.5179     95.6146    127.7779   9.1976372735e+01   3.7284858866e+01    0.2026636    0.1509555 -63.11  0.000251308    1.504    0.335
        43 -10.3323    100.6429    124.9268   8.9717893027e+01   3.7072366298e+01    0.3177669    0.2629647  -4.60 0.0007921539    1.331    0.249
        44 -10.7801    142.8931    209.1556   9.4950743312e+01   1.1117235289e+01    0.3125459    0.2060598 -52.34   0.00141062    1.800    0.444
        45  -9.3529    109.0355    118.1358   8.5436009584e+01   3.7091328370e+01    0.2316443    0.2196399   2.47 0.0003667303    1.017    0.017
        46  -9.8951    231.3585    113.7742   5.7857190867e+01   1.3370693802e+01    0.2378489    0.2074724 -27.96 0.0006924609    1.045    0.044
        47  -8.8852    167.8505    112.7287   6.8788066505e+01   2.5942083182e+01    0.2956667     0.195699 -64.38  0.001233108    2.196    0.545
        48 -11.8766    117.6991    109.1701   8.0479438587e+01   3.7381117233e+01    0.7061991    0.5862351 -73.53   0.00332895    1.525    0.344
        49  -9.4739    205.5828    110.1367   6.1012854518e+01   1.8696632305e+01    0.2411319    0.2007551  37.92 0.0006664259    1.322    0.243
        50 -10.8431     30.4079    194.9267   1.2139813745e+02   2.9203509674e+01    0.3660596     0.196553  49.01  0.001110389    1.719    0.418
        51  -9.4429    131.3020     98.7437   7.3776934477e+01   3.6682109060e+01    0.3594237     0.232025 -87.04  0.001138391    3.894    0.743
        52 -11.2612    183.0748    206.9928   8.5654822724e+01   5.4572926953e+00    0.4910193    0.2330678  15.84  0.001946946    2.851    0.649
        53  -9.4545     93.3621    205.7178   1.0652752414e+02   1.9173379878e+01    0.2636119    0.2071415   7.46  0.001094341    1.389    0.280
        54 -10.5221    149.2323    188.5860   8.9898139529e+01   1.4127794182e+01     0.542716    0.3787696 -83.41   0.00221888    3.125    0.680
        55  -9.9466     89.8637    212.4650   1.0826740292e+02   1.8216773062e+01    0.2470896    0.2122652  67.14 0.0005320997    1.267    0.211
        56  -8.4875    184.3425     77.3101   5.6520013079e+01   2.8539604074e+01     0.141473    0.1090896  18.73 0.0007045044    1.697    0.411
        57 -10.0623     63.1526     69.5619   8.7421324317e+01   5.6352404752e+01     0.261535    0.2301375 -33.83 0.0004639287    1.133    0.118
        58 -11.3883    204.8555    199.8977   7.9972230098e+01   3.4800674333e+00    0.5649551    0.2758023   5.04  0.002007301    4.011    0.751
        59  -9.7386    168.0191    232.7396   9.3083042668e+01   3.3496505072e+00    0.2449052    0.1858868  27.82 0.0008128663    1.233    0.189
        60 -11.0102    157.9151    222.3297   9.3649422379e+01   6.5006356622e+00    0.2655661    0.2000796 -51.38 0.0008926785    1.701    0.412
        61 -10.3961    184.1808    212.4522   8.6376144905e+01   4.3868642124e+00     0.248098    0.1761397 -30.76   0.00142687    1.390    0.281
        62 -11.3647    193.2477    195.7146   8.1508868947e+01   5.8564655225e+00     1.331418    0.7015786 -55.69  0.005208405    3.691    0.729
        63 -10.8185    119.8209    186.3839   9.6803896572e+01   1.9393622785e+01    0.2688476    0.2273237 -17.55 0.0006740294    1.238    0.192
        64  -9.4016    189.6836     15.0073   3.9936974516e+01   3.5391385314e+01    0.1720522    0.1471774 -58.22 0.0006036215    1.114    0.102
        65 -10.2640    164.0256    211.9855   9.0618497580e+01   7.4118415127e+00    0.2158167     0.180605   4.33 0.0008968803    1.025    0.025
        66 -11.6042    111.8565    204.7444   1.0175704149e+02   1.6699688284e+01     0.404055    0.3111645  83.28 0.0009687437    1.821    0.451
        67  -9.4013     91.8911    183.9780   1.0380491470e+02   2.4261188431e+01    0.2163892    0.2083967  22.15 0.0006261282    1.027    0.027
