#   1 NUMBER                 Running object number                                     
#   2 MAG_AUTO               Kron-like elliptical aperture magnitude                    [mag]
#   3 X_IMAGE                Object position along x                                    [pixel]
#   4 Y_IMAGE                Object position along y                                    [pixel]
#   5 X_WORLD                Barycenter position along world x axis                     [deg]
#   6 Y_WORLD                Barycenter position along world y axis                     [deg]
#   7 A_WORLD                Profile RMS along major axis (world units)                 [deg]
#   8 B_WORLD                Profile RMS along minor axis (world units)                 [deg]
#   9 THETA_WORLD            Position angle (CCW/world-x)                               [deg]
#  10 FWHM_WORLD             FWHM assuming a gaussian core                              [deg]
#  11 ELONGATION             A_IMAGE/B_IMAGE                                           
#  12 ELLIPTICITY            1 - B_IMAGE/A_IMAGE                                       
         1 -11.1964      8.8295     34.5177   1.3970854966e+02   7.0119118618e+01    0.7983439    0.3099349 -80.60 0.0005098952    2.729    0.634
         2 -12.6974     22.4047     31.4348   1.3028149977e+02   7.0117594394e+01     1.086793    0.9226652  16.77 0.0005835724    1.310    0.237
         3 -11.4979     50.7817      4.8974   9.8459357448e+01   7.1833077529e+01    0.9668421    0.6527534  48.24  0.004530215    1.673    0.402
         4 -10.9242     39.7956      3.6281   1.0448636193e+02   7.3858915805e+01    0.6182302     0.350123 -23.56  0.003027985    1.860    0.462
         5 -13.1870     28.2507      5.9189   1.1442791830e+02   7.5004660650e+01     1.398388    0.9184543 -31.30  0.002053777    1.353    0.261
         6 -11.3855     17.3619      8.8172   1.2484847542e+02   7.5466494534e+01    0.5246462     0.400794 -27.45  0.001465153    1.131    0.116
         7 -12.0842      2.7940      7.6702   1.3682720639e+02   7.6477680885e+01    0.6689841    0.4828508  29.44  0.002813772    1.702    0.412
         8 -11.6007      7.5486      2.0413   1.3018711895e+02   7.7502970197e+01    0.6856057    0.3041618  16.54  0.002133051    2.408    0.585
         9 -10.8705    118.9779     30.8189   8.5668563985e+01   5.2582827785e+01    0.8766888     0.553746 -23.33  0.001242572    1.706    0.414
        10 -10.6895    105.5539     21.9246   8.5483715738e+01   5.7297925375e+01    0.7739337    0.5762721 -71.31   0.00163812    1.845    0.458
        11 -11.0602    109.6414     15.9929   8.1550727148e+01   5.6996643247e+01    0.8899972    0.4779344 -13.79  0.001955404    2.226    0.551
        12  -9.8900    114.2370     15.6253   8.0193018293e+01   5.5823208394e+01    0.3383711    0.2928194  47.07  0.000670599    1.065    0.061
        13 -10.7059    143.9540     25.1736   7.7660623643e+01   4.6567526083e+01    0.7902359    0.5239626  13.61  0.001963648    1.947    0.486
        14 -10.5546      6.2559     20.6056   1.3805290955e+02   7.3459471991e+01    0.3640139    0.2872184  -7.66 0.0007716774    1.366    0.268
        15  -9.8573     82.5053      4.4182   8.3769892216e+01   6.5174646652e+01     1.313598    0.3612173 -20.29  0.003782108    4.738    0.789
        16  -9.3899     84.5327     14.4585   8.8655637405e+01   6.3454088835e+01    0.4164515    0.2701225 -44.79  0.001936186    1.818    0.450
        17 -10.0505     85.1438     20.8222   9.1775200226e+01   6.2408049301e+01    0.6157571    0.3776186  33.35  0.001910073    1.699    0.411
        18 -10.9898     69.8765     23.0011   9.9306039634e+01   6.5330256479e+01    0.7274395    0.4923348  40.56  0.001696889    1.452    0.311
        19  -9.6641     63.6647     17.2255   9.9136539802e+01   6.7506659610e+01    0.5845494    0.3422484 -27.46  0.002626298    1.749    0.428
        20 -10.0590    188.7371     14.3539   6.7345718021e+01   3.5490011738e+01    0.4499348    0.3613234 -74.23   0.00170266    1.237    0.192
        21  -9.6324     76.2608     13.3227   9.1244910570e+01   6.5491463085e+01    0.6125622    0.2674637 -38.86  0.002425991    2.449    0.592
        22  -9.6375     76.9715      6.1563   8.6819676428e+01   6.6269483860e+01    0.4192369    0.2330784 -25.62  0.001394952    1.834    0.455
        23  -9.4353    172.3255     14.3330   6.9260195351e+01   3.9912132114e+01    0.3056047     0.269373 -35.22 0.0006885537    1.163    0.140
        24  -9.3365    139.1996     13.8002   7.4085309366e+01   4.9179050817e+01    0.3375613     0.210862 -62.57  0.001426165    1.984    0.496
        25 -10.1747    177.0892      9.2510   6.7001511959e+01   3.9107196806e+01    0.3993471    0.3174677 -57.42 0.0008423054    1.251    0.201
        26  -8.9924    133.0259     10.5383   7.3884343051e+01   5.1234948096e+01    0.4681764    0.2826537 -64.89  0.001929167    2.155    0.536
        27 -10.1639    202.0917      7.3390   6.3949877730e+01   3.2693949455e+01    0.5305437    0.4004245  24.20  0.002790621    1.627    0.386
        28  -8.1449     69.8637      8.6678   9.1247760732e+01   6.7526467568e+01    0.2398924    0.1801875  -6.94  0.000628781    1.351    0.260
        29  -9.1433    153.4807      9.4850   7.0100211889e+01   4.5612649534e+01    0.3769936    0.2501574 -56.30  0.001738562    1.650    0.394
        30  -9.5926    243.4179      6.1135   6.0665056193e+01   2.3046688951e+01    0.3342297    0.2080314  22.74  0.001705779    2.401    0.584
        31  -9.0938    224.8087      5.0983   6.1594089907e+01   2.7339207862e+01    0.2915441    0.2720833 -25.27  0.001086082    1.154    0.133
        32  -8.4714    239.7612      2.7874   6.0070605576e+01   2.4146336700e+01    0.1844168    0.1213991 -54.06 0.0005592083    1.345    0.257
        33  -8.7210    183.3640      2.4445   6.4157870791e+01   3.8027467510e+01    0.3236183     0.185133  45.99  0.001467099    1.910    0.476
        34  -8.6390    159.1606      2.6798   6.6848518699e+01   4.4639550414e+01    0.3117395    0.3086608  68.11  0.001830652    1.082    0.076
        35  -8.3616    155.6833      2.3178   6.7150435418e+01   4.5641585037e+01    0.2609386    0.2017286 -44.72  0.001343918    1.338    0.253
        36  -7.3826    140.3150      1.3307   6.8885213380e+01   5.0038428209e+01     0.159869   0.09932308  39.24 0.0005593959    1.680    0.405
        37  -8.4390    236.1578    200.9323   1.0487337344e+02   1.3879431673e+00    0.1818866    0.1336965  13.95  0.000669302    1.065    0.061
        38 -10.1510    240.0985    250.6654   1.1167729361e+02  -3.8051466168e+00    0.3993508   0.06901284  35.66  0.001624789    4.327    0.769
        39 -10.0654    217.4907    248.4548   1.1505848856e+02  -9.0196845392e-01    0.4304416    0.3034658  49.21  0.002882073    2.577    0.612
        40  -8.7638    211.6640    243.0697   1.1533219527e+02   3.4255967561e-01    0.1759207    0.1166073  21.41 0.0005839737    1.024    0.024
        41  -8.9678    175.0349    250.2406   1.2266320411e+02   4.3648024293e+00    0.2026642     0.110506  27.93 0.0005488486    1.316    0.240
        42  -8.9048     21.9649    188.7532   1.4906062720e+02   3.3275259987e+01    0.2111689    0.1628076 -25.96  0.001419071    2.036    0.509
        43  -7.9987    138.5527    189.4300   1.2209062905e+02   1.8066382690e+01    0.1323971    0.1070378  33.29 4.794633e-05    1.006    0.006
        44  -8.4735     61.4868    185.0413   1.3964451685e+02   2.9935629274e+01    0.1967319    0.1612501  20.75 0.0006552767    1.402    0.287
        45  -7.9533     70.6171    183.8355   1.3734488021e+02   2.9059486512e+01    0.1710027    0.1398408  37.38 0.0007045001    1.153    0.133
        46 -10.7874    233.5016    180.2009   1.0172495628e+02   4.0666002844e+00    0.3828442    0.2625363  -2.14  0.001405979    1.261    0.207
        47 -11.7275    229.5376    175.0149   1.0144995856e+02   5.2792604711e+00    0.4830479    0.2969651  14.58 0.0008680528    1.498    0.332
        48 -11.2841    237.4908    169.0502   9.8997795837e+01   4.7662503019e+00    0.5690709    0.2902432 -10.63  0.001506756    2.222    0.550
        49  -9.3488    185.9175    178.3533   1.1018205748e+02   1.1921952833e+01    0.2804188    0.1916341  24.51 0.0006147982    1.252    0.201
        50  -9.5249    192.4509    174.8444   1.0824950427e+02   1.1323036551e+01    0.4423905    0.3830762 -55.36  0.002724545    1.751    0.429
        51  -9.1334    101.0246    175.9914   1.2903208265e+02   2.6411665604e+01    0.1882709    0.1588805  43.67            0    1.001    0.001
        52  -8.9256    249.4754    168.9877   9.7057043728e+01   2.9776324708e+00    0.2683672    0.1838569 -41.50  0.001603453    2.163    0.538
        53 -10.2288    246.6236    163.8170   9.6526620274e+01   3.9869717622e+00    0.2931411    0.2350904   7.69 0.0006276261    1.107    0.097
        54  -9.8257     11.5517    169.6303   1.5071774754e+02   3.7996645200e+01    0.2967147    0.2031613 -31.45  0.001831854    2.273    0.560
        55  -8.4740     24.1418    163.3748   1.4733573323e+02   3.8300044678e+01    0.2788754    0.1427622  22.12  0.001494262    2.121    0.529
        56 -10.3276      5.3690    156.9047   1.5177874442e+02   4.1130877913e+01    0.3984634    0.2778998  53.78  0.001828768    1.184    0.155
        57  -9.9594    164.5022    156.9998   1.1075642461e+02   1.9087114086e+01    0.3204133    0.1603226  25.52  0.001271619    2.432    0.589
        58  -9.1721    157.9727    156.6572   1.1216391676e+02   2.0358070454e+01    0.2626424    0.1910639  -4.46  0.001328119    1.674    0.403
        59  -9.9965    234.7061    152.6437   9.6259824465e+01   7.2001454358e+00    0.3681521    0.2898556  47.81  0.002273601    1.657    0.396
        60  -8.2501     16.6396    148.3127   1.4848420854e+02   4.2208775123e+01    0.1345889   0.06648715  56.43 0.0007042204    1.749    0.428
        61 -10.2641    249.3729    140.7997   9.1529590227e+01   6.2633761087e+00    0.7376371    0.2147426 -28.81  0.002928521    3.120    0.679
        62  -9.3605    179.9253    145.0895   1.0497840536e+02   1.8159399918e+01    0.2364299    0.1613981   7.75  0.001137379    1.721    0.419
        63  -8.3837    189.2156    142.6063   1.0251872932e+02   1.6767314803e+01    0.1976376    0.1187775  32.16 0.0003179523    1.571    0.363
        64  -8.0229     83.3417    141.5148   1.2885900448e+02   3.6387624230e+01    0.2129264    0.1300324 -64.19 0.0004760569    1.737    0.424
        65  -9.3997     16.6294    138.8936   1.4796852761e+02   4.4341343317e+01    0.2734708    0.1960209  41.57   0.00173647    1.317    0.241
        66  -7.1371    115.6909    135.6913   1.1867895215e+02   3.2328939774e+01    0.1450276    0.1145972  -3.05 0.0003565756    1.618    0.382
        67  -8.1074    163.4937    133.9927   1.0620069675e+02   2.3328294933e+01    0.1981085    0.1247113 -11.09 0.0005201954    2.330    0.571
        68 -10.3946    244.8699    132.2903   9.0432445249e+01   8.0436225789e+00    0.4447332    0.2403683  14.18  0.002071418    2.390    0.582
        69  -9.5405    249.0265    125.7024   8.8406899534e+01   8.1532765315e+00    0.3757482    0.1664114 -26.84 0.0004576198    2.002    0.500
        70  -9.9980    229.5039    129.8169   9.2321060768e+01   1.1049476495e+01    0.4743436    0.1748164  41.61  0.001956424    2.669    0.625
        71 -10.6994    231.5259    124.5444   9.0829738960e+01   1.1383914080e+01    0.8308858    0.3874306 -48.19  0.003150132    3.705    0.730
        72  -8.9999    226.9093    120.5082   9.0669481625e+01   1.2783715170e+01    0.2424769    0.2054193  20.59  0.000857995    1.125    0.111
        73  -7.2395     32.3052    132.3107   1.4291009033e+02   4.4616211341e+01    0.1231123   0.09149195 -44.03            0    1.614    0.380
        74  -8.7915      7.9356    129.5272   1.4996355100e+02   4.7079718668e+01    0.2230286    0.1535778 -86.95 0.0004164744    1.263    0.208
        75  -9.1994    199.0459    129.0816   9.7575588688e+01   1.6954289721e+01     0.213238    0.1927687   5.47 0.0005038286    1.060    0.057
        76  -9.3704    222.8001    124.6533   9.2286924800e+01   1.2989388723e+01    0.2930968    0.2120886 -28.47 0.0007763753    1.328    0.247
        77 -10.3104    189.2882    123.4408   9.8195228162e+01   1.9825948863e+01    0.3650905    0.3474286  10.32  0.001577364    1.123    0.110
        78  -9.6382     34.6422    122.8202   1.4128223255e+02   4.6679328607e+01    0.2711781    0.1773646  14.55  0.001062406    1.821    0.451
        79  -9.3141     29.8046    118.0069   1.4235886904e+02   4.8265300442e+01    0.2033525    0.1948754 -82.56 0.0003224666    1.133    0.118
        80  -8.2853    250.3515    117.1184   8.6355097377e+01   8.9815503093e+00    0.1796986    0.1350132 -21.00 0.0005176682    1.157    0.136
        81  -9.1348      1.3865    114.8163   1.5124366358e+02   5.0873678595e+01    0.1843129    0.1347379 -68.61 0.0003298369    1.317    0.241
        82  -8.1363    227.8722    114.4858   8.9136577730e+01   1.3420555861e+01    0.1877804     0.127034  41.86 0.0005529443    1.508    0.337
        83 -10.7569     18.6978    112.0237   1.4547551567e+02   5.0554119687e+01    0.4987872    0.2297117 -57.34  0.002403812    2.104    0.525
        84  -8.0419    121.3389    110.0859   1.1143154162e+02   3.6783278838e+01    0.2001574    0.1969146 -54.15 0.0003663662    1.077    0.072
        85  -7.9266    129.9994    107.0268   1.0821398492e+02   3.5630188233e+01    0.1750556    0.1690871  24.25 0.0009289291    1.023    0.023
        86 -10.9563    244.5145    108.5025   8.5262991340e+01   1.1093734013e+01    0.6489574     0.324984 -23.90  0.003139563    1.814    0.449
        87 -10.2086    208.5569    101.5572   8.9243815191e+01   1.9165010124e+01    0.5755455    0.2766696  40.35  0.001595704    2.164    0.538
        88  -8.3975    232.4912    102.4995   8.5624494596e+01   1.4141510407e+01    0.1354335      0.11761  -7.59 0.0008106332    1.000    0.000
        89  -8.0749     92.8661     99.1661   1.1757496383e+02   4.4734808628e+01    0.2224308    0.1975848  67.60 0.0004018733    1.192    0.161
        90  -9.5983      7.3285    102.4002   1.4860497164e+02   5.3555646090e+01    0.3035143    0.2425815  19.02  0.001979623    1.453    0.312
        91 -10.0017    232.3162     78.9943   7.9952213466e+01   1.7273329273e+01    0.3697529    0.2824457   3.49  0.002051585    1.397    0.284
        92 -11.8292    240.4978     74.4292   7.7775152523e+01   1.6172204922e+01    0.8570582    0.4654692 -14.74  0.003978247    2.004    0.501
        93 -10.5613    245.7163     94.5815   8.1903805895e+01   1.2626729896e+01    0.4039285    0.3755814  51.78   0.00265828    1.300    0.231
        94 -10.4444    248.9426     74.5384   7.6787134870e+01   1.4479068945e+01    0.4701611    0.3428423 -24.73  0.002224574    1.186    0.157
        95 -10.3282    245.0746     69.6922   7.6077166361e+01   1.5830417354e+01    0.3364253    0.2173952 -30.31  0.001836707    1.340    0.254
        96 -10.6381    245.2436     88.7453   8.0601674811e+01   1.3447711948e+01    0.5014158    0.3742289 -81.67  0.002722561    2.112    0.527
        97 -11.0449    241.7584     82.4077   7.9545881231e+01   1.4921594057e+01    0.5561037    0.3196177 -14.11  0.002700161    1.832    0.454
        98  -8.2512    139.4575     96.4881   1.0282484883e+02   3.5707406542e+01    0.1566048    0.1495088  27.67 0.0001065862    1.004    0.004
        99  -8.4025    227.8399     95.1532   8.4559852811e+01   1.6053269434e+01    0.1921463    0.1759391 -32.59 0.0003947166    1.168    0.144
       100  -8.7969    171.1308     94.3499   9.4606820103e+01   2.8746010112e+01    0.2795497    0.2240855 -39.53 0.0008212173    1.294    0.227
       101  -8.1018    146.6010     95.4004   1.0066594670e+02   3.4284703374e+01    0.2720798    0.2096319 -85.08  0.001190158    1.903    0.475
       102  -8.0455    111.4496     95.5075   1.1062223544e+02   4.1999153051e+01    0.1545176    0.1483116  15.34 4.684403e-06    1.050    0.048
       103 -10.3920     15.3372     90.7482   1.4474367149e+02   5.5995158832e+01    0.3175116    0.2348406 -17.43 0.0009563365    1.653    0.395
       104 -10.3824      6.1325     89.5196   1.4812113147e+02   5.6753885003e+01    0.4764671    0.2341975 -59.00  0.002448222    1.835    0.455
       105 -11.1318      3.2818     85.9738   1.4894048477e+02   5.7737250861e+01    0.9213986    0.3268654 -82.45  0.004013756    2.390    0.582
       106 -10.7061     10.6020     84.0883   1.4593402279e+02   5.7891381315e+01    0.4737103    0.2994886 -44.81  0.002225467    1.640    0.390
       107  -8.1302    128.1067     90.8954   1.0436461838e+02   3.9406999435e+01    0.2106639    0.1998554  59.56  0.001090492    1.097    0.089
       108  -7.8592     78.5317     91.0075   1.2055850967e+02   4.9117807172e+01    0.2099256    0.1432686 -56.26 0.0003511542    1.451    0.311
       109  -8.4751    197.8573     92.8794   8.8914062576e+01   2.2819642601e+01    0.2243665     0.189261  13.24  0.000431461    1.196    0.164
       110  -8.3070     61.8229     86.9134   1.2587625801e+02   5.2593349931e+01    0.3341801    0.2055471  51.90  0.001133893    1.833    0.454
       111  -8.9593     13.4886     97.4985   1.4605596922e+02   5.4430133979e+01    0.1265277      0.10794  87.58 -5.912301e-05    1.023    0.022
       112 -10.3968    246.4987     83.0071   7.9088986079e+01   1.3919212712e+01    0.3467818    0.2932655 -23.70  0.002177978    1.049    0.047
       113  -7.8437    101.7237     85.9970   1.1109652514e+02   4.6088678011e+01    0.2005761    0.1365936 -47.98  0.000890711    1.495    0.331
       114  -9.0664     65.5980     78.5244   1.2233352782e+02   5.4124083761e+01    0.4502014    0.2685525 -69.22  0.001964354    1.904    0.475
       115  -9.7155     44.0112     76.2428   1.3079316443e+02   5.7377720962e+01     0.681366     0.332061 -68.83  0.002945782    2.001    0.500
       116  -8.6903     42.6705     73.2748   1.3073019648e+02   5.8256276888e+01    0.2835376    0.2030679  27.65 0.0008848923    1.495    0.331
       117  -9.3523    185.1562     76.7174   8.6818524001e+01   2.8297825637e+01    0.4008198    0.2268146 -15.28  0.001565437    2.263    0.558
       118  -8.1708     75.7529     77.5010   1.1803260226e+02   5.2801805738e+01    0.2774255    0.1377333  41.02 0.0007194008    2.040    0.510
       119  -8.0455    125.0028     75.2377   1.0049771086e+02   4.3302280697e+01    0.2185053    0.2035603  33.50 0.0003932162    1.040    0.038
       120  -9.6591     87.8126     73.8181   1.1234753691e+02   5.1537254981e+01     0.406118    0.3291004 -17.32  0.001297941    1.423    0.297
       121  -7.9179    117.5015     78.0664   1.0363853132e+02   4.4449563260e+01    0.2391293    0.2031283  41.68  0.000489359    1.144    0.126
       122  -9.4657    126.2049     67.3743   9.7558046474e+01   4.4550841142e+01     0.677677    0.3266746  40.49  0.001900413    2.176    0.540
       123 -10.2045    201.9865     65.2468   8.0699905057e+01   2.5920828615e+01    0.5665237    0.3695794  84.90  0.002488398    2.159    0.537
       124  -9.7925     95.9827     65.9867   1.0680259784e+02   5.1655465525e+01    0.4436639    0.3560892  40.41  0.001142632    1.234    0.189
       125  -8.3226     68.2132     66.9506   1.1797827755e+02   5.6500024583e+01    0.2115736    0.1961234  83.68 0.0004211589    1.199    0.166
       126  -8.9432     48.4968     56.4189   1.2367141942e+02   6.1729618522e+01    0.2300534    0.2024524  29.70 0.0005952024    1.215    0.177
       127  -9.7692     47.0951     65.4981   1.2688053499e+02   5.9700634398e+01     0.449634    0.2836981  52.26  0.002138972    1.908    0.476
       128 -10.7761     46.3170     60.4429   1.2588411277e+02   6.1019203346e+01    0.5649222    0.4323754  19.09    0.0011062    1.417    0.294
       129 -10.3226    236.8460     65.4904   7.6016100903e+01   1.8033306162e+01    0.3344673    0.1690472 -35.83   0.00157492    1.742    0.426
       130  -8.2713     38.0022     64.9198   1.3095569115e+02   6.0790157713e+01    0.2001302    0.1837606 -59.19 0.0003416744    1.015    0.015
       131  -9.6576     38.6955     46.3664   1.2555428137e+02   6.5208796291e+01    0.3917351    0.3846672  67.90  0.001274439    1.160    0.138
       132  -8.8883     31.2118     52.8587   1.3136717834e+02   6.4353577657e+01    0.3403369    0.2391296  88.48  0.001556512    1.695    0.410
       133  -9.5461     36.8147     57.4584   1.2970092872e+02   6.2734960979e+01      0.69129     0.215524 -43.17  0.001993239    3.483    0.713
       134 -10.2816     29.5743     59.8311   1.3384597946e+02   6.2777561532e+01    0.5407147    0.4867673 -59.26  0.002560631    1.015    0.015
       135 -10.0526     23.3308     55.6015   1.3606278891e+02   6.4270419237e+01    0.7647499    0.3524309  71.49  0.002723446    4.046    0.753
       136 -10.1537     30.9656     44.6998   1.2927237396e+02   6.6336092403e+01    0.4234677    0.2954478 -53.52  0.001183612    1.247    0.198
       137 -10.9543     26.1628     48.9585   1.3305810627e+02   6.5696019591e+01    0.8224438      0.32815  37.41  0.003130846    2.804    0.643
       138  -9.0142     26.2052     44.2009   1.3179633550e+02   6.6838217046e+01    0.2476755    0.2104188  49.56 0.0007008284    1.377    0.274
       139 -10.3106     84.3653     47.8542   1.0447398618e+02   5.7798982830e+01     0.733482    0.5100838 -48.78  0.003442559    1.519    0.342
       140 -11.0622     76.5820     54.6247   1.1028373381e+02   5.7878001549e+01     1.175473    0.7075101 -27.14  0.004405077    2.104    0.525
       141 -10.4589     82.5358     55.2875   1.0808569124e+02   5.6622498615e+01     0.708333    0.3960069 -36.84  0.002745213    1.883    0.469
       142  -9.3093    208.4570     58.7556   7.7934326400e+01   2.5257303213e+01    0.3037772    0.2540272 -67.55  0.001271444    1.338    0.253
       143  -9.4638    124.2168     55.1723   9.3829185700e+01   4.7294960861e+01    0.3182111    0.2741903 -20.36 0.0005918219    1.214    0.176
       144 -10.2234    227.6520     53.9940   7.4179104995e+01   2.1435048292e+01    0.4745905    0.3362764  64.20  0.002174287    1.541    0.351
       145  -8.1481    141.5067     53.5130   8.8698827292e+01   4.3155957252e+01    0.1585581    0.1511723  34.76 0.0008104386    1.019    0.019
       146  -9.0812     68.4715     47.9775   1.1130033626e+02   6.0741161175e+01    0.3356065    0.2873604  31.15  0.001258178    1.189    0.159
       147 -11.5107     61.5448     46.6064   1.1399150472e+02   6.2172695337e+01     1.021928    0.5693589 -51.87  0.003335105    1.774    0.436
       148  -9.1660     66.9602     42.0171   1.0959570343e+02   6.2260651484e+01    0.3420053    0.2877488 -35.59 0.0009031111    1.139    0.122
       149  -9.1700    172.0156     49.9995   8.1126326382e+01   3.5639560112e+01    0.2127375    0.2107519  61.66  0.001163966    1.008    0.008
       150  -9.5708    246.9918     47.3736   7.0451122849e+01   1.8052028223e+01    0.2415519    0.2346307  85.43  0.000624875    1.163    0.140
       151  -8.6978    129.0956     46.5932   8.9295826975e+01   4.7518244573e+01    0.2429015    0.2125405 -43.52 0.0003580136    1.207    0.171
       152  -8.8857    129.0201     60.3478   9.4342039394e+01   4.5167515711e+01    0.2891035    0.2327528 -44.81 0.0005856331    1.309    0.236
       153  -8.4579    142.9654     43.8986   8.4901810110e+01   4.4281968447e+01    0.4641608      0.15492 -42.63  0.001403008    3.316    0.698
       154 -10.3258      7.2098     38.6016   1.4151392425e+02   6.9199701745e+01    0.4194199    0.3018205  58.74  0.002510217    1.651    0.394
       155  -8.1381     58.9652    243.0219   1.4401242479e+02   2.0015841581e+01    0.1432046    0.1196269   9.94 0.0007578402    1.665    0.399
       156  -9.7413     21.1207     40.3768   1.3369325882e+02   6.8105168827e+01    0.3056656    0.2746386 -36.33 0.0008621712    1.087    0.080
       157  -8.0154     10.7476    243.0253   1.5289840262e+02   2.4739576678e+01    0.1648536    0.1112471   4.75  0.001156026    2.562    0.610
       158  -8.1892    167.6116    241.7173   1.2302476853e+02   6.3269313915e+00    0.1693505    0.1044123 -31.77  0.001081564    2.115    0.527
       159  -8.4343    161.9525    242.2919   1.2414566367e+02   7.0279219016e+00    0.1644899    0.1045563  30.83 0.0003953733    1.109    0.099
       160  -9.2246    250.5312    237.6238   1.0822618744e+02  -3.9204798646e+00     0.169578   0.09456906 -14.86 0.0009061931    1.694    0.410
       161 -11.6630    233.4480    234.5720   1.1051452191e+02  -1.5946744667e+00    0.6169761    0.2401797  21.67  0.003178156    2.492    0.599
       162  -8.1768    148.2926    237.6228   1.2620652918e+02   9.4806159417e+00    0.1101375   0.07501357  53.14 0.0007021701    1.740    0.425
       163 -11.6741    210.3206    229.6502   1.1372477987e+02   1.8749634146e+00    0.7328644    0.4553796  15.49  0.002715953    1.288    0.224
       164  -7.6371    244.2958     40.3577   6.8986565627e+01   1.9396651114e+01    0.1290867   0.09477196  16.32  0.000703296    1.699    0.411
       165  -8.5380    112.0331     39.9451   9.1479261881e+01   5.2952085716e+01    0.3158579    0.2300775  60.39  0.001075059    1.435    0.303
       166  -9.6026     50.2054     39.2558   1.1682662162e+02   6.5447130613e+01    0.2781124    0.2578345  69.32 0.0004976438    1.325    0.245
       167  -9.7596     53.8970     36.4827   1.1373009699e+02   6.5519184978e+01    0.3663325    0.2973364 -83.80  0.001403147    1.749    0.428
       168 -10.0835    233.1722     36.7361   6.9121780731e+01   2.2212073094e+01     0.353647     0.269879 -41.29  0.001865251    1.179    0.152
       169  -8.6247    189.9159     36.8025   7.4135200104e+01   3.2688307639e+01    0.2549435    0.2033431 -21.08 0.0006632786    1.285    0.222
       170  -9.4201    127.2340     33.9001   8.4806054507e+01   4.9958909365e+01    0.5882233    0.3529149  75.81  0.001864997    2.154    0.536
       171  -8.4810     61.8806    232.2317   1.4285166423e+02   2.1389748433e+01     0.168251    0.1466771  81.69 0.0005339182    1.348    0.258
       172  -8.1242      1.5858    233.2658   1.5435920082e+02   2.7052896893e+01    0.1171389    0.0807807 -83.97 0.0009485661    1.655    0.396
       173  -8.4544    129.5031    231.9911   1.2927461254e+02   1.2836401009e+01    0.1384146   0.09250333 -15.16 0.0008082119    2.383    0.580
       174  -9.8922     33.2382    229.7297   1.4834733396e+02   2.4813621867e+01    0.2597706    0.2498652 -46.24  0.001154361    1.570    0.363
       175  -7.9919     90.7170     34.4760   9.6270660213e+01   5.8943864577e+01    0.2732166    0.1331419 -35.12  0.001067502    2.088    0.521
       176  -7.9157    173.8802     34.0976   7.5630039431e+01   3.7264375674e+01    0.1920038    0.1666796  28.40 0.0009938141    1.241    0.194
       177  -8.2733    139.1640     22.6166   7.7606620490e+01   4.8200510561e+01    0.2645564    0.2228326  75.02 0.0007681338    1.186    0.157
       178  -9.3652    144.2384     32.0358   8.0216826732e+01   4.5616191823e+01    0.4381472    0.2380795 -13.08  0.001659056    2.356    0.576
       179  -8.2500    147.4647    231.5038   1.2567379024e+02   1.0399545490e+01    0.1192601   0.08686709  30.40 3.035439e-05    1.021    0.021
       180  -8.1227    232.5394     28.4410   6.7047723404e+01   2.3253985981e+01    0.3414517    0.1860401  25.81  0.001428141    3.010    0.668
       181  -9.5921     96.2732     27.7638   9.1180995984e+01   5.8749845593e+01    0.4422829    0.3172669   7.57  0.001406061    1.682    0.406
       182  -9.3650     73.8203     28.8129   1.0046430384e+02   6.3534585492e+01    0.3189362    0.2399994  31.38 0.0004318928    1.310    0.237
       183 -10.8620    113.8804     31.8910   8.7536348438e+01   5.3748345905e+01    0.7497834    0.6408586  56.35  0.003464789    1.150    0.130
       184 -10.0991      5.6375     26.1046   1.3988846281e+02   7.2206525202e+01     0.401536    0.2651309  31.95  0.001177404    1.820    0.451
       185  -9.3174     11.5111     22.4679   1.3479546176e+02   7.2822530354e+01    0.1943392    0.1796899  -0.92 0.0007289996    1.227    0.185
       186  -7.7263     10.5222    231.5226   1.5269679683e+02   2.6594477355e+01    0.1016076   0.07057786  52.88 0.0001359183    1.026    0.026
       187  -9.5154     23.4718    227.0625   1.5013727892e+02   2.6184262538e+01    0.3439359    0.1548014  35.59  0.001379202    1.673    0.402
       188  -8.5261     92.0088     22.7713   9.0253753760e+01   6.0519149102e+01    0.3206427    0.2102478  55.86 0.0003695341    1.544    0.352
       189  -8.3949     95.4544     21.5304   8.8463921615e+01   5.9870608494e+01    0.2355562    0.2140304  36.64 0.0004785734    1.038    0.037
       190  -7.9529     95.1814    226.6041   1.3571220095e+02   1.8254630399e+01    0.1582041   0.09029512  28.70 0.0003669916    1.567    0.362
       191  -9.5699     86.6344     23.7173   9.2678151689e+01   6.1628273952e+01    0.3992433    0.3127982   8.93 0.0009055075    1.369    0.269
       192  -8.2174    150.3058    222.3133   1.2401504443e+02   1.1243398471e+01    0.1178146   0.07953335  12.03 0.0003930294    1.620    0.383
       193 -10.4823     56.0114    217.0579   1.4314575042e+02   2.4590206948e+01    0.3026176    0.1515846 -76.85   0.00103651    2.313    0.568
       194  -9.9197     79.8115    214.0878   1.3789272341e+02   2.2284366319e+01    0.3717802    0.2186195 -72.90  0.001801441    2.086    0.521
       195  -9.5283    247.2497     22.1898   6.4303833121e+01   2.0682987183e+01    0.3255432     0.250621 -67.55  0.001468894    1.303    0.232
       196  -8.5532    212.2521     23.0322   6.7483698783e+01   2.8599708457e+01    0.2167154    0.1917593  89.54 0.0003881308    1.135    0.119
       197  -7.7045    221.9699     22.0344   6.6303432472e+01   2.6365069387e+01    0.1554732    0.1410007 -51.26            0    1.004    0.004
       198  -9.5397     17.9769     21.0146   1.2965098574e+02   7.2787253657e+01    0.2521427    0.1595678 -30.61            0    1.479    0.324
       199  -9.0050     14.9673     17.9787   1.3072483625e+02   7.3652042133e+01    0.1853442    0.1521814 -43.88  0.001195521    1.017    0.016
       200  -8.4746    128.5343     20.2330   7.8862228996e+01   5.1410628331e+01    0.3442627     0.158057 -19.99  0.001265164    2.472    0.595
       201  -8.1130    217.2825     17.4174   6.5468080487e+01   2.7954202848e+01    0.2645297    0.1162673  65.61  0.001145661    2.242    0.554
       202  -9.1133    176.3429    216.8513   1.1816735818e+02   8.1546091481e+00    0.2196655    0.1533578  32.29 0.0005142779    1.141    0.123
       203 -11.7708    232.7293    210.0641   1.0693096484e+02   8.9931385811e-01    0.8083974    0.5060282  17.25  0.003288274    1.214    0.176
       204 -12.2481    207.2581    184.3878   1.0712329636e+02   7.6028415882e+00     1.210791     1.128545 -59.20  0.003025015    1.801    0.445
       205  -9.4151    222.9933    187.9846   1.0491562788e+02   4.7301018866e+00    0.1793768    0.1365019  12.51  0.001193111    1.017    0.017
       206  -9.6159    142.6729     15.3203   7.4068017862e+01   4.8049085199e+01    0.2931091    0.2163832 -65.16   0.00138663    1.539    0.350
       207 -12.5044    195.3336    201.3050   1.1219917045e+02   7.2925839084e+00     1.311123     1.004818 -22.74 0.0004659408    1.455    0.313
       208  -7.2459    250.6833     13.7145   6.2039174770e+01   2.0788492197e+01    0.1144632   0.09146106  29.26 0.0003047359    1.586    0.370
       209 -11.7292    198.8203    196.5638   1.1077402697e+02   7.3615029243e+00    0.6353401    0.4106494  38.50 0.0008322377    1.447    0.309
       210  -9.6322    183.0414    214.0250   1.1647616768e+02   7.5257838265e+00    0.1907129    0.1427093  25.16 0.0005770192    1.038    0.037
       211 -10.6984      6.2135    208.6083   1.5301600039e+02   3.0876829996e+01     0.351435    0.1939501  46.48 0.0006614835    1.303    0.233
       212  -8.1181    214.9821     10.0000   6.3631626722e+01   2.9234486557e+01    0.2149854   0.07390272  74.82 0.0008026987    2.944    0.660
       213 -11.3699     10.5237    206.9897   1.5210916999e+02   3.0816906462e+01    0.5120428     0.354571  41.99  0.002405734    1.213    0.175
       214 -10.4394    124.0559    205.9737   1.2748090575e+02   1.7567613537e+01    0.1916927    0.1420453  33.56            0    1.084    0.077
       215  -8.1694    100.9528    214.9847   1.3344354528e+02   1.9368094331e+01    0.1708487    0.1278064  42.12  0.001137693    1.029    0.028
       216  -9.6390    222.3933    200.7388   1.0718510499e+02   3.3460050627e+00    0.3058491    0.1600957  30.97  0.001227326    1.541    0.351
       217  -7.8580     60.9808    200.2993   1.4095479140e+02   2.7047570456e+01    0.1644817    0.1227438  44.82 0.0003345254    1.075    0.069
       218  -9.3091    138.3376    199.0110   1.2348619029e+02   1.6526545395e+01     0.349001    0.1474289  37.00            0    1.873    0.466
       219  -9.3414    132.9978    198.9892   1.2464715312e+02   1.7356868592e+01    0.1852589    0.1465929  33.30  0.001170571    1.017    0.017
       220  -9.5938     15.0306    194.9431   1.5081257100e+02   3.2676398948e+01    0.2651241    0.1376975  26.14  0.001520588    1.917    0.478
