#   1 NUMBER                 Running object number                                     
#   2 MAG_AUTO               Kron-like elliptical aperture magnitude                    [mag]
#   3 X_IMAGE                Object position along x                                    [pixel]
#   4 Y_IMAGE                Object position along y                                    [pixel]
#   5 X_WORLD                Barycenter position along world x axis                     [deg]
#   6 Y_WORLD                Barycenter position along world y axis                     [deg]
#   7 A_WORLD                Profile RMS along major axis (world units)                 [deg]
#   8 B_WORLD                Profile RMS along minor axis (world units)                 [deg]
#   9 THETA_WORLD            Position angle (CCW/world-x)                               [deg]
#  10 FWHM_WORLD             FWHM assuming a gaussian core                              [deg]
#  11 ELONGATION             A_IMAGE/B_IMAGE                                           
#  12 ELLIPTICITY            1 - B_IMAGE/A_IMAGE                                       
         1 -12.5807    142.3894     42.8987   1.7768106704e+01   4.3827259986e+01    0.4828766    0.2511085 -52.14   0.00195193    2.164    0.538
         2 -13.1150     46.8690     23.7631   3.9962965610e+01   6.8399601019e+01    0.4540966    0.3310646 -18.25  0.001428795    1.401    0.286
         3 -11.2011    122.8876     11.8500   1.0412998061e+01   5.2697213471e+01    0.1991991    0.1687322  53.27 0.0002943236    1.149    0.130
         4 -12.3438     85.0786     10.7004   1.8371738431e+01   6.2223046747e+01    0.3637476     0.184724 -29.01  0.001426761    2.101    0.524
         5 -10.7627     54.4029     11.8282   2.9912919207e+01   6.8749882357e+01    0.1658331    0.1176088  -9.74 0.0003898354    1.508    0.337
         6 -11.8526     92.0848      8.3432   1.5407515772e+01   6.0785116107e+01    0.1955164    0.1854019   2.81 0.0006504753    1.145    0.126
         7 -12.0418    215.1488      2.7090   3.5791771878e+02   3.0813898939e+01     0.195746    0.1720159 -53.90 0.0002338037    1.191    0.160
         8 -10.4424    100.2981      1.3501   1.0419478449e+01   5.9392919352e+01    0.1427963   0.08876312  37.08 0.0007035708    1.686    0.407
         9 -10.9426    205.4458    244.2309   5.0318253362e+01  -3.1943543176e+00      0.12954    0.1044501 -33.99 0.0006144567    1.594    0.373
        10 -13.8153    245.9493    249.6094   4.4305363031e+01  -8.4073599685e+00    0.2894093    0.1834143  24.75  0.001845338    1.433    0.302
        11 -11.1020    237.0263    250.5685   4.5868695382e+01  -7.5659937504e+00    0.1516954   0.08119016  25.44 0.0003608155    1.549    0.354
        12 -10.8387    179.4396    250.5551   5.5932693672e+01  -7.2248069877e-01    0.1156389   0.08816046  18.39 8.858775e-05    1.005    0.005
        13 -12.1422    139.7919    248.5895   6.3378664417e+01   4.8391454463e+00    0.2908376    0.1758539 -53.39  0.001571338    2.152    0.535
        14 -12.1436    119.7772    244.4545   6.6984760767e+01   8.2362552640e+00    0.1873688    0.1340095  37.57 0.0008828838    1.110    0.099
        15 -11.8196    124.8428    249.8201   6.6529471023e+01   6.6865074096e+00     0.219014    0.1775307 -15.75   0.00148839    1.538    0.350
        16 -11.5791    122.8266    246.2026   6.6547656473e+01   7.5344777364e+00    0.1808815    0.1375217  44.71  0.000442193    1.194    0.162
        17 -10.7894    106.7214    250.6680   7.0306099054e+01   8.9956353957e+00    0.1650658   0.08464453  38.97 0.0008525578    1.488    0.328
        18 -11.7498     84.0366    250.6403   7.4947090823e+01   1.1976923563e+01    0.2679803   0.09346258  31.97  0.001209821    2.390    0.582
        19 -11.2883     77.2801    249.9668   7.6275899031e+01   1.2953175170e+01    0.2483927    0.1569848 -58.87  0.001551873    1.990    0.497
        20 -12.6522     78.9048    244.0683   7.5466835268e+01   1.3780350456e+01    0.3748337     0.199751  58.03  0.001684973    1.874    0.467
        21 -15.6990     41.3956    200.4888   8.0378532200e+01   2.7156735739e+01     3.030806     1.666493  70.64   0.01210535    1.809    0.447
        22 -15.4157     45.7807    225.9346   8.1186805375e+01   2.1290740106e+01     1.362155     1.111038 -26.36   0.00743718    1.869    0.465
        23 -16.1680     10.3402    186.1371   8.6962218703e+01   3.3544152315e+01     2.193635     1.571049 -80.05     0.013797    1.339    0.253
        24 -16.6689     18.7921    211.7848   8.6299339891e+01   2.7107448431e+01     2.690637    0.8498302  53.59   0.01206768    2.528    0.604
        25 -16.0176     15.0113    226.6010   8.7780702282e+01   2.4440114175e+01    0.9908496    0.5462963  62.92  0.006088142    1.450    0.310
        26 -16.7948      9.6574    240.3682   8.9373285856e+01   2.2295513428e+01     2.022155    0.8860388  21.95   0.01039361    2.861    0.650
        27 -16.1797      5.5795    230.8933   8.9864120321e+01   2.4487787770e+01      1.00672    0.4901457  77.29  0.005967207    1.812    0.448
        28 -10.9843    144.6608    241.6569   6.1565600821e+01   5.2245369371e+00    0.1577516    0.1175629 -19.93 0.0009942341    1.614    0.380
        29 -11.0331    140.9825    241.4789   6.2289967569e+01   5.7649507709e+00    0.3225324    0.1082959  47.40   0.00117932    3.937    0.746
        30 -11.0758    247.4948    241.4807   4.2868858790e+01  -7.7023285952e+00    0.2054264   0.08497462  30.03  0.001207796    2.157    0.536
        31 -11.0200    197.9216    240.7088   5.1167025085e+01  -1.8079449966e+00     0.170919    0.1219104  47.93   0.00107225    2.021    0.505
        32 -11.0129    187.0174    241.2887   5.3258057543e+01  -4.7704347716e-01    0.1620122    0.1155837  23.23            0    1.122    0.109
        33 -10.4936    159.2881    241.2957   5.8592960637e+01   3.2521187758e+00    0.1172017   0.08116432   5.23 0.0002557597    1.550    0.355
        34 -11.2040    125.1269    241.3602   6.5533889647e+01   7.9989278432e+00    0.2635485    0.1122926  43.59  0.001264822    2.044    0.511
        35 -12.1416    107.5295    240.4559   6.9114806782e+01   1.0592367359e+01    0.3042918    0.1841154  22.69  0.001247107    1.703    0.413
        36 -13.0816    103.8869    236.8857   6.9516494958e+01   1.1714295479e+01    0.2870983    0.2631037  27.96 0.0005710862    1.174    0.148
        37 -11.5968    149.1032    239.0379   6.0337989983e+01   5.0068135962e+00    0.1933174    0.1532674  26.73     0.001287    1.008    0.008
        38 -10.7618    168.6297    236.8149   5.6154111577e+01   2.6207844553e+00    0.1370361    0.1161863 -52.25 0.0003680824    1.620    0.383
        39 -11.3830     79.7866    236.9319   7.4676419348e+01   1.4955418426e+01    0.2318102    0.1519718  23.95  0.001262958    1.601    0.375
        40 -11.0463    210.4734    235.5177   4.8157824926e+01  -2.7268257290e+00    0.1157009   0.08783944   8.09 0.0001032044    1.005    0.005
        41 -11.3479    121.9926    236.0000   6.5574970929e+01   9.3294865901e+00    0.2146363   0.05868593  34.26 0.0007643826    2.953    0.661
        42 -11.3245    131.3088    232.9760   6.3249786851e+01   8.5081482204e+00    0.1666922    0.1467857  29.62 0.0003300012    1.083    0.076
        43 -10.3478     96.2583    233.3587   7.0794264261e+01   1.3396971155e+01    0.1129496    0.0932885 -11.78 0.0003202678    1.621    0.383
        44 -11.4924    182.2583    232.1130   5.2850189860e+01   1.4250029080e+00    0.2169027    0.1579929  37.63  0.001393946    1.394    0.283
        45 -11.8854    150.3941    230.1574   5.8910112761e+01   6.2157208100e+00    0.3148613    0.2025371  68.55  0.001471905    3.205    0.688
        46 -11.4342    139.1745    229.8161   6.1196915510e+01   7.8974618771e+00    0.1788552     0.144349  36.21 0.0003522401    1.093    0.085
        47 -12.3027    237.9985    220.5221   4.1152972677e+01  -4.2177151911e+00    0.2294603    0.1730624 -16.05  0.001674561    1.193    0.161
        48 -12.5467    232.4830    226.8249   4.3056459149e+01  -4.3316551372e+00    0.3903892    0.1972152 -22.19  0.002122209    1.928    0.481
        49 -12.4861    233.1958    220.4596   4.1931462852e+01  -3.6334260036e+00    0.2255901    0.1711267 -19.39 0.0002461617    1.246    0.197
        50 -11.3373    194.3459    228.9812   5.0105405389e+01   2.2615744332e-01    0.1677423    0.1355431  -0.48  0.000466549    1.102    0.092
        51 -11.8319    178.1640    228.7999   5.3157443616e+01   2.4685480369e+00    0.1714587    0.1475546  24.09 0.0006372434    1.177    0.150
        52 -12.2488     95.9669    228.6480   7.0375476690e+01   1.4302747195e+01    0.3188968    0.1680714  28.67 0.0006659045    1.786    0.440
        53 -14.3583     72.0993    230.1288   7.5753111193e+01   1.7232515357e+01     1.406276    0.6277989 -83.55  0.004724642    3.296    0.697
        54 -11.6647    128.9920    226.4324   6.2925461793e+01   9.9590749340e+00    0.2157943    0.1689956 -23.39 0.0005839239    1.563    0.360
        55 -12.6771    101.8508    226.7928   6.8883244647e+01   1.3820810575e+01    0.3802728    0.1755487  51.28  0.001748121    2.220    0.550
        56 -11.7178     74.1087    212.1376   7.3650185405e+01   2.0556017607e+01     0.339729    0.2372714  17.83  0.001559025    1.720    0.419
        57 -11.7803     87.4598    220.5151   7.1428964016e+01   1.7038558416e+01    0.2168501    0.1096834  33.82 0.0002669394    1.695    0.410
        58 -11.0311     84.5538    222.5423   7.2289979160e+01   1.7042779412e+01    0.2586308    0.1587637  33.70 0.0006273261    1.417    0.294
        59 -12.9794     81.5497    225.4926   7.3249541904e+01   1.6877817169e+01     0.404898     0.286124   4.29  0.002209145    2.083    0.520
        60 -12.5634     80.2432    221.9951   7.3206227446e+01   1.7736413760e+01    0.3781857    0.2322217 -53.67  0.002086319    1.970    0.492
        61 -12.9784     77.0782    219.5516   7.3686969575e+01   1.8647533518e+01    0.5705122    0.3653347 -85.84  0.002488455    1.841    0.457
        62 -10.9769    222.1160    225.6621   4.4623541985e+01  -2.9276438046e+00    0.1594388     0.116911  11.55   0.00051187    1.096    0.087
        63 -12.4193     91.6805    224.9006   7.0934996665e+01   1.5604461611e+01    0.2456625    0.1937323 -72.61  0.001142915    1.480    0.324
        64 -14.9187      2.2115    218.6414   9.0146875605e+01   2.7229392314e+01    0.6493897    0.2984651 -81.59  0.003661882    2.076    0.518
        65 -10.6757    182.2366    225.3727   5.1861198291e+01   2.4011322995e+00    0.1641391   0.09834334  36.63 0.0004515995    1.525    0.344
        66 -11.2709    211.9259    223.6248   4.6083638308e+01  -1.3698021936e+00    0.1695461     0.162684 -28.73 0.0006518845    1.592    0.372
        67 -12.2923    159.9442    222.7310   5.5911617178e+01   6.0130238581e+00    0.3398766    0.2272122  32.02  0.001375401    1.264    0.209
        68 -12.4118    246.3783    221.0326   3.9890676132e+01  -5.2570504344e+00     0.197804    0.1517783 -11.19  0.001490533    1.156    0.135
        69 -12.8230    124.3776    221.6831   6.3321979953e+01   1.1479292075e+01    0.3611144    0.2101021  35.95  0.001917626    1.431    0.301
        70 -11.3988    122.2107    217.3877   6.3246632031e+01   1.2585013336e+01    0.2060053    0.1696784  56.76   0.00056703    1.276    0.216
        71 -13.2360    119.3022    213.4250   6.3380034122e+01   1.3764189999e+01    0.8716593    0.2684666  49.75  0.002569028    5.060    0.802
        72 -13.2689    123.4434    209.7791   6.1955227145e+01   1.3821243690e+01     0.290857    0.2673273 -85.68 0.0005923616    1.280    0.219
        73 -11.4276    114.3260    222.2945   6.5610096455e+01   1.2852432586e+01    0.1246011   0.09551766   2.91 0.0005179626    1.624    0.384
        74 -13.2049    173.9996    219.8901   5.2650867560e+01   4.4034454941e+00    0.2940349    0.2525254 -31.46 0.0007032113    1.323    0.244
        75 -11.5547    193.3725    220.1935   4.8942315157e+01   1.5990940566e+00    0.1572814    0.1123913 -46.01  0.000957859    1.792    0.442
        76 -12.3233    142.4273    205.0605   5.7023625835e+01   1.1727775900e+01    0.4055401    0.2346407  38.06 0.0006622698    1.518    0.341
        77 -12.5558    145.8066    201.8587   5.5785459923e+01   1.1776595855e+01    0.3279568    0.2708468 -77.17  0.001234326    1.641    0.391
        78 -12.6653    145.2256    216.3000   5.8070550752e+01   9.2894067077e+00    0.3987672     0.358005  45.50  0.002065175    1.203    0.169
        79 -13.1587    139.7162    212.8941   5.8773731351e+01   1.0732845138e+01    0.5913987    0.3501908 -35.74  0.001975354    2.063    0.515
        80 -13.2318    107.9261    214.7871   6.6131013880e+01   1.5212095541e+01    0.4689507    0.2970885  77.98  0.002157447    2.381    0.580
        81 -11.0125     94.4871    218.4369   6.9613808012e+01   1.6457303099e+01    0.1315134     0.108271  44.93 -0.0001195655    1.014    0.014
        82 -11.1257    226.0058    216.4707   4.2494703968e+01  -2.2349785644e+00    0.1694482    0.1284281 -11.06 0.0003754228    1.122    0.109
        83 -12.3499    130.0085    216.5243   6.1407786699e+01   1.1564573958e+01    0.1814541    0.1775996   3.24  0.000456142    1.166    0.143
        84 -12.4397    103.9743    206.6935   6.6034702815e+01   1.7401029379e+01    0.3681614    0.2566355  72.23  0.001661887    1.764    0.433
        85 -12.7354     83.2848    214.2931   7.1737385138e+01   1.8858742563e+01    0.6218534    0.2153322  41.37  0.002225169    2.294    0.564
        86 -12.0883    247.4307    212.9588   3.8418774559e+01  -4.4066280356e+00    0.1900806    0.1384059  15.55 0.0004284108    1.236    0.191
        87 -10.7472    215.3976    212.8468   4.3740723877e+01  -3.7232489304e-01    0.1614856    0.0964606 -21.54 0.0005183834    1.634    0.388
        88 -11.1768    156.4110    213.2282   5.5243712476e+01   8.1087590522e+00    0.2630669    0.2212494 -76.90  0.001073888    1.721    0.419
        89 -13.4075    159.0310    206.6094   5.3672538419e+01   8.8349292473e+00    0.5612384    0.4185541  17.97  0.002667767    1.275    0.216
        90 -10.8147    209.7623    211.9964   4.4605767485e+01   5.0610453897e-01    0.1489946   0.09228271 -32.34 0.0006737304    1.598    0.374
        91 -10.9013    170.1828    210.1227   5.1909249475e+01   6.5250919205e+00    0.1638911    0.1418533  44.84 0.0003874789    1.334    0.251
        92 -11.3949     90.9374    210.0838   6.9496841699e+01   1.8633196444e+01    0.1931611    0.1631925  53.42 0.0003394432    1.060    0.057
        93 -13.1391    229.2021    206.4422   4.0297147587e+01  -1.3227839883e+00    0.3973792    0.3258895 -27.28  0.001709223    1.355    0.262
        94 -14.0473     68.4214    247.1280   7.7878778453e+01   1.4559447090e+01    0.6798298    0.4302689  41.41  0.004305527    1.208    0.172
        95 -11.7984    180.0586    207.7904   4.9544999465e+01   5.4074474299e+00    0.2474158    0.1855943  26.79 0.0007713106    1.173    0.148
        96 -11.6940     71.9864    206.4225   7.3580742954e+01   2.2041894717e+01     0.284012     0.214186 -83.41  0.001204532    1.416    0.294
        97 -12.6055    116.7572    205.5314   6.2904387249e+01   1.5677578961e+01    0.2338412    0.1955436 -62.45  0.001394316    1.380    0.275
        98 -12.2882    238.8722    204.6214   3.8395564055e+01  -2.3174293964e+00    0.2113036    0.1613375   0.03 0.0003245817    1.047    0.045
        99 -11.3624     97.1872    188.8204   6.5315177276e+01   2.2203400684e+01    0.2319625     0.189377 -66.16  0.001303233    1.334    0.250
       100 -14.0817     61.7333    171.1579   7.2300342174e+01   3.1471158856e+01     2.323363    0.1846424  44.23  0.004861568    8.407    0.881
       101 -12.5816     90.4499    200.8505   6.8528107475e+01   2.0624791827e+01    0.7355552    0.4719521 -29.34  0.003445563    2.477    0.596
       102 -12.4271     65.0239    182.1193   7.2710275259e+01   2.8417361656e+01    0.5951938    0.5037807  33.66  0.003491703    1.218    0.179
       103 -13.2991     92.8679    193.2988   6.6989004942e+01   2.1886526028e+01    0.9804775    0.2801191  40.51  0.002871638    2.877    0.652
       104 -12.3098     91.7401    188.4168   6.6626660544e+01   2.3129472104e+01    0.3397274    0.2600577 -23.95 0.0008630348    1.793    0.442
       105 -13.5540     94.0612    184.0123   6.5435565049e+01   2.3754747280e+01    0.6547839    0.3270421 -63.09  0.002149177    2.199    0.545
       106 -12.9610     89.8349    182.3280   6.6283934945e+01   2.4787047820e+01    0.4793059    0.3262474 -86.54  0.001765478    1.762    0.432
       107 -12.6116     69.1061    187.2153   7.2234773738e+01   2.6681668466e+01     1.009142    0.1936035  41.59  0.001671792    3.829    0.739
       108 -12.7575     75.7981    186.2009   7.0399118616e+01   2.5979404102e+01    0.8651428    0.3076095 -64.79  0.003307141    2.960    0.662
       109 -12.5293    110.8314    203.5891   6.4021960927e+01   1.6981166917e+01    0.2951189    0.2031603  48.96  0.001584535    1.356    0.263
       110 -13.5695    121.4595    196.4417   6.0514360578e+01   1.6746029178e+01    0.4590478    0.3386976   3.91  0.002353846    1.746    0.427
       111 -14.0089     24.1327    197.0955   8.4267115619e+01   2.9766757636e+01     0.655445    0.5445739   5.53  0.002148238    1.638    0.389
       112 -11.9230    136.2953    200.0833   5.7636959758e+01   1.3638909727e+01    0.3057673     0.216903  87.41 0.0008200133    2.330    0.571
       113 -11.5465    212.4517    199.9606   4.2097774866e+01   1.8538558967e+00    0.2073074    0.1673033  42.43 0.0008986985    1.563    0.360
       114 -12.2457    219.3465    198.1932   4.0573918212e+01   1.1410818900e+00    0.1999476    0.1643559  10.22 0.0003087957    1.102    0.093
       115 -11.2537    180.9030    199.1501   4.7941988137e+01   6.6766524486e+00    0.1934642    0.1663396  33.47  0.001212774    1.214    0.177
       116 -11.9167    176.6128    198.8064   4.8749179965e+01   7.4035804954e+00    0.2091683    0.1980958 -85.63  0.000720086    1.459    0.315
       117 -12.8122    173.0299    195.6540   4.8947142905e+01   8.5046088875e+00    0.2611811    0.2431382 -21.33 0.0005039141    1.179    0.152
       118 -12.2106    201.2981    196.3898   4.3518068020e+01   4.0084130013e+00    0.3584717    0.2192139   3.87   0.00119009    2.012    0.503
       119 -12.8304    110.6778    196.0757   6.3024259898e+01   1.8540569269e+01     0.361996     0.265893   2.73 0.0002802545    1.837    0.456
       120 -13.4396     59.4601    249.0800   7.9847092059e+01   1.5304218975e+01    0.4344688    0.2078072  34.34  0.001332115    1.683    0.406
       121 -12.2004    191.5663    195.6854   4.5246099131e+01   5.5907647424e+00    0.3396162    0.2409605  -9.59 0.0006994017    1.473    0.321
       122 -11.5529    189.0574    192.2660   4.5135493613e+01   6.5325169225e+00    0.2040095    0.1719382 -23.65 0.0002475357    1.179    0.152
       123 -11.3865    166.1193    196.1298   5.0468568287e+01   9.5323471554e+00    0.1960417    0.1789227  22.47 0.0006320809    1.092    0.084
       124 -12.3725    161.6038    192.0533   5.0737511574e+01   1.0994412556e+01    0.4277187    0.2425348  54.50   0.00187317    2.467    0.595
       125 -11.9757    153.4841    195.4371   5.3067102815e+01   1.1711992307e+01    0.2337822    0.2056779  25.23 0.0004646346    1.019    0.019
       126 -11.2069    138.3059    197.2993   5.6750535864e+01   1.3844938849e+01    0.1346775    0.1022186  -0.40 0.0002295171    1.592    0.372
       127 -12.5965    133.4869    190.3906   5.6761708270e+01   1.5989285302e+01     0.304619    0.2306021  10.12  0.001600524    1.525    0.344
       128 -12.9440     50.8164    190.1124   7.7187874357e+01   2.8385613548e+01    0.3443808    0.2375885  20.29  0.001054169    1.703    0.413
       129 -11.1555    173.7749    189.0905   4.7653343483e+01   9.5200243188e+00    0.2620299    0.1798862 -18.99  0.001369978    1.650    0.394
       130 -11.7897    206.0723    188.6570   4.1262773435e+01   4.4864290220e+00    0.1768048    0.1438542  16.04 0.0004370591    1.120    0.107
       131 -10.7405    167.9625    189.4767   4.8937229104e+01   1.0408024988e+01    0.2019925    0.1225188  36.64 0.0006464518    1.528    0.345
       132 -13.1894    111.1508    187.8402   6.1712926930e+01   2.0198657698e+01    0.5440811    0.2689179  33.67   0.00235219    1.887    0.470
       133 -11.9210    240.9962    187.9909   3.5170461126e+01  -3.7635341122e-01    0.1571355    0.1393997 -44.76 0.0003397421    1.622    0.384
       134 -13.5564    127.5899    185.7824   5.7407867188e+01   1.7911100639e+01    0.3821253    0.3032137 -21.75  0.001950086    1.515    0.340
       135 -13.2425    122.7147    185.8628   5.8590994245e+01   1.8711944072e+01    0.4898237     0.211504  37.65    0.0012458    2.077    0.518
       136 -11.6474     43.3129    186.7641   7.8786683811e+01   3.0051499300e+01     0.225089    0.1643215  65.24 0.0006095592    1.209    0.173
       137 -11.9560    247.8797    185.8049   3.3706700496e+01  -9.8213371677e-01     0.218942    0.1562794   4.02  0.001306495    1.288    0.224
       138 -11.3823    210.3395    182.8099   3.9421006954e+01   4.7462917640e+00    0.1789862     0.104743 -27.04 0.0004344715    1.671    0.401
       139 -12.1678    163.9274    185.4919   4.9095183693e+01   1.1801900150e+01     0.234997    0.2118426 -35.21  0.001415247    1.194    0.162
       140 -11.7587    157.0005    185.5072   5.0604987094e+01   1.2970878080e+01    0.2521994    0.1888611 -20.92 0.0009516642    1.504    0.335
       141 -11.8549    201.8608    182.6043   4.0939425023e+01   6.0901763842e+00    0.2172704    0.1866798  10.82 0.0004244648    1.067    0.063
       142 -11.3677    198.0483    180.2563   4.1221905491e+01   7.0756297426e+00    0.1934839    0.1690388  -6.65 0.0002265116    1.033    0.032
       143 -12.5593     49.0040    182.4005   7.6921975902e+01   3.0399334143e+01    0.3489599    0.3279536  32.40  0.002219536    1.235    0.190
       144 -11.9000    151.4760    181.9327   5.1204361256e+01   1.4598210289e+01    0.2661543    0.1841491  17.79 0.0007590212    1.612    0.380
       145 -12.4595    142.2527    181.1765   5.3179099778e+01   1.6341724002e+01    0.2491676    0.2125315  39.51 0.0002651881    1.107    0.097
       146 -13.6807    118.1525    179.6824   5.8710664642e+01   2.0790697365e+01    0.5804322     0.308292  50.75  0.001627058    2.007    0.502
       147 -12.2585     17.1564    176.7702   8.4721747636e+01   3.5115846497e+01    0.5063258    0.1906331 -87.44  0.001526027    2.645    0.622
       148 -11.1924    246.4665    179.5276   3.2795924415e+01   5.3798668732e-02    0.1195755   0.09381445 -11.82 6.788579e-05    1.009    0.009
       149 -11.2371     53.6938    177.7736   7.5220138234e+01   3.0919443999e+01    0.2757849    0.1291904  51.58  0.001199081    2.025    0.506
       150 -11.1272    191.3243    177.7093   4.2038925252e+01   8.5932678474e+00     0.120971    0.1081878  76.69 0.0002893955    1.612    0.380
       151 -13.5219    148.8702    175.4725   5.0634201284e+01   1.6322597601e+01    0.6514601     0.360668  57.73  0.001139885    2.677    0.626
       152 -12.7971    137.5779    177.0208   5.3545696957e+01   1.7999423243e+01    0.2771253    0.1996431  37.64 0.0003366786    1.287    0.223
       153 -13.3086    122.4792    167.6872   5.5576533901e+01   2.2658538055e+01    0.4355419    0.2720794 -39.45    0.0017643    1.845    0.458
       154 -12.3781    126.8342    167.1792   5.4391798848e+01   2.1992608957e+01    0.3222623    0.2700053  -6.04  0.001153777    1.415    0.293
       155 -13.0235    130.5544    169.4646   5.3886740686e+01   2.0831785780e+01    0.4247486    0.2373787  31.79   0.00183137    1.815    0.449
       156 -13.6202    127.4076    176.0265   5.5819502263e+01   1.9985336382e+01     0.452613     0.313399  30.13  0.002208848    1.419    0.295
       157 -12.5884    125.9305    171.9921   5.5479196179e+01   2.1108559924e+01    0.2997097    0.2898026  28.69 0.0003956631    1.042    0.041
       158 -13.2957    105.8345    176.0878   6.1239269848e+01   2.3645335773e+01    0.3591349    0.2491185  40.12 0.0008869809    1.321    0.243
       159 -11.9186    225.4214    175.9978   3.5526682447e+01   3.5186678704e+00    0.3144388    0.1716004  34.86  0.001636218    1.886    0.470
       160 -12.1420    247.8501    175.8937   3.1922951234e+01   3.6774358426e-01    0.2019995     0.158454 -13.21 0.0002512129    1.010    0.010
       161 -11.9860    242.4085    175.2514   3.2640527321e+01   1.1980015162e+00    0.1971814    0.1510781  21.81 0.0005958657    1.324    0.245
       162 -11.3862    173.0703    173.5049   4.4942269039e+01   1.2435696863e+01    0.2048025    0.1784085 -27.06 0.0003290249    1.146    0.127
       163 -13.1157     89.2567    153.4196   6.1976607584e+01   3.1719835772e+01     0.410259    0.2639087  49.58  0.001882341    1.528    0.345
       164 -14.6567     85.5225    161.6546   6.4386370968e+01   3.0315327422e+01     1.015425    0.5059379  68.94  0.002741083    3.874    0.742
       165 -14.9058     77.7254    153.8164   6.5356891348e+01   3.3451565482e+01    0.7330579    0.5609738 -63.72  0.001626026    1.316    0.240
       166 -12.9226     84.3054    149.9187   6.2798673094e+01   3.3387021718e+01    0.3178512    0.2948711 -38.02 0.0005172011    1.211    0.174
       167 -14.1371     84.0662    144.5145   6.1918346743e+01   3.4771310102e+01    0.6165975     0.397435  39.49  0.002457386    1.500    0.333
       168 -13.6285     90.5765    172.0600   6.4610429359e+01   2.7039743307e+01    0.5583797    0.3518613 -48.54  0.001412335    1.770    0.435
       169 -12.7759     91.9813    166.3155   6.3347546205e+01   2.8168803473e+01    0.2660476     0.228848  34.78 0.0004086405    1.157    0.136
       170 -12.8422     78.6862    172.9082   6.7920596027e+01   2.8659597546e+01    0.4779612    0.2571468  64.72  0.001939551    2.394    0.582
       171 -13.4080     72.6207    167.3727   6.8814320939e+01   3.0876784526e+01    0.4844096    0.2975767  69.03  0.001146912    1.896    0.473
       172 -11.6957     28.5906    173.2518   8.1483052175e+01   3.4855963586e+01    0.2473545    0.1745388 -66.33 0.0005449422    1.449    0.310
       173 -12.3309     31.0094    167.6675   8.0365994683e+01   3.5965341690e+01    0.2725317     0.246356 -61.30  0.001230689    1.273    0.214
       174 -13.1846    100.2557    171.2134   6.1914635163e+01   2.5675515193e+01    0.2651511    0.2540142  30.36 0.0007691523    1.102    0.093
       175 -11.7226     42.0091    172.2082   7.7790723861e+01   3.3661600617e+01    0.3013013    0.1536619  40.06  0.001431864    1.752    0.429
       176 -15.7559      7.0174    249.3202   9.0163831899e+01   2.0898637871e+01      1.95083    0.4145931  25.66  0.006458706    6.680    0.850
       177 -12.4085    205.7382    174.0079   3.8608799763e+01   6.8627117027e+00    0.4161459    0.2576896  39.18  0.002223321    1.661    0.398
       178 -11.4916    197.6747    170.4103   3.9421768777e+01   8.7756052388e+00    0.2264349    0.1488577 -17.34 0.0009958803    1.685    0.406
       179 -11.9472    160.0307    168.9895   4.6896544471e+01   1.5605619291e+01    0.2071508    0.1955766  64.38 0.0004615553    1.219    0.179
       180 -13.1545    153.1608    170.2788   4.8687313595e+01   1.6590687129e+01    0.4221631    0.2882439 -40.63 0.0009273413    1.529    0.346
       181 -12.7514    156.9496    165.6392   4.6936538998e+01   1.6825044246e+01    0.3216863    0.2766446  47.31  0.001776564    1.206    0.171
       182 -12.4264    151.4698    165.4669   4.8151660163e+01   1.7864722515e+01    0.2910149    0.2377712  15.01 0.0007054037    1.294    0.227
       183 -12.0180    110.0907    169.9183   5.9133763243e+01   2.4320443080e+01    0.2149377    0.1858502  65.39 0.0003599608    1.186    0.157
       184 -13.0771     66.8631    168.2114   7.0518807912e+01   3.1488405051e+01    0.5731228    0.1235533 -55.85  0.001730569    4.271    0.766
       185 -13.6389     57.1085    163.9305   7.2701536803e+01   3.3851178159e+01    0.3976843    0.3366442  65.87  0.002278474    1.071    0.067
       186 -12.3005     51.8340    161.6599   7.3922328217e+01   3.5086158213e+01    0.2540064    0.1984564  50.53 0.0007494744    1.186    0.157
       187 -13.2409     47.7888    161.8334   7.5094708143e+01   3.5537834618e+01    0.3625093    0.2189527  64.62  0.001099977    1.691    0.409
       188 -12.9643     85.0464    200.0159   6.9737843651e+01   2.1589560247e+01     1.238042     0.610018  67.66  0.004749806    3.216    0.689
       189 -12.9651     50.4057    165.2442   7.4743517452e+01   3.4373087072e+01    0.2601207     0.178129 -75.73 0.0008733873    1.418    0.295
       190 -12.7185     61.7563    177.1803   7.3006447110e+01   3.0020750322e+01    0.3396231    0.2592335  19.45   0.00101919    1.530    0.346
       191 -12.7976    201.8084    165.8542   3.7754784325e+01   8.8518946575e+00    0.4219283    0.2426734  41.51 0.0006059859    1.808    0.447
       192 -12.8247    212.2916    163.9455   3.5477764581e+01   7.4347781798e+00    0.2832323    0.2328706 -42.01 0.0005053909    1.322    0.244
       193 -13.8240     39.0858    161.2856   7.7509817203e+01   3.6679843922e+01    0.5614446    0.4523576 -15.92  0.002753259    1.693    0.409
       194 -11.3720     25.8163    153.8862   8.0601247813e+01   3.9903856428e+01     0.251975    0.1819848  33.36 0.0009256129    1.429    0.300
       195 -13.2028     32.4925    157.5526   7.9019023213e+01   3.8319626645e+01    0.5519314    0.2859073 -74.85  0.002608631    1.794    0.443
       196 -11.9981     29.1865    156.4111   7.9860691150e+01   3.8941164059e+01    0.2956429    0.2326761  69.24  0.001135174    1.132    0.116
       197 -13.1384    110.6616    165.0709   5.8152878576e+01   2.5324918972e+01    0.3794189    0.2697768   8.65  0.001718513    1.943    0.485
       198 -13.0810     64.4212    163.7710   7.0617902583e+01   3.2913714835e+01    0.3068014    0.2332757 -84.38  0.001627078    1.313    0.239
       199 -11.8647     24.5117    161.3038   8.1619705140e+01   3.8176879206e+01    0.4420268    0.2244984  41.99   0.00216857    1.787    0.440
       200 -12.8599      4.2162    160.2775   8.7132039740e+01   4.0148921951e+01    0.3625621     0.325671 -69.45  0.002453065    1.258    0.205
       201 -10.9049    229.7992    161.8232   3.2098196832e+01   4.9992327733e+00     0.156397     0.142914 -38.32 0.0004455169    1.311    0.237
       202 -10.5860    186.1681    162.3667   4.0073918900e+01   1.2155661814e+01    0.1738794    0.1270473  47.18 0.0001565342    1.500    0.333
       203 -12.5107    170.1803    159.9491   4.2892309364e+01   1.5500761851e+01    0.2807562    0.2659658   0.51  0.001187996    1.022    0.022
       204 -13.1047     95.3407    159.1571   6.1253455337e+01   2.9324004949e+01    0.3599573    0.2960155 -22.14 0.0004375711    1.532    0.347
       205 -11.0602     18.2938    160.8961   8.3317889605e+01   3.8849668487e+01    0.1757796    0.1452156  86.72 0.0003457215    1.068    0.064
       206 -11.8366    146.1693    158.1926   4.7954581324e+01   2.0350231787e+01    0.3208291    0.2128998 -63.52  0.000925003    1.925    0.481
       207 -13.2770    121.2800    157.5418   5.4005477900e+01   2.5141738983e+01    0.5189102    0.2314198 -48.17  0.001979732    2.340    0.573
       208 -12.7538    117.2023    158.0357   5.5161638885e+01   2.5772700205e+01    0.3105299     0.212585  21.86  0.001400593    1.725    0.420
       209 -12.0384    105.5853    158.8638   5.8404933049e+01   2.7646488294e+01    0.2836373    0.2156264  78.75 0.0008579349    1.575    0.365
       210 -12.1489    133.5300    157.4914   5.0884742953e+01   2.2879794112e+01    0.2995852    0.2469962  78.36  0.001512251    1.478    0.324
       211 -12.1880    190.9270    155.8318   3.7806780567e+01   1.2476586593e+01    0.3021805    0.2141917 -51.99   0.00127467    1.628    0.386
       212 -12.3996    112.2282    156.0954   5.6113537524e+01   2.7117226564e+01    0.3083438    0.1833535  60.70  0.001239363    2.167    0.538
       213 -13.8231     62.9043    153.6753   6.9669001768e+01   3.5640868193e+01    0.4782656    0.3048387 -85.81  0.002229217    1.714    0.417
       214 -12.3262     20.6384    154.4853   8.2148738757e+01   4.0232561573e+01    0.2357214    0.2095717  59.61 0.0009362397    1.117    0.105
       215 -12.1689      2.5839    152.7134   8.7144824315e+01   4.2114390181e+01    0.3535351    0.2405297  80.43  0.002081627    1.242    0.195
       216 -11.8450      5.4628    150.5173   8.6198362917e+01   4.2450846412e+01    0.3875053    0.1863576  75.23  0.001837184    1.972    0.493
       217 -11.5811    224.4848    152.4913   3.1117922931e+01   7.2841573589e+00    0.3115473    0.1671076 -22.33  0.001248346    2.095    0.523
       218 -12.0172    212.5580    153.5825   3.3355670157e+01   9.0846260698e+00    0.2226135    0.2020446 -34.96  0.001397607    1.179    0.152
       219 -13.6635     52.3065    151.9276   7.2569445080e+01   3.7477717445e+01    0.5146691    0.3405463   5.19  0.001524619    2.189    0.543
       220 -13.1685     57.1684    144.7848   7.0109073187e+01   3.8676761278e+01    0.5637919      0.29191 -35.98  0.001911976    3.062    0.673
       221 -11.9528     44.4501    152.4872   7.4975955173e+01   3.8286365917e+01    0.2617238    0.1837664  46.89 0.0006504497    1.349    0.259
       222 -10.8343     13.0544    153.5327   8.4243687061e+01   4.1118789175e+01    0.1923308    0.1188301  32.39 0.0001778617    1.645    0.392
       223 -11.9343     12.2038    149.8850   8.4218984757e+01   4.2096940748e+01    0.2185856    0.1982714 -71.52 0.0005440129    1.197    0.165
       224 -11.2301      8.8499    146.9198   8.4978163879e+01   4.3097387855e+01    0.2230696    0.1242889  62.30  0.001134028    1.678    0.404
       225 -11.1800    249.1877    151.8773   2.7200005792e+01   3.5719578317e+00    0.1704651    0.1404677 -30.50 0.0003011522    1.152    0.132
       226 -12.3731    172.2177    151.4671   4.0702503353e+01   1.6750602923e+01    0.3384299    0.2246715 -69.34  0.001427587    2.503    0.600
       227 -12.5288    167.9946    150.2628   4.1354077198e+01   1.7792053585e+01    0.2639707    0.2400801  41.89  0.001478175    1.131    0.116
       228 -13.0072    134.2263    151.0202   4.9409049435e+01   2.4166458952e+01     0.406755    0.2794269  48.70  0.001716211    1.466    0.318
       229 -12.9127    108.6336    149.2358   5.5778906850e+01   2.9374933915e+01    0.4115484    0.3039965 -53.49  0.001038205    1.394    0.283
       230 -13.2717    102.2102    142.9816   5.6347030899e+01   3.2033721552e+01    0.6378443    0.3985615  66.75  0.002345524    2.181    0.541
       231 -13.0255    124.9424    148.1780   5.1198681457e+01   2.6580083039e+01    0.4196195     0.305399  78.84  0.001480223    1.896    0.473
       232 -13.5748    120.6245    144.4233   5.1561425846e+01   2.8264913375e+01    0.5472878    0.3901446  38.39  0.001265956    1.373    0.272
       233 -12.8949     95.7866    149.2420   5.9373373759e+01   3.1643352175e+01    0.3199869    0.2391988 -47.99 0.0009352441    1.421    0.296
       234 -13.4455     41.5330    147.4588   7.5248205315e+01   3.9904257110e+01    0.5106151    0.2182083 -57.23  0.001672257    2.262    0.558
       235 -11.4932    146.9420    148.7921   4.5833416773e+01   2.2182383180e+01    0.2435579    0.2114869 -42.12 0.0003258978    1.174    0.148
       236 -11.9009     19.8999    149.8532   8.1971266481e+01   4.1461776958e+01    0.3812446    0.2414227   0.06  0.001796356    2.276    0.561
       237 -12.0782     32.5232    147.6299   7.7996133439e+01   4.0828729178e+01    0.2524844    0.2165011 -50.33 0.0007405693    1.315    0.240
       238 -13.1929     30.1720    139.6297   7.7842694616e+01   4.3118437407e+01    0.4463155    0.3110963 -58.71   0.00238544    1.424    0.298
       239 -11.5622     26.2813    142.3449   7.9343822576e+01   4.2793082568e+01    0.2491426    0.1765517 -51.58 0.0004336649    1.522    0.343
       240 -10.3819    245.9625    147.0032   2.6713759242e+01   4.7594768501e+00     0.145667    0.1201983 -20.71 0.0003558509    1.015    0.014
       241 -11.7141    151.4271    145.8347   4.4140846328e+01   2.1923722005e+01    0.2484174    0.2014617  40.33 0.0002908114    1.214    0.176
       242 -10.7356    229.1594    145.3717   2.8925009448e+01   7.6433901297e+00    0.1535687    0.1236129  54.59  0.000390798    1.593    0.372
       243 -11.1481    170.4690    145.4481   3.9788017079e+01   1.8256613841e+01    0.1440808    0.1372243  -2.79 0.0002138949    1.008    0.008
       244 -13.7360     70.9072    143.0764   6.5630808511e+01   3.7184866666e+01    0.4462816     0.298322 -58.69  0.001355034    1.481    0.325
       245 -10.9165    194.8447    143.6255   3.4486554427e+01   1.3942309659e+01    0.1827816    0.1323233  53.69 0.0004888236    1.615    0.381
       246 -11.5110    187.2764    143.0933   3.5828444634e+01   1.5462643191e+01     0.193174    0.1729238 -35.14  0.000317622    1.092    0.085
       247 -12.7162     51.2823    142.3270   7.1575436619e+01   4.0065722462e+01    0.3918065    0.2019341  46.73 0.0007354356    1.906    0.475
       248 -13.6204     15.8848    141.7292   8.2470143301e+01   4.3859210711e+01    0.7545282    0.2945997  25.09  0.003245076    2.652    0.623
       249 -11.3937    209.4425    142.4636   3.1589838126e+01   1.1484557232e+01    0.2686267    0.1247638  61.78 0.0008088218    5.621    0.822
       250 -11.2240    178.0051    142.4833   3.7559317492e+01   1.7361122712e+01    0.2108341    0.1409685  43.08 0.0004832009    1.529    0.346
       251 -13.2463     94.7276    140.6399   5.8045577905e+01   3.3933652060e+01    0.4371782     0.345405 -30.06  0.001471102    1.535    0.348
       252 -13.3787     13.2351    134.9740   8.2698228257e+01   4.5790503770e+01     0.498406    0.2900569  75.37  0.001560918    1.665    0.399
       253 -13.5391     39.2013    139.8590   7.5030717194e+01   4.2121403477e+01    0.4142037    0.3465669  55.42  0.001004094    1.155    0.134
       254 -11.5619    132.2502    139.9857   4.7570585499e+01   2.7004033100e+01    0.2262445    0.1732986  13.04 0.0007723857    1.640    0.390
       255 -10.9494    109.4134    137.7900   5.3242273666e+01   3.1954690524e+01    0.2155233    0.1424272 -42.47 0.0009385498    1.640    0.390
       256 -11.4369    232.9828    136.9644   2.6610436898e+01   8.3290525476e+00    0.1940749    0.1662489 -26.41 0.0003571153    1.029    0.028
       257 -12.1187    126.4022    137.3058   4.8502399498e+01   2.8772630944e+01    0.2358397    0.1869271  -8.42 0.0006223932    1.644    0.392
       258 -13.5888    115.5444    134.0393   5.0718304945e+01   3.1668688531e+01    0.8449904    0.4029995  61.41  0.002406687    4.243    0.764
       259 -13.1702     45.8455    135.7309   7.2360201746e+01   4.2436121107e+01    0.4983268    0.2712271  57.10  0.002162594    2.008    0.502
       260 -13.2552     90.1069    135.9114   5.8483219718e+01   3.5907624135e+01    0.5265289    0.2743617  57.96  0.001919728    2.529    0.605
       261 -13.6870     84.8730    135.7962   6.0046783802e+01   3.6824827811e+01    0.4866259    0.3621631 -48.93  0.002079169    1.399    0.285
       262 -13.8210    101.5836    134.2265   5.4733406757e+01   3.4274496704e+01     0.837469    0.4738237  17.06  0.002877835    3.099    0.677
       263 -12.0068    102.1775    129.8309   5.3612895460e+01   3.5234635547e+01    0.2789699    0.2029585 -42.71 0.0007950517    1.470    0.320
       264 -13.8057     57.3497    133.6055   6.8323795743e+01   4.1539687905e+01    0.6030627    0.2698421  39.34  0.002316317    2.143    0.533
       265 -11.5190     36.9614    134.7705   7.5095075041e+01   4.3683738631e+01    0.1909189    0.1769941  57.07 0.0006395745    1.110    0.099
       266 -12.3773     34.3194    131.9990   7.5597163076e+01   4.4681270544e+01    0.2553068    0.2300555 -39.84 0.0006824936    1.267    0.211
       267 -11.7295     37.6774    130.7165   7.4324007598e+01   4.4663517807e+01    0.2318077    0.1955163  77.47 0.0002106655    1.117    0.105
       268 -12.6781     35.5196    128.0621   7.4679956662e+01   4.5584366203e+01    0.3512429    0.2409449  66.15  0.001150772    1.503    0.335
       269 -11.1254    209.9669    134.2626   2.9742026441e+01   1.2781293728e+01    0.1825269    0.1707433 -13.30 0.0004200007    1.057    0.054
       270 -13.0193     26.6721    147.8069   7.9773753028e+01   4.1360673326e+01    0.5612345    0.3601762  87.02  0.002343087    1.464    0.317
       271 -10.3581    138.6875    133.2628   4.4431170820e+01   2.7194453982e+01    0.1501427    0.1205014  77.17 0.0003459317    1.537    0.350
       272 -10.9641    128.4687    133.4887   4.7105017990e+01   2.9227350664e+01    0.1523086    0.1502889  27.77 0.0008095643    1.030    0.029
       273 -11.5931    230.5134    130.9751   2.5736093627e+01   9.6831427802e+00    0.2921157    0.2030324 -63.19   0.00140822    2.074    0.518
       274 -11.1026     19.4834    131.8388   8.0408294194e+01   4.6099028392e+01    0.2122536    0.1793756 -44.35  0.001263215    1.338    0.253
       275 -12.3654     93.9216    129.3131   5.5969056659e+01   3.6876330949e+01    0.3725262     0.200947 -54.43  0.001507028    1.845    0.458
       276 -13.5065     48.2303    130.2201   7.0765826871e+01   4.3586111342e+01    0.5158479    0.2681108  39.45  0.002268053    1.884    0.469
       277 -10.6975      2.2930    131.3354   8.5839954133e+01   4.7471136165e+01    0.1315525   0.08390076 -52.49 0.0007025446    1.641    0.391
       278 -11.0837    199.4730    130.4385   3.0742844961e+01   1.5414031063e+01    0.1388023    0.1282177 -25.39 0.0001137391    1.011    0.011
       279 -13.1199     64.2613    121.3147   6.3847958811e+01   4.3763965406e+01    0.4985084    0.2704502 -71.57  0.002033046    2.005    0.501
       280 -13.5545     64.5818    127.8435   6.4971541437e+01   4.2027805499e+01    0.5048726    0.3165839  73.73  0.001074784    2.055    0.513
       281 -13.7537     58.6176    125.2940   6.6487930237e+01   4.3528572785e+01    0.6204214    0.3821524   7.32   0.00256465    2.442    0.591
       282 -14.9340     77.6664    118.9179   5.8876762101e+01   4.2295006905e+01     1.003507    0.6471103  68.79  0.004176197    2.054    0.513
       283 -13.0621     83.5181    127.4688   5.8798397906e+01   3.9151418880e+01    0.2928478    0.2772958 -27.21 0.0008309331    1.170    0.145
       284 -13.3643     80.1702    127.2070   5.9804515932e+01   3.9776483927e+01    0.4997163    0.3230565  88.40  0.001353465    2.131    0.531
       285 -13.0061     75.1441    125.1161   6.0996321295e+01   4.1124302578e+01     0.364508    0.2945546  38.13 0.0003315932    1.253    0.202
       286 -12.0174    186.7625    125.1866   3.1912638660e+01   1.8876952255e+01    0.5518906    0.1809561 -48.43  0.001714174    3.639    0.725
       287 -11.4943    189.2480    121.4197   3.0564788126e+01   1.9065728472e+01    0.2112452    0.1443891  46.86 0.0003084904    1.549    0.355
       288 -10.8046    130.4981    128.4618   4.5414878428e+01   2.9950194089e+01    0.1532986     0.150789  59.28 0.0001821812    1.003    0.003
       289 -12.2252    122.8796    126.7303   4.7039510812e+01   3.1908442747e+01    0.4567817    0.3024957  15.71  0.001687657    2.301    0.565
       290 -12.8475     26.8765    124.8839   7.7174582044e+01   4.7259278291e+01    0.3603996    0.3214072 -86.14  0.001883967    1.013    0.013
       291 -11.9141    169.5331    125.9771   3.5579276261e+01   2.2280239669e+01    0.2695124    0.2044604  27.67 0.0003801116    1.486    0.327
       292 -13.0766     14.2171    118.0788   8.0720270243e+01   5.0068144803e+01    0.3446934    0.2807908  41.66  0.002066577    1.303    0.233
       293 -13.0707     20.8056    122.9143   7.8998730568e+01   4.8301481079e+01    0.3763213    0.2886564 -32.85 0.0009219311    1.548    0.354
       294 -11.5506     15.1731    123.1380   8.0931011505e+01   4.8688737591e+01    0.1882528    0.1385691  67.74 0.0003731914    1.314    0.239
       295 -12.6864     22.9984    116.9311   7.7511099295e+01   4.9675155850e+01    0.4496454    0.2319302 -52.59  0.002075456    1.873    0.466
       296 -13.1941     18.2512    114.4678   7.8887346763e+01   5.0701573033e+01    0.4139936    0.3320268  33.93  0.001600715    1.354    0.262
       297 -11.6060      5.1275    123.2350   8.4294387455e+01   4.9354615395e+01     0.297581    0.1561106 -87.43  0.001453653    1.704    0.413
       298 -11.8560    194.9760    122.6850   2.9799614223e+01   1.7678871804e+01     0.188603    0.1835172  26.06 0.0002903876    1.095    0.087
       299 -13.0906     52.5230    122.9024   6.8127111680e+01   4.4960531814e+01    0.6708596     0.308331   8.45  0.001917895    5.263    0.810
       300 -11.3216     10.6561    123.1595   8.2449759904e+01   4.9009861031e+01    0.1943836   0.09989232 -66.95 0.0006924248    1.678    0.404
       301 -12.0860    199.2301    121.3290   2.8725252697e+01   1.7073388036e+01    0.2685901    0.2107043  12.74  0.001069398    1.545    0.353
       302 -13.4036    104.8329    121.2100   5.0868458418e+01   3.6816380525e+01    0.5866548    0.3143762  48.48  0.001599374    1.928    0.481
       303 -11.9268      9.0802    117.1955   8.2406633340e+01   5.0651026541e+01    0.2277424    0.1888718  53.01  0.001205208    1.240    0.194
       304 -11.3044    224.0928    120.3179   2.4425426624e+01   1.2516583856e+01    0.1709829    0.1654877 -29.79 0.0004329224    1.125    0.111
       305 -12.4389     94.8720    117.6198   5.3055317886e+01   3.9589494364e+01    0.3161539    0.2369829 -64.14  0.001475881    1.383    0.277
       306 -12.8307     57.6214    117.8286   6.5449505340e+01   4.5606537348e+01    0.2455247    0.2086379  11.92 0.0007130432    1.364    0.267
       307 -11.7232    210.0583    116.6926   2.5826639668e+01   1.5751991658e+01    0.1796469    0.1775692  28.94 0.0003767755    1.124    0.110
       308 -11.1035    241.6971    115.9890   2.0984184199e+01   1.0098347209e+01    0.1768956    0.1387256 -34.19 0.0003228577    1.064    0.060
       309 -11.8854    196.7963    115.7425   2.7860958302e+01   1.8552417428e+01    0.2396307    0.2276011  -7.89 0.0008596466    1.082    0.076
       310 -11.1367     29.1769    116.3279   7.5239821492e+01   4.9280743785e+01    0.1764339    0.1642925  67.06 0.0003771855    1.099    0.090
       311 -10.3639    221.2976    115.3152   2.3748933123e+01   1.3842759310e+01    0.1321726    0.1005393  -2.71 0.0002538946    1.607    0.378
       312 -12.9188    115.5476    113.5261   4.5863199233e+01   3.6476313039e+01    0.4491767     0.334622   0.02  0.001834227    1.999    0.500
       313 -11.8874    113.5121    109.0656   4.5303667118e+01   3.7934245838e+01    0.2686855    0.2090676  54.74 0.0005221613    1.321    0.243
       314 -13.3041    104.2688    114.3705   4.9387167121e+01   3.8569436026e+01    0.3879047    0.3054383  34.88  0.001425198    1.316    0.240
       315 -12.3632    108.8920    111.9146   4.7390243506e+01   3.8223610792e+01    0.3048927    0.2384255  36.16  0.001259277    1.320    0.242
       316 -13.4010     83.2093    111.4069   5.5340058837e+01   4.3242891427e+01    0.6032181    0.2812997 -52.71 0.0005269453    2.082    0.520
       317 -12.8621     89.8690    110.9296   5.3042105876e+01   4.2162336614e+01    0.3493669    0.3056761  37.01 0.0004037161    1.169    0.144
       318 -11.8416     92.8989    105.8725   5.0795678609e+01   4.2828251442e+01    0.3003326     0.217133 -34.51  0.001348156    1.583    0.368
       319 -13.4662     63.4798    112.4806   6.2331638905e+01   4.6159169364e+01    0.3815644    0.3137407 -69.79  0.001154987    1.181    0.153
       320 -13.3829     61.6793    108.3371   6.2086576596e+01   4.7487632979e+01    0.5362847    0.3280449 -40.34  0.002271516    1.844    0.458
       321 -10.6969    229.4947    112.4506   2.1912714605e+01   1.2793379571e+01    0.1324892    0.1134227 -40.74 2.122985e-05    1.066    0.062
       322 -12.2966     53.1306    110.3799   6.5592656411e+01   4.8143855128e+01     0.332413    0.2453753  29.64  0.001014688    1.440    0.306
       323 -12.1211    217.8902    109.9098   2.3055547594e+01   1.5371717464e+01    0.2520844    0.1961537  62.54 0.0007006446    1.520    0.342
       324 -11.5611    170.4813    109.4361   3.1349442478e+01   2.5312128617e+01    0.1477247    0.1437846 -44.14 6.908084e-05    1.009    0.009
       325 -11.7252    121.6919    108.2255   4.2763047163e+01   3.6387349017e+01    0.2767391    0.2339585  80.97 0.0004763106    1.344    0.256
       326 -13.2213     70.4815    119.4024   6.1370407421e+01   4.3321343957e+01    0.4762784    0.3398302  -3.75  0.002096801    2.057    0.514
       327 -11.2938    209.9007    108.1621   2.3896458921e+01   1.7224864777e+01    0.2221015    0.1763834 -58.52  0.001222234    1.344    0.256
       328 -13.0288      3.0730    106.9515   8.3529445934e+01   5.3638860485e+01    0.2770455    0.2554086 -45.91  0.000899888    1.202    0.168
       329 -10.7803    139.6686    107.3186   3.7791730239e+01   3.2627159776e+01    0.1613405    0.1242656 -87.82 0.0007047998    1.690    0.408
       330 -11.4947    158.4991    106.4942   3.3152930161e+01   2.8560884597e+01    0.3108684    0.1515849  50.06 0.0009309524    2.098    0.523
       331 -13.5866     10.4030    103.9370   8.0492901485e+01   5.3980537495e+01    0.5665891    0.4530769  65.55  0.001870026    1.272    0.214
       332 -12.0497    220.0556    104.2873   2.1458114953e+01   1.5870706236e+01    0.2334689    0.1710601 -42.11 0.0002929543    1.207    0.172
       333 -12.1760    105.6539    103.2901   4.6111480380e+01   4.0908420203e+01    0.3393309     0.257697  88.82  0.001501218    1.720    0.419
       334 -10.6353    237.0166    108.4712   2.0009158786e+01   1.2061672912e+01    0.1673591    0.1052874  24.59 0.0008082294    2.422    0.587
       335 -10.8651    229.6949    103.0610   1.9817409458e+01   1.4234481943e+01     0.184573    0.1509641 -37.31 0.0004525204    1.050    0.048
       336 -12.5629     79.0929    101.7599   5.4371275365e+01   4.6358781305e+01    0.3292553    0.2954318  57.31 0.0006517586    1.141    0.124
       337 -13.2252     76.7412     97.0634   5.3985954189e+01   4.7922671233e+01     0.397526    0.3236429   6.14 0.0003066142    1.495    0.331
       338 -13.9942     78.9564     92.1013   5.1860510445e+01   4.8736181858e+01    0.5812577    0.4420055  71.77  0.001982982    1.635    0.388
       339 -12.2842    153.5640    100.1913   3.2594178094e+01   3.0943970667e+01    0.4667181    0.3240022 -57.65  0.002091164    1.581    0.367
       340 -11.2108     55.8608    101.4778   6.2716031868e+01   5.0070294457e+01    0.2192196    0.1859649 -62.65 0.0005620667    1.117    0.104
       341 -11.8747     27.7725    100.1822   7.3278886339e+01   5.3616399364e+01    0.5440837    0.2628742  57.32  0.002183058    2.692    0.628
       342 -11.7250     33.2472     98.2935   7.0795558837e+01   5.3583439469e+01    0.3240725    0.2500117 -17.59 0.0009694441    1.540    0.351
       343 -11.1021     85.0065    100.7394   5.2078747594e+01   4.5550566358e+01    0.2112686     0.202388  39.42  0.000468572    1.068    0.064
       344 -11.0079    191.6113    100.1824   2.5029954767e+01   2.2400301122e+01    0.2077424    0.1324461 -27.80 0.0009443663    1.691    0.409
       345 -13.0106    162.5057     99.4424   3.0439439250e+01   2.9039900098e+01    0.3609712    0.2474788 -68.10  0.001162543    1.892    0.471
       346 -13.0508     64.6340     95.9866   5.8128492271e+01   5.0175607873e+01    0.5821063     0.307606 -29.66  0.000986249    3.155    0.683
       347 -12.2112     60.4299     99.1894   6.0479297943e+01   5.0002853680e+01    0.3420422    0.2375477 -83.25  0.001144267    1.728    0.421
       348 -11.0029     57.3305     97.3013   6.1205204829e+01   5.0927261424e+01    0.2537578    0.2202293 -26.25 0.0005173468    1.262    0.208
       349 -11.6360      8.7357     96.7859   8.0260054682e+01   5.5918404337e+01      0.28223    0.1354916  75.30   0.00118485    2.550    0.608
       350 -10.6517    123.3072     96.6470   3.9160550074e+01   3.8598014202e+01    0.1640577    0.1247899 -84.90 0.0007042577    1.716    0.417
       351 -11.1323    118.0895     95.0843   4.0173898922e+01   4.0102469991e+01    0.2287282    0.2211994 -82.92  0.000411618    1.031    0.030
       352 -11.5075    182.6680    101.9829   2.7088510110e+01   2.4027036991e+01    0.2981868    0.1340645 -32.60  0.001098836    2.426    0.588
       353 -12.4653     93.6148     99.5108   4.8886923421e+01   4.4216229805e+01    0.2780055    0.2755514  89.42 0.0008669723    1.017    0.017
       354 -11.5483     41.2524     91.7916   6.6281998219e+01   5.4392379457e+01    0.2325945    0.2005207  70.47 0.0005183526    1.254    0.202
       355 -10.7152     39.1349     88.1459   6.6348855605e+01   5.5556590708e+01    0.1791801    0.1552119  76.31 0.0009981752    1.252    0.201
       356 -12.4784    188.7648     90.9257   2.3203205008e+01   2.4647975243e+01    0.3656896    0.2081993  49.24  0.001276684    1.883    0.469
       357 -12.4508     62.1168     90.3191   5.7638634118e+01   5.1969158993e+01    0.3134713    0.2142804 -20.42  0.001377672    1.990    0.498
       358 -10.4569    243.5711     90.5630   1.5315152915e+01   1.3583909553e+01    0.1273419    0.1053643 -40.22 0.0001572482    1.012    0.012
       359 -12.6441     68.9053     89.8697   5.4931861620e+01   5.1003296099e+01    0.2333754      0.20465 -21.72 0.0004824483    1.248    0.199
       360 -12.6509    149.2659     88.0000   3.0205390454e+01   3.4353534841e+01    0.3054743    0.2634863 -46.93 0.0008519326    1.143    0.125
       361 -12.1011    149.9997     83.1572   2.8657308079e+01   3.5107906816e+01    0.2806648    0.2229969 -32.45  0.001361781    1.326    0.246
       362 -10.8462    126.3051     88.6671   3.6050387976e+01   3.9615888830e+01     0.248009    0.2049288  51.96 0.0007694365    1.204    0.169
       363 -11.2626    126.0326     85.2876   3.5121435018e+01   4.0379215370e+01    0.3487386    0.2982593   1.25  0.001239343    1.440    0.306
       364 -11.0772      3.3751     87.9740   8.1314571558e+01   5.8449563062e+01    0.2994004    0.1075646 -75.29  0.001227811    2.371    0.578
       365 -11.3656    171.4861     88.4386   2.5690350439e+01   2.9032294785e+01    0.1484036    0.1419807 -63.28 6.628349e-05    1.008    0.008
       366 -12.7107     54.7009     85.6730   5.9353297137e+01   5.4204737040e+01    0.5417891    0.4055993   7.34  0.002658133    1.612    0.380
       367 -13.9884     64.9454     81.4625   5.4098940751e+01   5.3672321456e+01    0.6696577    0.4883176 -35.00  0.003251479    1.465    0.318
       368 -11.6053     11.5887     86.1684   7.7619401158e+01   5.8448390759e+01    0.3555701    0.1868192  73.45  0.001261856    2.435    0.589
       369 -11.0738    133.4633     84.1124   3.2846192523e+01   3.8872409882e+01    0.2282068    0.2013997  55.83 0.0003243463    1.126    0.112
       370 -12.4343    106.5131     73.3382   3.6931915750e+01   4.7314733222e+01    0.4793731    0.3168466  68.21  0.001996787    1.957    0.489
       371 -11.8932    112.1652     82.9032   3.8278555224e+01   4.4053764426e+01    0.3878458    0.2137317  56.35  0.001091637    2.018    0.505
       372 -12.2241    112.4155     78.5720   3.6856399223e+01   4.4903300714e+01    0.4285537    0.2955681 -70.15   0.00179675    1.950    0.487
       373 -12.6357     78.6830     82.2531   4.9114778515e+01   5.1108376868e+01    0.2746282    0.2651433  83.85 0.0002330099    1.077    0.072
       374 -11.9189     73.9483     82.5054   5.0943768133e+01   5.1903414989e+01    0.2215848     0.148348  37.74  0.000463074    1.523    0.343
       375 -10.2642    247.5009     81.5606   1.2931807325e+01   1.4180797071e+01    0.1258817    0.1038078 -42.92 7.750098e-05    1.017    0.016
       376 -12.0560    182.6013     80.2053   2.1476742958e+01   2.7897731380e+01    0.2112152    0.1382201 -26.45 0.0009563531    1.717    0.418
       377 -11.8749     88.8330     78.8953   4.4467297759e+01   4.9912209378e+01    0.2951975    0.2263875  49.57 0.0007517482    1.333    0.250
       378 -12.3465     86.1123     74.3525   4.3959090688e+01   5.1455279602e+01    0.4805702     0.209916 -45.81   0.00127712    2.282    0.562
       379 -11.4241     52.8725     78.4529   5.8151986358e+01   5.6220925704e+01    0.5436682    0.2950441  20.31  0.002257866    2.279    0.561
       380 -11.2016     52.1854     73.3323   5.6970685360e+01   5.7538562154e+01    0.3514274    0.2189576  50.28  0.001455529    1.910    0.476
       381 -12.0096     53.1078     68.7761   5.5184910950e+01   5.8468161993e+01    0.3212131    0.2237532 -22.01  0.001531472    1.731    0.422
       382 -13.7735      7.1938     77.0904   7.8124092877e+01   6.0982812067e+01    0.6153911    0.3312826 -45.19  0.001852979    1.725    0.420
       383 -12.0978     70.6065     77.2808   5.0636183824e+01   5.3702080828e+01    0.2716728    0.1810197 -42.42 0.0005580073    1.502    0.334
       384 -12.9255    161.4513     76.3758   2.4311375725e+01   3.3588418100e+01    0.4357765    0.2171542 -54.06  0.001621313    2.374    0.579
       385 -10.1571    227.6804     76.7022   1.4120040362e+01   1.8668707422e+01    0.1230991    0.1019841   8.06 0.0004140995    1.617    0.382
       386 -12.3871     75.4086     75.1755   4.8138071337e+01   5.3324880856e+01    0.4368066    0.2296877 -37.19  0.001712678    2.176    0.540
       387 -11.2915     78.5245     70.4808   4.5434427660e+01   5.3781283262e+01     0.293204    0.1417341 -43.59 0.0008539495    2.078    0.519
       388 -11.6315    115.8420     74.6230   3.4614855139e+01   4.4917918104e+01    0.3052955    0.2225419 -49.27  0.001158996    1.404    0.288
       389 -11.7318    156.4915     74.0670   2.4640821128e+01   3.5205209777e+01    0.2335278    0.2117393  75.19   0.00123726    1.095    0.087
       390 -11.8513     68.0993     72.3342   5.0063170858e+01   5.5264989661e+01    0.2485035    0.1916127 -38.93  0.000557486    1.296    0.228
       391 -11.3762    218.9459     72.1143   1.4119144574e+01   2.1143286559e+01    0.2046583     0.175309 -49.41  0.000509523    1.013    0.013
       392 -12.1182      2.7043     71.0983   7.9239419685e+01   6.2686503210e+01    0.3868576    0.1898318 -87.09  0.001468212    2.174    0.540
       393 -10.9364    189.1739     70.4123   1.7819725234e+01   2.7992711620e+01    0.1917501    0.1354012  80.68 0.0004904794    1.599    0.375
       394 -10.3867    133.2294     70.3440   2.8685430727e+01   4.1584707950e+01    0.1471231    0.1215143  -1.42 0.0002485067    1.547    0.354
       395 -11.2575    178.5330     69.0264   1.9150477816e+01   3.0724722328e+01    0.2241361    0.1364041 -39.14 0.0004502706    1.560    0.359
       396 -12.0775    154.3846     68.2326   2.3348569421e+01   3.6746155359e+01    0.3021508    0.2289626  76.30 0.0003884758    1.414    0.293
       397 -11.1510     71.9967     69.0252   4.7441089294e+01   5.5313765600e+01    0.2374752    0.1794389 -10.53 0.0006430423    1.682    0.405
       398 -10.3265     99.2751     68.3618   3.7525616044e+01   4.9938434259e+01    0.1544189    0.1213652  -2.98 0.0007005957    1.662    0.398
       399 -10.6456    241.7435     66.9799   1.0370352354e+01   1.7320470176e+01    0.1607527    0.0930034 -36.59 0.0003276099    1.457    0.314
       400 -10.7474    225.3019     67.3082   1.2228162102e+01   2.0535976971e+01    0.1217028    0.1026423   7.73 0.0002683182    1.602    0.376
       401 -12.3858     60.0463     66.9912   5.1627522907e+01   5.7809239668e+01    0.2207615    0.2061312 -30.21 0.0005245946    1.028    0.028
       402 -10.3182    185.2847     65.7237   1.7171492886e+01   2.9651421676e+01    0.1444041     0.102792 -67.36 0.0001663488    1.509    0.337
       403 -11.6747    164.9571     64.0021   2.0084967565e+01   3.4846372505e+01      0.22007    0.2053957 -66.33 0.0003336295    1.021    0.020
       404 -12.0754     92.0572     63.8203   3.8322165020e+01   5.2421124064e+01    0.2404539    0.2148218 -45.62 0.0003290606    1.138    0.122
       405 -11.9883    100.6396     62.2232   3.4966313378e+01   5.0842036684e+01    0.2608976    0.2307033 -84.73 0.0005002696    1.281    0.219
       406 -10.3877     23.3313     63.6288   6.7673461458e+01   6.3155719750e+01    0.1376813   0.09831309  67.28 0.0007029036    1.833    0.454
       407 -11.7826     11.0173     62.9230   7.3684684721e+01   6.4234226530e+01    0.3853996    0.1983477  -9.92  0.001316616    2.451    0.592
       408 -11.9650    109.1999     59.8158   3.1541324328e+01   4.9317796595e+01    0.4235536    0.2911754 -25.25  0.001867274    1.718    0.418
       409 -12.2173    116.1787     53.8235   2.7492103654e+01   4.8705486829e+01    0.2538748    0.2388519 -89.14 0.0003940769    1.083    0.077
       410 -13.0078    112.9944     52.1792   2.7758838157e+01   4.9759814013e+01    0.6851161    0.4173198  14.19  0.002370448    3.403    0.706
       411 -11.9238     41.3391     59.9346   5.7756600960e+01   6.2095684306e+01    0.3162562    0.2052693  25.87  0.001590912    1.623    0.384
       412 -11.9250     18.4546     59.3615   6.9053718394e+01   6.4567613314e+01    0.2736023    0.1891468 -60.34  0.001036984    1.290    0.225
       413 -11.7959    198.7419     57.6828   1.3133515568e+01   2.7739809654e+01    0.2324279       0.2187  33.82  0.001396954    1.293    0.226
       414 -11.7236    182.0768     57.2676   1.5359892036e+01   3.1729194291e+01    0.2372832    0.2038149   4.10   0.00102163    1.509    0.337
       415 -11.6384     54.8397     57.3132   5.0570200750e+01   6.0758467735e+01     0.217891    0.2022863  56.53 0.0005171443    1.226    0.184
       416 -12.3073     37.0565     54.7086   5.8138676853e+01   6.3797837517e+01    0.5574884    0.2428443 -39.55  0.002261434    2.411    0.585
       417 -11.3453     40.5383     53.4351   5.5961339304e+01   6.3643830112e+01    0.2182673    0.2138685 -84.30 0.0005768242    1.180    0.153
       418 -11.5321    192.5322     57.5060   1.3922215572e+01   2.9207557790e+01    0.1418297    0.1262855 -63.12 2.415927e-05    1.006    0.006
       419 -11.5371     45.4095     62.2116   5.6567973585e+01   6.1048479841e+01    0.2784493    0.1202422 -50.39  0.001132137    2.115    0.527
       420 -12.7805     23.9325     55.7325   6.5213961308e+01   6.4953271954e+01    0.3568124    0.2545166 -21.26 0.0005712303    1.470    0.320
       421 -11.9545     19.8539     53.1034   6.6624116262e+01   6.5911787690e+01    0.2083042    0.2048033  27.53 0.0003140569    1.175    0.149
       422 -12.2945    159.9136     57.3501   1.9036045676e+01   3.7173977256e+01    0.2543771    0.1951488 -53.57 0.0005966194    1.283    0.221
       423 -10.8876    205.4535     54.5172   1.1479570312e+01   2.6671008988e+01    0.1362464    0.1209258 -58.36  7.04156e-05    1.032    0.031
       424 -12.6966    121.0374     53.1319   2.5991996323e+01   4.7629570101e+01    0.3868946    0.2689578 -47.77  0.001047235    1.503    0.334
       425 -10.7507    195.4425     52.4902   1.2214272303e+01   2.9261832228e+01    0.1400618    0.1232623 -62.50 0.0001332649    1.007    0.007
       426 -12.1123    175.8802     50.9018   1.4513285351e+01   3.4191022219e+01    0.2559318    0.2034815 -86.28 0.0003906022    1.259    0.206
       427 -12.5670    131.9526     50.0413   2.2331735818e+01   4.5402563331e+01    0.3035933    0.2745329 -36.46  0.001638011    1.163    0.140
       428 -13.2406     30.4453     50.0802   5.9995537714e+01   6.5579785180e+01    0.3202079    0.2973799  37.93  0.001081684    1.234    0.190
       429 -11.9862    162.3468     49.9327   1.6386596673e+01   3.7706252180e+01    0.2565067    0.2034036  59.43 0.0002674622    1.262    0.208
       430 -12.1363     99.1610     49.8334   3.0888180039e+01   5.3443264579e+01    0.2322038     0.208269 -83.57  0.001238404    1.254    0.202
       431 -11.6624    106.7840     51.5720   2.9272052984e+01   5.1354963150e+01    0.2086275    0.1425894  65.24 0.0008190021    1.596    0.373
       432 -11.7854     41.7321     46.8360   5.2941622493e+01   6.4893241089e+01    0.2374444    0.2174084  24.58  0.000547363    1.157    0.136
       433 -12.0658     20.3179     45.2292   6.3956305233e+01   6.7643624609e+01    0.2749874    0.1235931 -44.61    0.0012641    1.953    0.488
       434 -11.9521    114.6545    247.1789   6.8329728184e+01   8.4940584978e+00    0.2978531    0.1437992 -56.55  0.001588388    2.601    0.615
       435 -11.5935    197.0363     44.0042   9.7973909717e+00   3.0079635739e+01    0.2103793    0.1810509 -64.23 0.0003003359    1.018    0.017
       436 -10.8796     90.2899     43.6639   3.1298517027e+01   5.6516428977e+01    0.1446177    0.1153003 -75.66 0.0007021613    1.636    0.389
       437 -12.7465    158.4086     41.4487   1.4459985695e+01   3.9933371151e+01    0.2660866    0.2454307 -79.09 0.0002790583    1.016    0.016
       438 -12.4138     34.6046     40.4585   5.4193402372e+01   6.7137721014e+01    0.3488101     0.219108  14.48  0.001037736    1.772    0.436
       439 -13.4532     28.4181     35.7795   5.5782193288e+01   6.8825433713e+01    0.3945769    0.2241975 -36.60  0.002003995    1.673    0.402
       440 -13.1646     30.8011     31.9046   5.2733775491e+01   6.9306692642e+01    0.3662489    0.3245958 -10.44  0.001596578    1.035    0.034
       441 -10.2399    124.2769     39.6630   2.0432246579e+01   4.8926007215e+01    0.1506465    0.1095432 -67.47 0.0004541158    1.611    0.379
       442 -11.1203    119.0232     38.9753   2.1398606247e+01   5.0353103953e+01    0.2483705     0.173638 -68.62  0.001138975    1.783    0.439
       443 -10.6997    220.5214     38.4277   5.9314013645e+00   2.5520243201e+01    0.1307078    0.1077756 -60.90 0.0001241732    1.015    0.015
       444 -11.5212     80.3778     36.0276   3.1501947357e+01   5.9949137977e+01    0.3544955    0.2212351 -51.10  0.001625885    1.950    0.487
       445 -12.5136     77.5418     31.0115   3.0299646505e+01   6.1338759455e+01    0.3166886    0.2352138  87.65  0.001085868    2.061    0.515
       446 -13.2340      8.3930     35.8000   6.8059044125e+01   7.0608265202e+01    0.3748772    0.2423773 -72.43  0.001373423    1.715    0.417
       447 -13.0270     96.2974     29.0897   2.3418346590e+01   5.7337226830e+01    0.6019359    0.2636045 -27.19  0.001702352    2.614    0.618
       448 -11.0410     52.7779     33.6058   4.1843112732e+01   6.5740110985e+01    0.1825436    0.1247112  46.96 0.0005811578    1.597    0.374
       449 -11.3711     42.4329     33.2409   4.6870772027e+01   6.7465634859e+01    0.1759077    0.1252735 -53.76 0.0005107997    1.626    0.385
       450 -10.9871     36.7200     32.9115   4.9813097069e+01   6.8344470338e+01    0.1769633    0.1526896 -30.18            0    1.098    0.089
       451 -10.8657    175.8024     31.1579   8.8896740847e+00   3.6911303321e+01       0.1777    0.1595878  48.28   0.00027806    1.297    0.229
       452 -12.4081     46.4815     30.5073   4.3494305754e+01   6.7328957133e+01    0.3544278    0.1565858 -41.15  0.001541179    2.232    0.552
       453 -11.7298     98.2990    248.9471   7.1870443119e+01   1.0401343553e+01    0.2454671    0.1799696 -17.29  0.001489654    2.079    0.519
       454 -11.7632     95.3132     44.9584   3.0198943105e+01   5.5158497650e+01    0.2066937    0.1966082  -5.51    0.0011598    1.089    0.081
       455 -12.1671     84.9675     29.7043   2.7158612859e+01   5.9888763602e+01    0.1956766    0.1758314  48.89 0.0003756871    1.069    0.064
       456 -11.9971     67.7656     29.1978   3.3185606401e+01   6.3659795586e+01    0.1915746    0.1879943 -76.01 0.0005305621    1.205    0.170
       457 -12.0473    106.8089     32.2634   2.1857472568e+01   5.4349765660e+01    0.2530241    0.1904988 -44.43  0.001200839    1.422    0.297
       458 -12.1080     60.0150     27.9038   3.5821061087e+01   6.5382162695e+01    0.2139977    0.1871949 -16.98            0    1.128    0.113
       459 -10.8303    128.7873     24.6114   1.4051706997e+01   4.9768346871e+01    0.1936419    0.1286427  80.08 0.0002583426    1.547    0.354
       460 -12.0136     84.4391     24.1551   2.4840320020e+01   6.0775503337e+01    0.2547452    0.1789894 -77.14  0.001179185    2.211    0.548
       461 -11.9687     67.0037     23.8233   3.0907162447e+01   6.4613822317e+01    0.2147883    0.1627983  82.12  0.001080466    2.013    0.503
       462 -11.1051    132.8918     20.8514   1.1957726965e+01   4.9147263759e+01     0.210042    0.1891764  86.72 0.0002592898    1.036    0.034
       463 -11.5938    131.8289     17.1854   1.0833040949e+01   4.9830313207e+01    0.2402956    0.1937028 -49.05 0.0003572329    1.289    0.224
       464 -11.1034    139.9641     19.0240   1.0147968246e+01   4.7519237638e+01    0.2715257     0.111187  48.74  0.001032762    2.586    0.613
       465 -11.3878    123.1178     19.3627   1.3197836187e+01   5.1840091029e+01    0.2061796    0.1614887  72.69  0.001107531    1.182    0.154
       466 -12.5816     94.0939     18.1704   1.9310672716e+01   5.9248235837e+01    0.5084743    0.2799991  80.72  0.001169807    2.705    0.630
       467 -11.2195     80.6980     18.3091   2.3320535731e+01   6.2374863750e+01    0.1317617     0.106825 -73.04  0.000313916    1.604    0.376
       468 -11.2903     66.8786     15.8899   2.6962491652e+01   6.5707661445e+01    0.2362175    0.1749485 -30.59 0.0009543645    1.432    0.302
       469 -11.0531     74.5211     13.5466   2.3027137197e+01   6.4332577218e+01    0.1341792    0.1211641  38.53 8.721339e-05    1.023    0.022
       470 -11.0589    214.8831    247.1539   4.9082518644e+01  -4.6842525855e+00    0.1531828    0.1229106  13.75 0.0003811534    1.214    0.176
       471 -10.3077    179.2255    247.3620   5.5549244670e+01  -2.7203142582e-01       0.1111   0.07486875  -3.91 0.0002598543    1.576    0.365
       472 -11.3391    103.7277    246.6871   7.0535118581e+01   1.0054602294e+01     0.259771   0.09559552  46.83  0.001162364    2.461    0.594
       473 -16.0902     57.5514    236.6932   7.9396087545e+01   1.7803696025e+01     2.909976     1.809691   8.95   0.01506976    2.645    0.622
       474 -12.1271    168.6924    244.7855   5.7213701731e+01   1.4729074603e+00    0.1934172    0.1776911  17.72 0.0003729353    1.265    0.209
