#   1 NUMBER                 Running object number                                     
#   2 MAG_AUTO               Kron-like elliptical aperture magnitude                    [mag]
#   3 X_IMAGE                Object position along x                                    [pixel]
#   4 Y_IMAGE                Object position along y                                    [pixel]
#   5 X_WORLD                Barycenter position along world x axis                     [deg]
#   6 Y_WORLD                Barycenter position along world y axis                     [deg]
#   7 A_WORLD                Profile RMS along major axis (world units)                 [deg]
#   8 B_WORLD                Profile RMS along minor axis (world units)                 [deg]
#   9 THETA_WORLD            Position angle (CCW/world-x)                               [deg]
#  10 FWHM_WORLD             FWHM assuming a gaussian core                              [deg]
#  11 ELONGATION             A_IMAGE/B_IMAGE                                           
#  12 ELLIPTICITY            1 - B_IMAGE/A_IMAGE                                       
         1 -13.7306    247.5871    104.5922   4.3091567479e+01   1.1220203692e+01      3.01788    0.8930829 -29.52  0.009063222    5.062    0.802
         2 -14.2740    248.7684    165.8014   5.5232664534e+01   1.7549193624e+00     4.013649    0.7061531 -36.10    0.0123406    5.156    0.806
         3 -10.1460     82.4361     28.3232   5.2726144449e+01   6.0072492504e+01    0.2927622    0.2026923 -84.36  0.001326551    2.567    0.610
         4 -10.0075     40.9159     14.0037   6.2305324553e+01   6.9807730906e+01    0.1842478    0.1545594   4.37   0.00120984    1.037    0.036
         5  -8.8854     13.8295    250.6355   1.1336372740e+02   2.0146324153e+01     0.147285   0.07043356  45.52 0.0002590348    1.526    0.344
         6 -10.3425    154.6829    239.4739   8.4553606448e+01   4.1807440894e+00     0.192375    0.1115001 -47.09  0.001090053    2.037    0.509
         7 -11.5736    160.1078    237.7122   8.3257263525e+01   3.6850333799e+00    0.3242722    0.1722219 -45.19  0.001775727    2.182    0.542
         8 -10.3516    159.3733    231.1598   8.2503179093e+01   4.8135936067e+00     0.263716    0.2216734 -82.80  0.001689075    1.762    0.432
         9 -11.6017    162.5719    225.7427   8.1099035728e+01   5.2132355756e+00     0.598716    0.2995926  28.63   0.00297688    1.894    0.472
        10 -11.1972     98.9376    225.3751   9.4326347974e+01   1.4637190147e+01    0.3849696    0.2370107  36.80  0.001391503    1.402    0.287
        11 -10.3357     88.7688    222.7276   9.6236782869e+01   1.6575864410e+01     0.265994    0.1221538 -64.26   0.00123134    2.453    0.592
        12 -10.5306    128.4814    225.4802   8.8049429774e+01   1.0317111926e+01    0.1963921    0.1273038 -55.37  0.001101562    1.804    0.446
        13 -10.6942    123.3036    224.6478   8.9034999569e+01   1.1233532140e+01    0.3026463    0.1843952 -70.96 0.0009451014    2.285    0.562
        14 -11.1033    125.9278    220.5621   8.7949640800e+01   1.1586545502e+01    0.2827316    0.2248418  50.88 0.0006866983    1.216    0.178
        15 -10.5205    171.0550    225.5707   7.9400405945e+01   3.9990413216e+00    0.2003652    0.1777455 -29.05 0.0002944449    1.257    0.204
        16  -9.5582    182.6140    221.1763   7.6497769868e+01   3.0024442122e+00    0.1707026    0.1067789 -27.85 0.0009534407    1.741    0.426
        17 -10.5371    236.7185    230.0651   6.8291470383e+01  -5.4035698783e+00    0.2878115    0.1839986   0.89  0.001181507    1.431    0.301
        18  -8.9692    114.5258    221.4252   9.0505717464e+01   1.3125698276e+01    0.1274106    0.1106316  35.10 9.589336e-05    1.068    0.064
        19 -10.4765    192.1518    226.0254   7.5443461675e+01   9.1968954115e-01    0.2135796    0.1766486  -6.20  0.000698616    1.127    0.112
        20  -9.7192    152.2613    216.1551   8.1788017496e+01   8.3659092767e+00    0.2098969    0.1297522  -3.79  0.000938893    2.722    0.633
        21  -9.5831    131.1819    214.8117   8.6045969934e+01   1.1848090393e+01    0.1742857    0.1482781  -5.81 0.0007722374    1.357    0.263
        22 -10.2675    185.7163    212.8482   7.4588202383e+01   3.8449705515e+00    0.3112109    0.1537905 -35.79   0.00154145    2.154    0.536
        23  -9.4724     78.0338    211.2487   9.7399808103e+01   2.0377573405e+01    0.3290168   0.09916092  33.51  0.001236505    3.017    0.669
        24  -9.6235    198.3902    203.2680   7.0597340387e+01   3.4644671005e+00    0.2369008    0.1111859 -35.86  0.001135906    2.160    0.537
        25  -9.5289    185.5658    203.1671   7.3021010661e+01   5.4239200343e+00    0.2915958    0.1183574 -40.17   0.00127719    2.550    0.608
        26 -11.0912    164.7505    248.3765   8.3773547230e+01   1.4559763783e+00    0.1847856    0.1491941 -59.14  0.001261794    1.740    0.425
        27 -11.4822    225.2399    191.0423   6.3663118653e+01   1.3973283253e+00    0.4038693    0.1664042 -28.70  0.001774698    2.647    0.622
        28  -8.5642    209.6807    193.6353   6.6847595260e+01   3.2816426873e+00    0.1343029   0.08765181  -4.00 0.0007039939    1.779    0.438
        29  -9.1896    178.6757    190.8689   7.2256357777e+01   8.6000044959e+00    0.2645933    0.1111341 -36.57  0.001082878    2.626    0.619
        30 -12.4418    230.2217    185.0446   6.1742273762e+01   1.5735124571e+00    0.5483977    0.2969477 -31.50  0.002970173    1.674    0.402
        31 -11.1752     93.3612    184.2062   9.0441524276e+01   2.4025171883e+01    0.6037844    0.3760375  86.27  0.002723446    2.198    0.545
        32  -9.7333    110.5060    185.1176   8.6403372246e+01   2.1112061131e+01    0.2634238    0.2205373  -5.99 0.0008402779    1.507    0.336
        33  -9.2825    204.0000    183.0326   6.5956073925e+01   5.8504263435e+00    0.2095626   0.06906434 -40.77 0.0008026108    2.944    0.660
        34  -8.9537    202.5531    187.4879   6.7041495119e+01   5.3499170118e+00    0.1279733    0.1128394  -3.90 0.0001836813    1.022    0.021
        35  -9.5177    211.8956    182.1703   6.4365628867e+01   4.7534344457e+00    0.1829738    0.1679606 -16.27  0.000909886    1.150    0.131
        36  -9.7688    174.1877    180.8170   7.1349259724e+01   1.1151005256e+01    0.3731995    0.1958237 -27.98  0.001564187    2.495    0.599
        37  -9.0676     44.3293    182.6761   1.0247967312e+02   3.1047519027e+01     0.143789   0.08286326  63.31 0.0004824614    1.698    0.411
        38  -9.5442     13.7043    177.8034   1.0963459125e+02   3.5337675804e+01    0.2334223    0.1416032  83.02  0.001315641    1.441    0.306
        39  -9.9593    205.2208    176.3171   6.4471708909e+01   6.7648921128e+00    0.2635258    0.1999003 -24.70  0.001052335    1.235    0.190
        40  -9.4132    183.4057    173.8924   6.8177804039e+01   1.0832914366e+01    0.3338573    0.1164235 -35.43   0.00114162    3.459    0.711
        41  -8.6349    148.9608    175.0000   7.5697100852e+01   1.6671418857e+01    0.2333887    0.0772808  39.32 0.0007969298    2.904    0.656
        42  -8.4847    193.3181    173.3324   6.6130768203e+01   9.2417830336e+00    0.1398255   0.09897256  -3.24 0.0006519773    1.692    0.409
        43  -9.7661    206.5331    168.8247   6.2789441327e+01   7.8053627176e+00     0.315868    0.1205406 -41.98  0.001193268    2.516    0.602
        44  -9.6902    176.7822    169.0085   6.8571407520e+01   1.2889835922e+01    0.3594342    0.1736595 -33.38  0.001470492    2.369    0.578
        45  -9.4664     55.4910    169.9920   9.8244234665e+01   3.2713335364e+01    0.1995137    0.1042355  79.49  0.000809995    2.494    0.599
        46  -9.0423    121.5232    169.5015   8.1140200356e+01   2.2684265332e+01    0.1464602    0.1332968  65.87 0.0007349854    1.113    0.101
        47 -12.5743    249.0787    128.2570   4.7804208388e+01   7.3503479529e+00     1.894298    0.2966807 -37.59  0.005510746    5.120    0.805
        48  -9.8697     80.1517    164.1774   9.0884734522e+01   3.0706097402e+01    0.3763029    0.2064402  79.04  0.001401376    2.967    0.663
        49  -8.9455    192.2390    163.7567   6.4458883244e+01   1.1124261387e+01    0.2223695    0.1031801 -31.67 0.0008890551    2.443    0.591
        50  -9.0548     38.2963    164.6773   1.0221498844e+02   3.6042359694e+01    0.1419756   0.08705586  66.47 0.0003022563    1.620    0.383
        51  -9.8512    213.5024    162.4338   6.0288625351e+01   7.7222105735e+00    0.2445684    0.1134121 -29.18  0.001032112    2.368    0.578
        52  -9.8276    164.7123    199.5721   7.6600588465e+01   9.3268698257e+00    0.3172587    0.1655286 -28.96  0.001372191    2.590    0.614
        53  -9.5413    205.7159    159.9594   6.1179522789e+01   9.4536777754e+00    0.2527578    0.1665902 -23.00  0.001205343    1.590    0.371
        54 -10.2692    152.3234    160.7852   7.2212066315e+01   1.8968242347e+01    0.3785084    0.2410298  65.10  0.001589124    2.348    0.574
        55  -9.1345      9.6607    161.3650   1.0950257596e+02   3.9583447097e+01    0.1427156   0.07339955  63.35 0.0007030896    1.839    0.456
        56  -9.1002    144.2545    159.4218   7.3792120345e+01   2.0757281083e+01    0.2083884     0.133887  50.71 0.0009460921    1.649    0.393
        57  -9.9960     50.5179    155.6456   9.7805422854e+01   3.6855245689e+01    0.3356655    0.1553906  59.15  0.001321969    2.610    0.617
        58  -8.9618    219.0095    155.5123   5.7955052766e+01   7.9558818575e+00    0.1761706    0.1285321  39.79  0.000649544    1.492    0.330
        59  -9.1583    119.5075    155.0150   7.8953364298e+01   2.6300377577e+01    0.2063838    0.1315099 -82.36 0.0008096251    2.466    0.594
        60 -10.1423     82.2852    154.7909   8.8812729132e+01   3.2658250165e+01    0.2963473    0.1719905  56.80  0.001036145    1.922    0.480
        61  -8.9601     29.3418    150.6569   1.0318681736e+02   4.0444771769e+01    0.1476269   0.08512485  64.76 0.0007047884    1.782    0.439
        62  -9.5590    189.0128    147.8230   6.1793501307e+01   1.4620149735e+01    0.3550645    0.1587593 -32.97  0.001364975    2.508    0.601
        63 -10.0700     40.0439    148.0723   9.9823291211e+01   3.9971745224e+01     0.443494    0.1880473  57.64  0.001693219    2.890    0.654
        64 -10.7129     56.7881    146.1505   9.4689984876e+01   3.8444876220e+01    0.5765538    0.2696014  62.93  0.002076885    3.119    0.679
        65  -9.1501     13.7526    146.5804   1.0719888889e+02   4.2864177840e+01    0.1802386     0.103686  43.41 0.0009491944    1.714    0.417
        66  -8.9781    148.5955    144.7820   6.9740551836e+01   2.3040605303e+01    0.2076246    0.1399541 -59.21  0.000405389    1.674    0.403
        67  -9.4744    106.6951    144.6749   8.0272443527e+01   3.1022230785e+01    0.2957079    0.1826021 -80.98  0.001152071    2.436    0.589
        68  -9.7699     88.4704    143.9819   8.5179635005e+01   3.4320716102e+01    0.2103306    0.1273415 -88.79 0.0008089892    2.474    0.596
        69  -9.2552    125.3287    143.0126   7.5033476443e+01   2.7953678826e+01    0.2443807    0.1258196 -72.02 0.0007045465    4.269    0.766
        70  -9.4068     88.7672    199.4104   9.3566076325e+01   2.1367676553e+01    0.2246059    0.1370687  62.10  0.001023639    1.791    0.442
        71 -10.0093     24.1144    138.7384   1.0339849413e+02   4.3932535805e+01    0.4604927    0.1809578  56.72  0.001765437    3.073    0.675
        72  -8.6252    229.6376    137.7164   5.2579017325e+01   9.0847258057e+00    0.1310078   0.09578305   1.83 0.0007018556    1.682    0.406
        73  -9.5863    197.2554    135.7914   5.7631895664e+01   1.5274512698e+01     0.252159    0.1528765 -41.80 0.0007195916    1.539    0.350
        74  -9.9131     39.4217    136.3080   9.8463147872e+01   4.3017151696e+01     0.244469    0.1446027  52.94 0.0007403411    1.761    0.432
        75  -9.9374    126.8784    196.8923   8.4387774690e+01   1.5989317670e+01    0.2006216    0.1792485  -4.10 0.0008983646    1.259    0.206
        76 -10.7154     84.0233    132.2728   8.4202889749e+01   3.7937157406e+01    0.4679587    0.2715031  62.75  0.001361907    2.314    0.568
        77 -10.1996     99.9015    128.7887   7.8836827246e+01   3.6051234771e+01    0.4436065    0.2599715  73.14  0.001531273    3.153    0.683
        78 -10.1254     73.9689    130.0021   8.6781654632e+01   4.0094214964e+01    0.2485523    0.1712466  71.27  0.001133999    1.754    0.430
        79  -9.7022     13.1082    129.8309   1.0577243708e+02   4.7096534220e+01    0.3080796    0.1441728  62.39  0.001352941    2.429    0.588
        80 -10.6110    172.7455    195.5892   7.4278312483e+01   8.7348654406e+00    0.2347738    0.2206324  48.10 0.0008800591    1.231    0.187
        81 -11.2467     60.8891    125.3719   8.9978773466e+01   4.3161532587e+01    0.7281703    0.3425495  60.64  0.002477541    3.435    0.709
        82 -11.1978     45.1996    123.9613   9.4773361703e+01   4.5513432506e+01    0.7674261    0.3501196  62.98  0.002634741    3.604    0.722
        83 -10.8440     29.0124    122.7234   9.9854566962e+01   4.7539493826e+01    0.7978151    0.3314835  67.99  0.002518882    4.545    0.780
        84  -9.2856    216.6411    203.6910   6.7367568619e+01   7.5227867065e-01    0.1289556   0.08267599   0.86 0.0007041619    1.735    0.424
        85 -10.1308     71.8776    120.5359   8.5533918171e+01   4.2786315783e+01    0.4230646    0.2053339  57.04  0.001500894    2.952    0.661
        86  -8.8906    142.7061    120.3968   6.5523305991e+01   2.9478611421e+01    0.1609236     0.119983 -81.05 0.0007002317    1.796    0.443
        87  -9.6844      3.4908    118.0617   1.0760425493e+02   5.0706133406e+01    0.2958294     0.133735  67.88  0.001281318    2.600    0.615
        88 -10.0103    110.1291    115.4569   7.2817830392e+01   3.7279910785e+01    0.3689543    0.2139861  76.86  0.001093266    4.252    0.765
        89 -11.0469     80.2818    113.6186   8.1349603967e+01   4.3162877190e+01    0.5811911    0.3470293  74.77  0.002113801    2.967    0.663
        90 -10.9361     93.6462    113.4278   7.7151777037e+01   4.0884139677e+01     0.512664    0.2896098  56.66  0.001922676    2.208    0.547
        91 -11.2712     68.2853    111.7871   8.4827188289e+01   4.5514501104e+01    0.4735141    0.2235452  52.23  0.001754651    2.698    0.629
        92 -10.5359     14.3484    110.1379   1.0305928282e+02   5.1960374041e+01    0.4373537    0.2305762  86.99  0.002025927    2.066    0.516
        93 -11.2302     23.3458    102.7307   9.8784565172e+01   5.3110600269e+01    0.7412181    0.3506053  65.43  0.002838322    3.290    0.696
        94 -11.7712     46.9616    103.4850   9.0388377461e+01   5.0489907549e+01    0.9014435    0.4206217  60.62  0.002999258    3.956    0.747
        95 -10.7038    211.6857    201.8607   6.7929428092e+01   1.7299279025e+00    0.2793044    0.1402574 -44.15  0.001342662    2.194    0.544
        96 -10.9834    111.5063    100.4613   6.8545209144e+01   4.0423007709e+01     0.931537    0.4030637  60.43  0.002463019    4.982    0.799
        97 -10.8018     83.4179    101.1259   7.7300800934e+01   4.5648754389e+01     0.481645    0.2649115  64.15  0.001671029    3.173    0.685
        98 -11.7392     65.8366     97.2217   8.2256148126e+01   4.9461440315e+01    0.7861975     0.379101  53.17  0.002910483    2.845    0.648
        99 -10.5328     96.9781     97.9066   7.2151804868e+01   4.3902630395e+01    0.5825856    0.2310332  48.55  0.001980713    2.805    0.644
       100 -10.3654     57.9422     92.0795   8.3805387652e+01   5.1858512629e+01    0.2114056    0.2004292 -66.11 0.0003481707    1.040    0.038
       101 -11.2177     35.4130     90.3118   9.1912285872e+01   5.5057678460e+01    0.4493335    0.2871384  80.59  0.001760302    2.133    0.531
       102  -9.4132      4.9019     91.7587   1.0399264138e+02   5.7145975146e+01    0.2531541    0.1410658  73.82  0.001231989    2.143    0.533
       103  -9.3073    124.9927     91.4878   6.2345756572e+01   3.9479927566e+01    0.2155708    0.1354687  73.32 0.0007125125    2.451    0.592
       104 -11.6362     88.9426     88.0605   7.1932763593e+01   4.7666703051e+01    0.8763818     0.367673  54.46   0.00276231    3.607    0.723
       105 -11.4539     50.3343     85.7209   8.5057022622e+01   5.4416523489e+01    0.7168804    0.3677509  59.17  0.002607348    3.424    0.708
       106 -10.3799    106.3655     84.6958   6.5540299741e+01   4.4926265677e+01    0.5433365     0.275194  64.37   0.00171265    3.664    0.727
       107  -8.9987      7.7029     83.6996   1.0167515440e+02   5.8949085614e+01    0.1555325    0.1099966  15.42 0.0001929323    1.659    0.397
       108  -9.4090      8.8000     80.6394   1.0071383478e+02   5.9622516258e+01    0.2709655    0.1505962  55.03  0.001287811    2.287    0.563
       109 -10.9922     75.6578     81.5119   7.4512169883e+01   5.1538287079e+01    0.3562016    0.2357049  67.48  0.001518259    2.258    0.557
       110 -10.7220     24.8451     80.6688   9.4070435300e+01   5.8418000530e+01    0.4334685    0.2810693  82.55  0.001497587    2.021    0.505
       111 -10.0405    157.0000    246.9900   8.5075737577e+01   2.7182357632e+00    0.1646631   0.06787161 -48.37 0.0007999857    2.925    0.658
       112 -11.1975     84.9696     74.2980   6.9073771810e+01   5.1417532862e+01    0.7647721    0.3410704  53.11  0.002715305    2.911    0.657
       113 -10.4436     43.2969     73.3091   8.4566390392e+01   5.8215120154e+01    0.2638142    0.1898364  73.37  0.001066796    1.980    0.495
       114 -10.1034     96.4126     72.4540   6.4755466116e+01   4.9533599767e+01    0.3416508     0.235745 -89.38  0.001391996    2.479    0.597
       115 -11.2590     52.5439     70.5576   7.9968114473e+01   5.7622803201e+01    0.4956158    0.3697996  82.40   0.00225154    1.953    0.488
       116  -9.7732     16.8512     69.9655   9.5148722484e+01   6.1612806045e+01    0.2914941    0.1773131 -80.34  0.001285193    1.840    0.457
       117 -10.5882     38.0455     64.6081   8.4311877211e+01   6.0812192267e+01    0.3633923    0.2563157  79.06  0.001549306    2.208    0.547
       118 -13.8145    246.2419    144.7608   5.1524705378e+01   5.2768349310e+00     2.043039     1.195521 -31.52   0.01131332    1.459    0.315
       119 -11.2545     75.5790     60.5987   6.7775403209e+01   5.5976767211e+01    0.6919782    0.2985403  51.15  0.002552415    2.872    0.652
       120 -10.1169     25.1931     59.3747   8.8639263301e+01   6.3330198460e+01    0.2395103    0.1884352  62.25 0.0008857795    1.657    0.397
       121  -9.6924      7.0825     56.6426   9.6648043685e+01   6.5336819280e+01    0.3313682    0.1605545 -78.98  0.001508805    2.503    0.601
       122 -10.6158     55.1471     55.1660   7.3818814684e+01   6.0516200749e+01    0.4379982    0.2732454 -68.20  0.001931188    2.468    0.595
       123 -10.2815     44.5041     55.9836   7.8701970975e+01   6.1872323901e+01    0.3151532    0.2363132 -85.07  0.001468175    2.003    0.501
       124 -10.9614     63.9214     55.3593   7.0315553591e+01   5.9065671630e+01    0.3658603    0.3096811  62.26   0.00131783    1.447    0.309
       125 -10.3760     31.4437     51.3917   8.3195953544e+01   6.4423576781e+01    0.3865414    0.2527296 -70.34  0.001359981    1.945    0.486
       126  -9.4985     20.3001     52.4692   8.8994174733e+01   6.5291036094e+01    0.2121898    0.1528969 -83.61  0.001059255    1.813    0.448
       127 -10.5200     93.3409     51.6547   5.8531836489e+01   5.4103846004e+01    0.3741941    0.2565991  88.34  0.001574093    2.557    0.609
       128 -10.4318     45.2748     48.9996   7.5875687490e+01   6.3192471771e+01    0.2504938     0.212832 -25.43 0.0003566615    1.087    0.080
       129 -10.2282     45.3858     45.1862   7.4384818195e+01   6.3923660960e+01    0.2081138    0.1914824 -79.36  0.001018138    1.389    0.280
       130 -10.7737     83.1984     47.5801   6.0298308415e+01   5.6915846824e+01    0.4034209    0.2024191  60.16  0.001534509    2.853    0.649
       131  -9.7435     16.6968     43.8417   8.8161446268e+01   6.7437389715e+01    0.3692991    0.1420722 -62.38   0.00156411    2.695    0.629
       132 -10.6562     58.6771     43.0748   6.7738144689e+01   6.2262208270e+01    0.3252372    0.2581066 -83.29  0.001710331    1.984    0.496
       133 -10.9855     71.0019     42.4678   6.2624585247e+01   6.0176028703e+01    0.4429563    0.2607279  59.86  0.001947606    2.374    0.579
       134 -10.1257      4.9501     40.8345   9.3610280746e+01   6.8918736833e+01    0.4281271    0.1704643 -70.88  0.001811094    3.035    0.670
       135  -9.0176    113.8116     41.2028   4.8960808621e+01   5.1172515908e+01    0.1871577    0.1593332  27.60 0.0003171692    1.272    0.214
       136  -9.8104     37.1775     40.5831   7.6472681860e+01   6.5916245956e+01    0.2326723    0.2085596 -74.93 0.0009578099    1.457    0.314
       137  -9.6983     83.1388     38.6255   5.6787082380e+01   5.8403856645e+01     0.360054    0.2480806  82.51  0.001606566    2.479    0.597
       138  -9.8518     26.5274     34.9062   7.9660550075e+01   6.8273527453e+01    0.3930075    0.1047783 -50.06  0.001472865    3.280    0.695
       139  -9.8695     50.3191     33.2337   6.7200642732e+01   6.5346537657e+01    0.2625196    0.2038956 -68.45  0.001432806    1.953    0.488
       140 -10.0893     61.2376     33.1753   6.2515125306e+01   6.3507136267e+01    0.2633042    0.1866929  53.06  0.001369811    1.630    0.386
       141 -10.0763     73.1309     32.1218   5.7517150046e+01   6.1430484113e+01    0.3472014    0.2073926  64.01  0.001554924    2.374    0.579
       142  -9.3823     12.9889     30.7697   8.5622282501e+01   7.0387076234e+01     0.207968     0.147239 -64.22  0.001051641    1.620    0.383
       143 -10.3391    167.4890    242.4769   8.2473975413e+01   1.9379041367e+00    0.1194198   0.09698997  21.67 3.224958e-05    1.005    0.005
       144 -10.1442     63.9469     20.9735   5.5865064366e+01   6.4809152172e+01     0.194349    0.1648123 -75.86  0.001135965    1.696    0.410
       145  -9.8815     48.6727     21.2245   6.2347336517e+01   6.7513739321e+01     0.187994     0.158155 -41.68  0.001175059    1.367    0.268
       146  -9.3915     40.7786     21.0667   6.6003135487e+01   6.8794782537e+01    0.1722903    0.1439147 -14.66 0.0003435753    1.086    0.079
       147  -9.1658     12.4860     21.4426   8.2083313779e+01   7.2184378703e+01    0.1193126    0.0976508 -23.06 8.993164e-05    1.006    0.006
       148  -9.2186      3.4297     26.7354   8.9894928084e+01   7.1886492676e+01     0.221996    0.1072537 -63.32  0.001138304    2.146    0.534
