#   1 NUMBER                 Running object number                                     
#   2 MAG_AUTO               Kron-like elliptical aperture magnitude                    [mag]
#   3 X_IMAGE                Object position along x                                    [pixel]
#   4 Y_IMAGE                Object position along y                                    [pixel]
#   5 X_WORLD                Barycenter position along world x axis                     [deg]
#   6 Y_WORLD                Barycenter position along world y axis                     [deg]
#   7 A_WORLD                Profile RMS along major axis (world units)                 [deg]
#   8 B_WORLD                Profile RMS along minor axis (world units)                 [deg]
#   9 THETA_WORLD            Position angle (CCW/world-x)                               [deg]
#  10 FWHM_WORLD             FWHM assuming a gaussian core                              [deg]
#  11 ELONGATION             A_IMAGE/B_IMAGE                                           
#  12 ELLIPTICITY            1 - B_IMAGE/A_IMAGE                                       
         1  -9.2764    148.3007      7.3535   4.9065356857e+01   4.7052819823e+01    0.1474274   0.09371212  34.55 0.0007037924    1.701    0.412
         2  -8.4598    150.2748    249.3467   1.0700767478e+02   3.6011188450e+00     0.109388   0.08466416  13.42 0.0007001815    1.628    0.386
         3 -12.3255    211.2166    246.1162   9.5697455145e+01  -5.4925232517e+00     2.803486     1.387343 -35.30   0.01591015    2.400    0.583
         4 -13.8990    235.3840    145.9260   7.2620099872e+01   4.7155120416e+00     3.437251     1.579951 -19.52   0.01196005    3.388    0.705
         5 -13.0655    247.4428    242.2981   8.8931504669e+01  -1.0326146364e+01     1.124051     1.074924 -40.17  0.008723503    1.841    0.457
         6 -12.5094    238.3482    218.9984   8.6597132720e+01  -6.3403241079e+00    0.9750187    0.6511667 -24.70  0.006109041    1.516    0.341
         7 -14.4475    228.4090    193.1827   8.3659267162e+01  -1.2927173429e+00     3.819423     3.012132 -19.01   0.02346146    1.228    0.186
         8 -13.5617    236.3694    191.2255   8.1864924412e+01  -2.3571894040e+00     5.316755     0.549267 -36.18   0.01202776    9.608    0.896
         9 -12.7123    248.2750    228.9593   8.6608164077e+01  -8.9843607410e+00    0.8145822    0.4016252 -37.04  0.004522843    2.390    0.582
        10 -12.7640    247.8582    215.7050   8.4393551762e+01  -7.3726737577e+00     0.639506     0.392077 -29.03  0.002410201    1.657    0.396
        11 -14.5074    244.5561    192.1369   8.0613678145e+01  -3.8303918243e+00     8.910732     2.401742 -44.28   0.02338956    8.203    0.878
        12 -12.7403    248.7362    180.0290   7.7526987312e+01  -2.8411807188e+00     1.251453    0.3113871 -37.78   0.00435857    3.940    0.746
        13 -13.4428    247.4508    159.0950   7.3428753004e+01   4.2784527652e-01     1.949587    0.6602264 -27.75  0.006784757    3.459    0.711
        14 -14.8449    246.8595    125.6366   6.6120391077e+01   5.7526391689e+00     4.680735     1.664263 -35.92   0.01778064    2.487    0.598
        15 -15.7457    248.2688     50.7120   4.8136579744e+01   1.6965905789e+01     7.767629     2.900187 -33.61   0.03136678    2.369    0.578
        16 -10.6414    183.5038    238.0195   9.9468160317e+01  -1.1753696463e-01    0.4692304    0.2785622 -24.61  0.002368813    2.321    0.569
        17  -9.8215    163.5492    245.3777   1.0411173395e+02   2.0645756899e+00    0.2631459     0.213605 -43.78  0.001691365    1.556    0.357
        18 -10.0848    133.3238    245.1654   1.0958693395e+02   6.8815032553e+00    0.2978871    0.2186176 -23.58  0.001821811    2.226    0.551
        19  -9.7931    135.4261    239.2116   1.0850789608e+02   7.4772327890e+00     0.284609    0.2247172   6.72  0.001794861    1.821    0.451
        20  -9.9468    139.5996    235.0350   1.0722115660e+02   7.4702433159e+00    0.2832409    0.2237035 -26.81  0.001521669    1.773    0.436
        21  -9.2395     32.4850    247.4812   1.2723443912e+02   2.0281291565e+01    0.1055536   0.07378542  67.75 0.0004992489    1.017    0.017
        22 -10.9468    113.6304    244.6351   1.1309984230e+02   9.9932211160e+00    0.3097166    0.2492443  15.32  0.001918746    1.800    0.445
        23 -10.4463    118.2955    239.4742   1.1170283806e+02   1.0119792359e+01    0.3005613    0.2119678 -35.82  0.001818573    2.200    0.545
        24  -9.7606    151.7197    244.8006   1.0619163939e+02   4.0324141364e+00    0.2006086     0.162295  25.22 0.0009317062    1.294    0.227
        25 -10.4040    155.1818    240.9620   1.0507302512e+02   4.0433411615e+00    0.3432654    0.2046335 -38.03   0.00196334    2.235    0.553
        26 -10.3674     95.0058    244.1199   1.1639007086e+02   1.2825904149e+01    0.2699162    0.1678495  37.53  0.001672988    1.585    0.369
        27 -11.0498    104.7774    241.6837   1.1440200330e+02   1.1802294323e+01    0.3548132    0.2498552 -34.37  0.002119212    2.471    0.595
        28  -9.1700    120.3152    248.3419   1.1228208801e+02   8.3934939547e+00    0.1066613   0.08739556  14.78 0.0007047969    1.708    0.415
        29 -10.1896    169.7022    240.7504   1.0237622824e+02   1.7311009368e+00    0.3375218    0.2481184   1.54  0.001544635    1.803    0.445
        30 -10.4260    125.9486    240.3393   1.1038968084e+02   8.7917854701e+00    0.2986638    0.2332384   9.57   0.00187002    1.915    0.478
        31  -9.6271    129.6489    235.4153   1.0913293332e+02   9.0044660758e+00    0.2475521    0.1817604   1.42  0.001380285    2.399    0.583
        32  -9.8285    133.6568    230.8671   1.0782523782e+02   9.1071580076e+00    0.2730809    0.2001575 -21.33  0.001283475    2.214    0.548
        33 -10.3227    159.7123    236.7854   1.0368698655e+02   3.9291076928e+00    0.4047479    0.2942618 -27.27  0.002505813    1.838    0.456
        34 -10.1507    148.8112    238.6389   1.0595459383e+02   5.4200075742e+00    0.2884818     0.236111   8.75  0.001900599    1.543    0.352
        35  -9.8870     69.4175    239.6842   1.2053389537e+02   1.7124578159e+01    0.1787422    0.1341432  29.39  0.001201741    1.810    0.448
        36 -10.5632    190.6973    233.7007   9.7518328802e+01  -6.9132238286e-01    0.6007904    0.3502522 -36.25  0.003437523    2.042    0.510
        37  -9.8076    190.4890    224.9739   9.6221031213e+01   5.6184000312e-01    0.3190535    0.1786676 -35.77  0.001717546    2.092    0.522
        38 -10.2396    177.0314    234.1913   1.0010899406e+02   1.4712118566e+00     0.478906    0.2142947 -35.24  0.002268316    3.008    0.667
        39  -8.9369    112.7592    237.4126   1.1250100801e+02   1.1310984660e+01    0.1673925   0.09951815  35.08 0.0009445086    1.691    0.409
        40  -9.6601     91.2236    235.8605   1.1630099531e+02   1.4778234642e+01     0.205366     0.152383  19.34  0.001248838    2.114    0.527
        41  -9.6520    170.6902    233.5300   1.0119361263e+02   2.6093249502e+00    0.2861311    0.1715349 -32.27  0.001496875    2.189    0.543
        42  -9.4762    174.1212    227.7994   9.9722241490e+01   2.8860167906e+00    0.2809925    0.2057302 -11.72  0.001656832    1.794    0.443
        43 -10.5567    193.4359    218.0237   9.4558524633e+01   1.0708134692e+00    0.4659437    0.2912344 -38.17  0.002305054    1.832    0.454
        44  -9.2368    152.8371    233.0947   1.0448162645e+02   5.6167543955e+00    0.2096685    0.1698922  -8.63  0.001331585    1.654    0.395
        45  -8.8937    165.6465    232.6349   1.0201092806e+02   3.5740594549e+00    0.1829343    0.1328508  14.45  0.001001037    1.653    0.395
        46 -10.3388     81.9433    243.8597   1.1867702458e+02   1.4711452109e+01    0.2671178    0.1457175  34.11  0.001521944    2.059    0.514
        47 -10.0419    145.5898    231.0102   1.0557696236e+02   7.1365509375e+00    0.2915765    0.2332758   9.45  0.001671533    1.621    0.383
        48 -10.0808    123.7204    230.9342   1.0971950154e+02   1.0690227371e+01    0.3144102    0.2265317   9.95  0.001728946    2.339    0.572
        49  -9.1853    158.1795    229.8933   1.0303768977e+02   5.2298346203e+00    0.2436792    0.1646829 -36.30  0.001282453    1.876    0.467
        50  -9.0933    100.3983    230.7767   1.1410072393e+02   1.4321565536e+01    0.1505481    0.1088422 -53.80 0.0009509303    1.736    0.424
        51 -10.7166    177.0213    244.1631   1.0150730556e+02   8.4601593686e-02    0.4608964    0.3067952  -3.03  0.002469301    2.266    0.559
        52  -9.0384    169.4389    228.0751   1.0064701715e+02   3.6284898159e+00    0.2428284    0.1188529 -36.61 0.0008315922    2.665    0.625
        53  -9.0506    170.3795    223.8668   9.9849416752e+01   4.1115618425e+00    0.1703179     0.126229 -37.30  0.001028607    1.603    0.376
        54  -9.1344    152.4358    228.2770   1.0390834591e+02   6.4396965280e+00    0.2143212    0.1825663 -12.67  0.001394977    1.496    0.331
        55  -9.2880    155.3980    224.2610   1.0278214354e+02   6.5852794256e+00    0.2381107      0.14878 -33.07  0.001271754    2.174    0.540
        56  -9.4717    184.5648    226.7208   9.7597938219e+01   1.2987219463e+00    0.2834658    0.1759507 -27.79  0.001218854    2.016    0.504
        57  -9.8366    185.8538    220.5114   9.6389806857e+01   1.9913574364e+00     0.364747    0.1763192 -38.97  0.001443958    2.417    0.586
        58  -9.3309    185.6551    214.4930   9.5460594915e+01   2.9318320605e+00    0.2306614    0.1314792 -40.63  0.001122129    2.015    0.504
        59  -9.3572    186.4753    209.9523   9.4552642776e+01   3.4893873306e+00    0.2537082    0.1850885 -10.88 0.0007774954    1.667    0.400
        60  -9.3081    138.7085    227.6261   1.0644957482e+02   8.8186825435e+00    0.2021485    0.1531549 -37.79  0.001243246    1.715    0.417
        61  -9.5468    113.8063    228.1843   1.1128457943e+02   1.2724878262e+01     0.160538    0.1405794  29.56  0.001082846    1.364    0.267
        62  -9.5263    163.3185    226.0328   1.0151517337e+02   4.9695202437e+00    0.3803647    0.3466361  83.80  0.002584109    1.339    0.253
        63  -9.1825    165.5181    220.9471   1.0034787893e+02   5.3949095032e+00    0.2181453    0.1610632 -25.96 0.0009887198    1.709    0.415
        64  -9.0245    143.8332    226.3985   1.0530354576e+02   8.1743687231e+00    0.2193811    0.1655505 -26.15  0.001304138    1.856    0.461
        65  -9.1565    135.4175    223.2771   1.0651848060e+02   1.0091947905e+01    0.2053222     0.121479 -48.50  0.001113707    2.034    0.508
        66  -9.7241    129.3401    223.8188   1.0776904202e+02   1.0998338007e+01    0.2328039    0.1578663  19.71  0.001236001    2.102    0.524
        67  -9.0087    120.6461    224.6926   1.0956145891e+02   1.2252972905e+01    0.1173311   0.09529988  12.79 0.0007042466    1.718    0.418
        68  -9.6141    180.5223    221.9373   9.7624058324e+01   2.6837078135e+00     0.290535    0.1754984 -31.91  0.001424263    2.026    0.506
        69  -9.3463    174.7800    221.7710   9.8692588609e+01   3.6854838233e+00    0.2437316    0.1966409 -12.39  0.001324687    1.470    0.320
        70 -10.0301    148.3608    221.6958   1.0378503089e+02   8.1928987507e+00    0.3348475    0.2269994 -32.17  0.001863382    2.009    0.502
        71  -8.9337    114.5159    221.9808   1.1042453502e+02   1.3709743105e+01    0.1561903    0.1045825 -32.42 0.0008101007    2.522    0.604
        72  -9.6777    158.8567    218.4496   1.0127067998e+02   6.9389925930e+00    0.3014989     0.174659 -28.97  0.001442647    2.624    0.619
        73  -8.7524    135.9859    218.1637   1.0572551223e+02   1.0878583757e+01    0.2057108    0.1411962  18.61  0.001075122    2.037    0.509
        74  -9.8093    170.8961    215.5887   9.8487427675e+01   5.3207486930e+00    0.3327121    0.1900755 -37.57  0.001593688    2.098    0.523
        75  -8.8356    119.6444    217.6948   1.0889377626e+02   1.3659407882e+01    0.1196118   0.09800625  10.75 0.0007040746    1.717    0.418
        76  -9.2298    165.1460    215.2727   9.9561274877e+01   6.3708057494e+00    0.2056963     0.174941 -22.15  0.001011044    1.384    0.277
        77 -10.2420    143.8397    214.6369   1.0367705107e+02   1.0161125382e+01    0.3020064    0.2088014   3.36  0.001470936    2.542    0.607
        78  -9.8959    154.5834    212.8663   1.0127965855e+02   8.6096146460e+00    0.2863534    0.1917282 -23.37  0.001331706    2.223    0.550
        79  -9.4727    179.1836    216.3197   9.6998151642e+01   3.7696842131e+00    0.2514744    0.1850492  -2.89 0.0008301659    1.718    0.418
        80  -8.6717    138.2987    213.3862   1.0460528081e+02   1.1327112924e+01    0.1252403    0.1000851  -0.55 0.0007016735    1.780    0.438
        81  -9.8833    176.8846    210.0564   9.6434543822e+01   5.1593816362e+00    0.3136087    0.2197139 -41.83  0.001621309    1.637    0.389
        82  -9.4885    161.0131    209.7982   9.9528856427e+01   8.0034455855e+00    0.2570417     0.193282 -36.26  0.001121612    1.564    0.361
        83  -9.9395    193.0030    209.1440   9.3161092649e+01   2.4723605687e+00    0.2849047    0.1966758 -36.38 0.0009912511    1.619    0.382
        84  -8.9478    167.6407    209.0842   9.8098207160e+01   6.9520735521e+00     0.242922    0.1251794 -54.80  0.001108175    2.574    0.612
        85  -8.8985    145.8179    208.1913   1.0233585262e+02   1.0951973522e+01    0.1745341    0.1510534  15.23 0.0008174994    1.330    0.248
        86  -8.9819    183.0857    206.3135   9.4599054449e+01   4.6620052568e+00    0.2177193     0.172995 -13.48  0.001277538    1.430    0.301
        87  -8.6400    171.4528    206.9797   9.7001146440e+01   6.6245597882e+00    0.1807867    0.1315717 -40.96  0.001018365    1.566    0.361
        88  -9.0805    156.3235    205.9343   9.9863205491e+01   9.4977443936e+00    0.1751068    0.1700189 -19.88 0.0006968248    1.171    0.146
        89  -9.9192    149.8902    205.6969   1.0113018825e+02   1.0680060054e+01    0.2154615    0.1862181 -28.27  0.001313018    1.384    0.277
        90  -9.7229    126.3884    205.8112   1.0595458466e+02   1.4735140833e+01     0.172089    0.1221683 -44.89 0.0009005943    1.701    0.412
        91 -10.1965    197.7270    203.1815   9.1221619200e+01   2.5580206952e+00     0.381411    0.2147813 -28.24  0.001326164    2.089    0.521
        92 -10.1547    139.3532    204.4554   1.0309463321e+02   1.2756602191e+01    0.2409648    0.1705923 -56.91  0.001313896    1.606    0.377
        93  -9.2853    178.7892    203.2388   9.4922321158e+01   5.9293409636e+00    0.2454264    0.1812049 -27.51 0.0009046226    1.556    0.357
        94  -9.0294    172.9146    202.8925   9.6031771332e+01   7.0450314325e+00     0.202714    0.1694095  14.06 0.0006751196    1.253    0.202
        95  -9.0068    192.9620    201.6155   9.1863309433e+01   3.6487419897e+00    0.1923618    0.1681134 -21.58 0.0007209496    1.224    0.183
        96  -9.7899    164.7735    201.1159   9.7372653173e+01   8.8204052639e+00    0.2392949    0.1848361 -14.00   0.00130398    1.647    0.393
        97  -9.3187    131.5147    201.4949   1.0427432597e+02   1.4672104552e+01    0.1331652    0.1175683  51.69 0.0001027015    1.025    0.024
        98  -9.7732    156.4220    196.8077   9.8366008065e+01   1.1103690590e+01    0.2407573    0.1369188 -41.32 0.0007220587    2.030    0.507
        99 -10.1046    202.0794    196.5863   8.9199195504e+01   2.8073658315e+00    0.3269682    0.2522429 -25.35   0.00107272    1.361    0.265
       100  -9.0672    191.2192    197.0592   9.1390241656e+01   4.6912804492e+00    0.2266977    0.1733955 -17.51 0.0007376613    1.450    0.310
       101  -9.5218    194.1853    193.8859   9.0232217294e+01   4.6657077365e+00    0.2440828    0.1930221 -26.38  0.000798196    1.343    0.256
       102  -9.4194    176.1336    196.7377   9.4329924108e+01   7.5018933345e+00    0.2710648    0.1898161 -35.20 0.0008901267    1.598    0.374
       103  -9.1595    162.0000    197.9625   9.7411113492e+01   9.8785404566e+00    0.2018738    0.0785196 -46.92 0.0006867425    2.890    0.654
       104 -10.0583    149.1382    197.2827   9.9954455048e+01   1.2339406351e+01    0.2237076    0.1888567 -32.16  0.001309393    1.392    0.281
       105  -9.8050    184.3342    195.4548   9.2461187039e+01   6.2123884421e+00    0.3215699    0.2241475 -15.52  0.001056298    1.809    0.447
       106  -9.1075    170.1037    196.3669   9.5485259470e+01   8.6740453007e+00    0.2221889    0.1854061 -19.30 0.0008178903    1.366    0.268
       107  -9.2458    140.3300    196.3364   1.0164438946e+02   1.4099176914e+01    0.1335463    0.1061803   3.15 0.0007052066    1.732    0.422
       108  -9.8096    132.4148    194.1978   1.0298160535e+02   1.5915692638e+01    0.1850254    0.1291188 -70.94 0.0009582395    1.714    0.416
       109  -9.8057    161.7934    191.1552   9.6289492537e+01   1.1142092379e+01    0.2903307    0.1842615 -37.70   0.00119947    1.812    0.448
       110  -9.8177    146.3755    191.8650   9.9646648574e+01   1.3855732880e+01    0.1858725    0.1277826 -37.64 0.0009459478    1.737    0.424
       111  -9.3134    205.1133    190.1845   8.7423117618e+01   3.2671018091e+00    0.2526737    0.1661144 -29.92 0.0006434309    1.603    0.376
       112  -9.7091    198.8624    190.1485   8.8624144801e+01   4.4151865252e+00    0.2902478    0.2059067 -20.01  0.001043738    1.562    0.360
       113  -9.4234    172.3486    189.6993   9.3848921249e+01   9.4305534748e+00    0.2758525    0.2104482 -33.92   0.00112463    1.449    0.310
       114  -9.2298    185.3274    189.6071   9.1197714748e+01   7.0145952763e+00    0.2213891    0.1558422 -17.11 0.0008827347    1.737    0.424
       115  -9.6090    178.9434    188.9856   9.2371894466e+01   8.3178475451e+00    0.3042326    0.1971134 -31.68  0.001066949    1.762    0.432
       116  -9.7938    186.7449    202.6299   9.3251884579e+01   4.5996890535e+00    0.2818213    0.2467384 -50.65  0.001245931    1.387    0.279
       117  -9.4011    156.8202    186.9278   9.6592119648e+01   1.2855017797e+01    0.2164528    0.1864049   6.22  0.001072254    1.335    0.251
       118  -9.1457    166.5545    184.7743   9.4156370465e+01   1.1416437240e+01     0.246724    0.1363097 -39.50  0.001114068    2.025    0.506
       119  -8.9768    189.5455    184.0803   8.9312171504e+01   7.1653795881e+00    0.1958511    0.1349989 -34.38 0.0007525803    1.547    0.353
       120  -9.7182    183.7847    181.8199   9.0042363475e+01   8.6555980315e+00     0.323213    0.1957828 -32.61  0.001258536    1.847    0.459
       121  -9.6236    140.1828    183.5852   9.9582953645e+01   1.6601692446e+01    0.2001766    0.1266816  32.46 0.0009457137    1.686    0.407
       122  -9.3650    197.2285    181.7405   8.7332063502e+01   6.1085532089e+00    0.2537857    0.1808463 -22.08 0.0007070506    1.536    0.349
       123  -9.5860    193.0580    187.1862   8.9204033496e+01   5.9786086743e+00    0.3117426    0.2160977  -2.67  0.001049132    1.866    0.464
       124  -9.1387    176.6388    180.3212   9.1222794110e+01   1.0297758793e+01    0.2828717    0.1706583 -35.02  0.001154358    1.849    0.459
       125  -9.7138    190.9078    178.2603   8.7908357118e+01   7.9104110535e+00    0.3418131     0.222438 -34.27   0.00117643    1.628    0.386
       126  -9.0269    145.6570    178.6876   9.7531449619e+01   1.6554825712e+01    0.1417703    0.1116944   4.65 0.0007046479    1.704    0.413
       127  -9.5820    197.6268    175.6151   8.6039889361e+01   7.0731442063e+00    0.2802523    0.2238067 -22.00 0.0009327172    1.291    0.225
       128  -8.7729    169.1520    176.8505   9.2125577945e+01   1.2390457215e+01    0.1962725    0.1658395   1.37 0.0008195104    1.339    0.253
       129  -9.2589    150.3550    176.3114   9.6071477695e+01   1.6133703864e+01     0.144748    0.1120013   5.97 0.0007044118    1.731    0.422
       130 -10.3610    101.0009    175.9978   1.0709698071e+02   2.5059576999e+01    0.1948359    0.1723616  73.82            0    1.014    0.014
       131  -9.4377    182.5179    174.6779   8.8908567611e+01   1.0177130644e+01    0.2978054    0.2127247  -6.43  0.001201944    1.844    0.458
       132  -9.0086    161.4954    174.4562   9.3302243110e+01   1.4341031956e+01    0.1433779    0.1327376  30.59 0.0002324599    1.046    0.044
       133  -9.1754    192.8049    172.1346   8.6300386349e+01   8.6152264947e+00    0.3041907    0.1823929 -29.80   0.00100182    1.849    0.459
       134  -8.8461    187.4747    171.8764   8.7329616512e+01   9.7085255214e+00    0.2050133    0.1399858 -38.13 0.0006475068    1.529    0.346
       135  -8.9255    200.8602    170.7655   8.4414433876e+01   7.2805055751e+00    0.2412508    0.1758737 -21.38 0.0006941691    1.462    0.316
       136  -8.9046    143.3179    170.3175   9.6518251996e+01   1.8695123879e+01    0.1425464    0.1147309   0.20 0.0003212397    1.656    0.396
       137  -8.8628    197.1765    168.8491   8.4749883034e+01   8.3345285095e+00    0.2419949     0.161588 -18.21 0.0006579458    1.790    0.441
       138  -9.6391    199.4885    163.8975   8.3252795016e+01   8.7475986141e+00     0.337903    0.1626858 -36.00  0.001043794    2.148    0.534
       139  -9.0987    178.8696    167.6924   8.8261068190e+01   1.2186701661e+01    0.2511513    0.1926643 -26.02 0.0008443429    1.424    0.298
       140  -9.7275    191.7825    164.1758   8.4861343039e+01   1.0240305537e+01     0.369827    0.1991896 -28.43  0.001344409    2.227    0.551
       141  -9.0469    184.8400    164.4174   8.6338096989e+01   1.1595007472e+01    0.2806293    0.1865892 -21.27  0.001189414    1.846    0.458
       142  -9.7620    205.5857    160.1297   8.1246692032e+01   8.1924017122e+00    0.4998071    0.3286345  -9.88  0.002258752    1.982    0.496
       143  -8.8432    176.5234    158.4608   8.6830371335e+01   1.4418207786e+01    0.2573373    0.1393953 -30.98  0.001026001    2.232    0.552
       144  -9.6463    197.0105    155.9964   8.2048344413e+01   1.0661316242e+01    0.3461245    0.2058647 -27.46  0.001232385    1.884    0.469
       145  -9.2726    187.5600    155.1194   8.3785680921e+01   1.2771221739e+01    0.3489916     0.143308 -37.46  0.001269278    2.569    0.611
       146  -9.3055    205.9406    153.3900   7.9706593560e+01   9.3039587568e+00    0.2701293    0.1904993 -17.49 0.0009586854    1.576    0.365
       147  -8.3347    192.4944    153.4593   8.2405886772e+01   1.2056949511e+01    0.1474968    0.1376469  10.15 7.483862e-05    1.021    0.021
       148  -9.0638    202.4341    150.3070   7.9708827420e+01   1.0572939552e+01    0.2589041    0.1391599 -31.53 0.0009059983    1.959    0.490
       149  -9.1530    151.6795    151.6671   9.0885515075e+01   2.0915911896e+01    0.1526376    0.1197974  -0.69 0.0007049346    1.699    0.411
       150  -9.0753    196.7459    149.1180   8.0576326468e+01   1.1971962419e+01     0.272004    0.1909789 -17.29 0.0009315621    1.660    0.398
       151  -9.8500    207.8772    144.3222   7.7292139111e+01   1.0515578872e+01    0.4789783    0.2803692 -15.39  0.001892277    2.451    0.592
       152  -8.5736    181.7812    148.9698   8.3635607315e+01   1.5152585576e+01    0.1995814    0.1214688 -39.89 0.0006718536    1.668    0.400
       153  -9.3033    149.5100    147.4970   9.0489273612e+01   2.2242824494e+01    0.1493378    0.1457715  58.43 9.735798e-06    1.007    0.007
       154  -9.6112    133.0000    146.9761   9.4292211096e+01   2.5696049660e+01    0.2489348   0.08478355 -49.67 0.0008065327    2.971    0.663
       155  -8.7273    176.0000    145.9317   8.4188571196e+01   1.6975776849e+01    0.2474968   0.08572908 -42.20 0.0008005734    2.930    0.659
       156  -8.9694    200.4122    144.2867   7.8746134069e+01   1.2087666189e+01    0.2742267    0.1409099 -33.61  0.001107502    2.003    0.501
       157  -9.4062    214.0663    141.6704   7.5504955211e+01   9.6983952201e+00     0.310737    0.1937226 -31.07 0.0009288191    1.578    0.366
       158  -8.5582    194.3893    142.7856   7.9610860760e+01   1.3644475935e+01    0.2102925    0.1388047 -26.57 0.0008987145    1.645    0.392
       159  -8.3647    171.3147    143.3538   8.4623754194e+01   1.8493430175e+01    0.1582594    0.1198876   1.29 0.0007045697    1.737    0.424
       160  -8.4133    203.4748    140.4607   7.7259483154e+01   1.2137247163e+01    0.1498347    0.1375428   1.11 0.0001526979    1.056    0.053
       161  -8.5953    166.3068    139.3504   8.4813451209e+01   2.0385801913e+01    0.1580295    0.1214118  -0.05 0.0007042774    1.708    0.415
       162  -9.5633    212.0673    128.1425   7.2702754409e+01   1.2516602823e+01    0.3830948    0.1988764 -40.48   0.00102417    1.860    0.462
       163  -9.3569    208.8139    136.5053   7.5302482717e+01   1.1717174533e+01    0.3339681     0.201643 -31.45  0.001229866    1.652    0.395
       164  -9.1046    198.6713    136.2529   7.7224006265e+01   1.3940720667e+01    0.3108336    0.1790455 -30.69  0.001000209    1.824    0.452
       165  -8.1506    205.2462    136.3487   7.5953193933e+01   1.2506939815e+01    0.1494527    0.1122507  -3.99 0.0003324067    1.580    0.367
       166  -8.7044    192.5413    135.9839   7.8397187179e+01   1.5323891760e+01    0.2336143    0.1463066 -36.25    0.0010189    1.588    0.370
       167  -8.6537    187.5138    134.5360   7.9089433123e+01   1.6702195767e+01    0.1527255    0.1443478   3.20 0.0002701824    1.045    0.043
       168  -8.5961    179.4891    131.9755   8.0171136569e+01   1.8976518245e+01    0.2403014    0.1502152 -39.89  0.001034184    1.594    0.373
       169  -9.4527    205.6680    129.0415   7.4132279852e+01   1.3745175306e+01    0.4257312    0.1881631 -40.65  0.001609834    2.194    0.544
       170  -9.0398    192.5061    128.4617   7.6596575941e+01   1.6759127634e+01    0.3096311    0.1481322 -37.80  0.001180137    2.064    0.516
       171  -8.1725    186.3056    128.3279   7.7841661559e+01   1.8169873867e+01    0.1575962      0.12035   4.78 0.0007036316    1.652    0.395
       172  -8.8734    199.8299    125.4638   7.4398848662e+01   1.5690847041e+01    0.2517696    0.1741478 -30.84 0.0007437546    1.444    0.308
       173  -8.6302    187.7931    122.9483   7.6203960376e+01   1.8874165992e+01    0.2132968    0.1214177 -37.67 0.0008667149    1.733    0.423
       174  -8.8341    179.5958    123.2342   7.8000148837e+01   2.0680554548e+01    0.2260748    0.1470364 -28.61 0.0009555139    1.689    0.408
       175  -9.2516    212.5594    121.7723   7.1069330281e+01   1.3546057636e+01    0.2777721    0.1419058 -32.85 0.0009082112    1.931    0.482
       176  -8.8003    203.3394    120.7479   7.2554553954e+01   1.5777574094e+01     0.217191    0.1373668 -27.56 0.0005287857    1.662    0.398
       177  -8.2971    194.2772    120.3239   7.4228145572e+01   1.7902216578e+01    0.1540216    0.1194159   2.71  0.000383822    1.585    0.369
       178 -12.5919    225.1547    244.5624   9.3049571438e+01  -7.3912226417e+00     2.502328    0.8624495 -29.68   0.01140649    3.639    0.725
       179 -11.2077    192.0558    245.6091   9.9006562257e+01  -2.4803508760e+00    0.5211552    0.3684643   3.62  0.002308807    1.666    0.400
       180 -10.1516    212.5309    110.3462   6.8243269031e+01   1.5585082802e+01     0.365544    0.1358018 -38.94  0.001267876    2.507    0.601
       181  -9.5685    218.8294    108.5136   6.6669515838e+01   1.4491627050e+01    0.3065976    0.1881175 -18.84 0.0009899096    1.979    0.495
       182 -10.2156    167.9986    250.0051   1.0390499655e+02   7.2071007909e-01    0.4422444    0.1635634  34.36  0.001967258    2.606    0.616
       183  -8.9478    209.6466    107.6720   6.8089688393e+01   1.6715628404e+01    0.1590899    0.1170568  11.99 0.0007046777    1.772    0.436
       184  -8.7413    205.6093    104.2019   6.7939664405e+01   1.8266200672e+01    0.2163649    0.1421161 -24.13 0.0006916374    1.657    0.396
       185 -10.4266    216.1487     99.3340   6.4815745415e+01   1.6688709849e+01    0.4288719    0.3672958  88.58  0.002237719    1.375    0.273
       186  -8.6288    209.4358     99.4735   6.6024899762e+01   1.8216125056e+01    0.1508683    0.1424553 -23.74 0.0002023898    1.034    0.033
       187  -9.2785    218.1173     89.1331   6.1865595967e+01   1.7971545488e+01    0.2246794    0.1973413  -5.09 0.0006547028    1.248    0.199
       188 -10.2695    218.0426     82.7814   6.0230999635e+01   1.9046346797e+01    0.6322775    0.4058137   2.10  0.002486709    2.657    0.624
       189  -8.8444    215.2328     79.6141   5.9851289438e+01   2.0232929320e+01    0.4029347    0.1879038 -29.87  0.001536511    2.207    0.547
       190  -8.6883    205.6992     84.1802   6.2650332503e+01   2.1755188410e+01    0.2193772    0.1355148 -25.68 0.0007400101    1.750    0.429
       191  -8.7608    211.4073     75.7594   5.9443925385e+01   2.1781711402e+01    0.2074406    0.1419526 -21.50 0.0008692157    1.627    0.385
       192 -10.3743    156.5464    247.3876   1.0563623571e+02   2.8923562740e+00    0.4275403    0.2612979 -28.30  0.002389567    2.573    0.611
       193  -9.2676    218.3628     68.1730   5.6357233112e+01   2.1318119541e+01    0.3110139    0.1358304 -34.72  0.000689511    2.127    0.530
       194  -9.5392    113.2888     71.0721   7.9513495742e+01   4.6252110408e+01     0.234592    0.2082328  35.96 0.0003289174    1.150    0.130
       195  -8.6800    222.2259     70.3798   5.6364234618e+01   2.0052251236e+01    0.1420388    0.1112844  -1.69 0.0003776115    1.610    0.379
       196 -11.0004    140.9641    247.2181   1.0843697072e+02   5.3745606723e+00    0.4846186    0.3452118  10.04  0.002857876    2.183    0.542
       197 -10.3280    124.9882    248.0564   1.1141354805e+02   7.7252847788e+00    0.2860286    0.2523529 -29.95  0.002080367    1.604    0.377
       198 -10.1689     88.4000    249.3199   1.1801226574e+02   1.2902981136e+01    0.2852154    0.1609837  34.57  0.001681242    1.930    0.482
       199  -9.9139     73.2253    250.2515   1.2069298815e+02   1.4818241857e+01    0.2424499    0.1370164  30.54  0.001389428    2.380    0.580
       200  -9.5595     48.1257    250.0701   1.2485888009e+02   1.8025294127e+01    0.2152452    0.1179479  41.84  0.001326535    1.674    0.403
       201 -10.3092     62.3645    248.6649   1.2241065122e+02   1.6498210985e+01    0.2761659    0.1872197  38.34  0.001917103    1.611    0.379
