#   1 NUMBER                 Running object number                                     
#   2 MAG_AUTO               Kron-like elliptical aperture magnitude                    [mag]
#   3 X_IMAGE                Object position along x                                    [pixel]
#   4 Y_IMAGE                Object position along y                                    [pixel]
#   5 X_WORLD                Barycenter position along world x axis                     [deg]
#   6 Y_WORLD                Barycenter position along world y axis                     [deg]
#   7 A_WORLD                Profile RMS along major axis (world units)                 [deg]
#   8 B_WORLD                Profile RMS along minor axis (world units)                 [deg]
#   9 THETA_WORLD            Position angle (CCW/world-x)                               [deg]
#  10 FWHM_WORLD             FWHM assuming a gaussian core                              [deg]
#  11 ELONGATION             A_IMAGE/B_IMAGE                                           
#  12 ELLIPTICITY            1 - B_IMAGE/A_IMAGE                                       
         1 -11.5709    165.9950     48.6351   6.9771347815e+01   3.7356794424e+01    0.9335313    0.8131902 -16.75  0.005195747    1.431    0.301
         2 -10.7858    183.9931     15.0001   5.9042656678e+01   3.7293077781e+01    0.5497674    0.3192402 -81.51  0.002938409    1.820    0.451
         3 -11.0524    183.0933     20.7329   6.0463967151e+01   3.6875163726e+01    0.5487545    0.5104982 -60.32  0.003822678    1.241    0.194
         4 -10.7988    177.8664     19.6903   6.0869375961e+01   3.8177797753e+01    0.6924222    0.3064068 -30.55  0.003294453    2.671    0.626
         5  -8.9502    120.0865      9.0557   6.6874968183e+01   5.2203232070e+01    0.2819302      0.20326  64.90  0.001748519    1.215    0.177
         6  -7.3676    145.4947      4.6013   6.1455170704e+01   4.6974351708e+01    0.1226621   0.09702883  64.41 0.0001769701    1.062    0.058
         7  -8.5432    132.0900    190.1541   1.1134648848e+02   1.5621193541e+01    0.2358994    0.2042793 -56.22 0.0002646942    1.162    0.139
         8 -11.9402    232.9390    249.8615   1.0086571418e+02  -1.2607936990e+01    0.2148141    0.1747483   9.95 0.0003153247    1.086    0.079
         9  -8.4206    152.9249    249.1177   1.1650106370e+02  -3.5986891568e-01    0.2640537    0.1788343 -44.76  0.001448711    1.661    0.398
        10 -18.0757     62.2011    225.6623   1.3261455963e+02   1.8862585106e+01     4.639157     3.563323 -79.97   0.01186767    1.210    0.174
        11 -10.9083    184.6654    218.9400   1.0491225025e+02  -8.3525912530e-02     1.390765    0.2605967 -48.69  0.003520133    6.449    0.845
        12  -9.7469    177.6527    224.6373   1.0738570195e+02   3.5849136656e-02    0.5304548    0.2306243 -45.32  0.001959678    2.396    0.583
        13  -9.4926    115.1032    187.2014   1.1489629970e+02   1.9443422864e+01    0.3944368    0.2475105  57.63  0.001713325    1.783    0.439
        14  -8.2736    153.2869    185.8348   1.0555111512e+02   1.2570794164e+01    0.2585077    0.1873496 -53.14 0.0007017847    1.399    0.285
        15  -7.9654    169.1273    190.0683   1.0280974897e+02   8.5940129934e+00    0.2266344    0.1816616  89.17 0.0007495562    1.654    0.395
        16  -8.3006    143.2683    183.5429   1.0743637285e+02   1.5029060366e+01    0.3123575    0.2334598 -86.46  0.001414218    1.754    0.430
        17 -10.5044    145.0319    225.9328   1.1459265099e+02   5.4347274946e+00    0.3722213    0.3218706  -7.29 0.0004591499    1.356    0.262
        18  -7.5139    150.6365    237.2220   1.1517596849e+02   2.2383659070e+00    0.1748086    0.1249923 -38.21 0.0005445143    1.587    0.370
        19  -8.9768    249.8140    176.7740   8.4433368226e+01  -3.0672699493e+00    0.3181717    0.2285664 -69.16  0.001308004    2.132    0.531
        20  -9.4452    188.5358    176.3764   9.5840673276e+01   7.7867665849e+00    0.5532792      0.29811 -52.11  0.002215547    1.955    0.489
        21  -8.9939    161.5977    176.3736   1.0173625180e+02   1.3071465613e+01    0.3568422    0.2652367  57.23  0.001067645    1.492    0.330
        22  -9.2764    166.8531    221.6435   1.0915331473e+02   2.4787783251e+00    0.2471558    0.2015117 -54.78 0.0005818905    1.354    0.262
        23  -9.4506    239.2896    173.0362   8.5470235519e+01  -7.0468720548e-01    0.2712874    0.2489743  77.49 -0.000275831    1.391    0.281
        24  -9.2679    239.8997    168.2237   8.4403717443e+01   8.2025553205e-02    0.2399951    0.1967452 -27.78 0.0002770761    1.129    0.114
        25  -9.1915    134.4547    173.7150   1.0759408395e+02   1.9037795331e+01    0.3054193    0.2451445  71.64 0.0005220155    1.418    0.295
        26  -8.6832    119.1912    169.8561   1.1060094862e+02   2.2887452248e+01    0.2634995    0.2069059  72.23 0.0006652269    1.449    0.310
        27  -8.5900    141.0015    170.2616   1.0530099086e+02   1.8568956060e+01    0.2199484    0.2016274  50.68 0.0005154731    1.099    0.090
        28  -9.5316     18.5274    165.6086   1.3574998027e+02   3.8303280222e+01    0.4150529    0.3056879 -86.97  0.002208683    1.185    0.156
        29  -8.5782    161.0773    164.5607   9.9363229287e+01   1.5842185804e+01    0.2684523    0.2136538 -39.54 0.0002862003    1.267    0.211
        30  -9.5161    120.3026    164.2089   1.0917813359e+02   2.4051577545e+01    0.3808477    0.2817215  87.80  0.001015698    1.729    0.422
        31  -8.9607    240.1886    163.3792   8.3380987926e+01   9.3163710181e-01    0.2401894    0.1911125 -48.39 0.0001178813    1.186    0.157
        32 -10.0766    208.2102    161.0061   8.8642638166e+01   7.1765998253e+00     0.246741    0.2375214 -50.00 0.0003200198    1.066    0.061
        33  -9.2956    134.8229    158.1413   1.0424560870e+02   2.2672347044e+01    0.5413287    0.3562417  85.33  0.001749549    2.563    0.610
        34 -10.2944    135.2892    148.6996   1.0204122110e+02   2.4819662736e+01    0.8194993    0.5100409 -55.76  0.003449769    1.635    0.388
        35  -8.7955    140.4375    152.1701   1.0154421722e+02   2.2946727811e+01    0.2651203    0.1948811  61.99 0.0006000066    1.550    0.355
        36  -8.9517     22.5687    156.8127   1.3365132909e+02   4.0071544524e+01    0.2346267    0.1753444 -43.96 0.0004278124    1.459    0.315
        37  -9.1526      7.0307    155.0883   1.3738291306e+02   4.1812837465e+01    0.4143936    0.2171855 -34.30  0.001771816    2.701    0.630
        38  -8.8728    155.9552    154.0229   9.8237536873e+01   1.9301248494e+01    0.3069444    0.2431409  77.58  0.001052981    1.541    0.351
        39  -8.7286    227.5274    143.6929   8.1464595688e+01   6.9345914151e+00    0.2123652     0.208799  24.74 0.0003961284    1.151    0.131
        40  -8.3365     12.3816    144.2483   1.3468133735e+02   4.3994077887e+01    0.2111449    0.1390097  47.75 0.0009534657    1.741    0.426
        41  -8.1856     12.5778    219.8535   1.4216292488e+02   2.6180649988e+01    0.2060623    0.1792264  75.70  0.001480597    1.219    0.179
        42  -8.3505    156.0590    141.5745   9.5373839586e+01   2.2114021777e+01     0.247948    0.2148082 -22.47 0.0006032393    1.301    0.231
        43  -8.8328    119.0353    140.9937   1.0446255752e+02   2.9918088404e+01    0.2411919    0.2310054 -73.39 0.0004990071    1.023    0.023
        44  -8.8034    152.6772    220.3250   1.1199641418e+02   5.2374209409e+00    0.2795162    0.2057769  66.43  0.001389893    1.693    0.409
        45  -9.8181    102.8576    129.7910   1.0624406783e+02   3.5679848941e+01    0.3738677    0.2708678  75.80 0.0007650871    1.895    0.472
        46 -10.4799    100.0633    136.8348   1.0865180726e+02   3.4501432320e+01    0.9031738    0.3059934  50.59   0.00250562    4.393    0.772
        47 -10.2302    106.1089    134.4875   1.0644281558e+02   3.3956540749e+01    0.4906638    0.3953189  -8.15 0.0004078181    1.593    0.372
        48  -7.9712     17.7058    142.0353   1.3295038017e+02   4.4092157854e+01    0.1804115    0.1414739 -68.99 0.0004146956    1.040    0.038
        49  -9.3863    156.6363    218.3171   1.1078855495e+02   4.9462552941e+00    0.4879951     0.232974  48.99  0.001972824    2.255    0.557
        50 -10.0103    114.7665    135.5921   1.0434720284e+02   3.2041288904e+01    0.4735267    0.3039218  39.33  0.001198375    1.625    0.385
        51  -9.2649    152.3418    217.0109   1.1150577431e+02   5.9794184775e+00    0.5334894      0.32631  18.71  0.002263661    2.292    0.564
        52 -10.7022     11.7590    207.1124   1.4132600828e+02   2.9126957342e+01    0.4875791    0.3866901  63.49  0.002107529    1.212    0.175
        53  -8.3734    152.7181    209.5892   1.1012752007e+02   7.4687412208e+00     0.275527    0.1368981  35.93  0.001123109    2.017    0.504
        54  -8.2092    109.0728    123.2432   1.0293476927e+02   3.6041942833e+01    0.2625935    0.1989855 -37.32 0.0005069008    1.361    0.265
        55  -8.6167    146.4576    156.9999   1.0115128397e+02   2.0578851104e+01    0.2519259    0.2160441  78.81 0.0006885119    1.304    0.233
        56  -9.1952    132.3020    231.4269   1.1821925629e+02   6.5099191921e+00    0.3906861    0.2120173 -31.95  0.001540531    3.098    0.677
        57  -7.7359    183.4776    118.5906   8.3968183992e+01   2.1066315305e+01    0.1492557    0.1431121 -68.98 4.546684e-05    1.031    0.030
        58  -8.0991    169.0085    114.3049   8.5917949438e+01   2.5181241725e+01    0.2127324    0.2001953  79.79 0.0005761093    1.060    0.056
        59 -11.6338     62.3286    108.7598   1.1329979569e+02   4.7162599309e+01    0.6916967    0.5201989  -8.65  0.003616564    1.597    0.374
        60 -11.8708     67.1526    104.1471   1.1063304752e+02   4.7518458037e+01     1.059655    0.7421896  65.30  0.005035112    2.121    0.528
        61  -9.3401    122.8199    204.7841   1.1611053949e+02   1.3940744011e+01    0.5771177    0.2645632  56.42  0.002010185    2.990    0.666
        62  -9.9651    183.4826    208.9935   1.0333960264e+02   2.0464708195e+00    0.5093636     0.251689 -50.04  0.002148631    2.173    0.540
        63  -8.5839    169.5680     95.9378   8.1227973466e+01   2.8701843191e+01    0.2241843    0.1976385  48.41  0.001187776    1.192    0.161
        64  -9.5532     92.5667     95.4120   1.0041858290e+02   4.5255941211e+01    0.2736827    0.2503722  83.11 0.0004917906    1.300    0.231
        65  -7.4864    132.0567     94.9944   8.9441952525e+01   3.7380565614e+01    0.1782498    0.1612132  50.20 -0.001877172    1.098    0.089
        66  -9.8501     66.0137     94.4536   1.0848855635e+02   4.9789247164e+01    0.4256236    0.2430415  34.55  0.001163449    1.854    0.461
        67  -7.9631     21.5073     92.0172   1.2297461064e+02   5.5343539174e+01    0.1824052    0.1045122 -55.93 0.0003126319    1.456    0.313
        68  -9.7543    192.3850    193.5776   9.8519616946e+01   3.5232050152e+00    0.4176344    0.2255915 -57.35  0.001686132    2.402    0.584
        69  -9.5067    225.5112     88.5866   6.9989893849e+01   1.7575791890e+01    0.2330346     0.217156 -69.04 0.0002868735    1.141    0.123
        70  -8.4579     29.1415     86.5069   1.1903743545e+02   5.5850201827e+01    0.2013537    0.1639151 -13.73 0.0007704887    1.232    0.189
        71  -8.3046    230.4487     84.6780   6.8481202402e+01   1.7216718961e+01    0.2057395     0.160776  41.63 0.0006757384    1.717    0.418
        72  -7.9548    104.2100     80.1440   9.2638826618e+01   4.6049681773e+01    0.2158331    0.1878016   1.86 0.0005196608    1.217    0.178
        73  -8.5433    112.7176    194.1097   1.1668540876e+02   1.8221081337e+01    0.3963533     0.264522  83.40  0.001706531    2.048    0.512
        74  -8.5257    112.9066     77.0422   8.9323811818e+01   4.4852479455e+01    0.2078877    0.1973838  29.56 0.0003772864    1.017    0.017
        75  -7.9507    169.5759     69.3125   7.4452500501e+01   3.3406894187e+01    0.1781529    0.1398634 -28.46 0.0009277493    1.489    0.329
        76  -7.6487      1.8159     68.3810   1.2474101066e+02   6.1568385559e+01     0.146676   0.09487259 -13.20 0.0004100739    1.590    0.371
        77 -10.4272    154.1586     62.0257   7.5461980185e+01   3.8159186930e+01    0.3491195    0.3426695  -8.04  0.001073128    1.153    0.133
        78  -9.0566    144.2147     59.2807   7.6718480326e+01   4.0877681890e+01    0.2998768    0.2117479 -27.50  0.001528365    1.638    0.390
        79  -8.6826    166.0383    248.4885   1.1371021668e+02  -2.3858759327e+00    0.2191997    0.1838794 -38.93 0.0005263694    1.317    0.241
        80  -9.9594    171.1538     39.5257   6.6629885520e+01   3.7372047459e+01    0.3773156    0.3574778  57.95 0.0007367243    1.195    0.163
        81 -10.2341    125.9239     55.0892   7.9531106507e+01   4.5627627105e+01    0.2290577    0.2232036  84.29  0.001413912    1.090    0.082
        82  -9.2105    221.4995     40.2480   6.0299019007e+01   2.5920595972e+01    0.3073042    0.2100115 -46.20  0.001829424    1.433    0.302
        83  -7.2060    194.9838     32.7539   6.1746080315e+01   3.2758580730e+01    0.1545731   0.09578272  70.74 0.0002016598    1.435    0.303
        84  -9.8036    185.9874    214.1426   1.0376613860e+02   6.0534020846e-01    0.3925849    0.3363963  24.31  0.001554484    1.123    0.109
        85  -9.5585    117.3085    244.9291   1.2332813784e+02   6.2892758730e+00    0.3711487     0.266814 -33.32  0.001296338    1.915    0.478
        86  -9.9419    134.4837    240.4646   1.1908909794e+02   4.3308699310e+00     0.424115    0.2460541 -49.62  0.001321672    1.909    0.476
        87  -7.8439    167.8195     23.1809   6.3047539323e+01   4.0093171451e+01    0.1656061    0.1335717  50.41 -0.000430966    1.321    0.243
        88  -8.3529    250.3231    238.8946   9.5864155320e+01  -1.3276748681e+01    0.1642689    0.1370515 -18.41 0.0004480769    1.170    0.145
