#   1 NUMBER                 Running object number                                     
#   2 MAG_AUTO               Kron-like elliptical aperture magnitude                    [mag]
#   3 X_IMAGE                Object position along x                                    [pixel]
#   4 Y_IMAGE                Object position along y                                    [pixel]
#   5 X_WORLD                Barycenter position along world x axis                     [deg]
#   6 Y_WORLD                Barycenter position along world y axis                     [deg]
#   7 A_WORLD                Profile RMS along major axis (world units)                 [deg]
#   8 B_WORLD                Profile RMS along minor axis (world units)                 [deg]
#   9 THETA_WORLD            Position angle (CCW/world-x)                               [deg]
#  10 FWHM_WORLD             FWHM assuming a gaussian core                              [deg]
#  11 ELONGATION             A_IMAGE/B_IMAGE                                           
#  12 ELLIPTICITY            1 - B_IMAGE/A_IMAGE                                       
         1 -15.5571      6.3041     69.2733   1.1845089120e+02   6.1291422407e+01     2.147254     1.001323 -69.43  0.006901227    1.622    0.383
         2 -13.6762     80.5241     56.9889   8.6782277168e+01   5.5765352062e+01     2.000847     1.334446  21.19  0.009434611    1.907    0.476
         3 -12.8497    120.2620     26.1473   6.2416194640e+01   5.2494500634e+01    0.9522939    0.6294664  22.17  0.004333843    1.784    0.439
         4 -14.7157    119.6920     54.6456   7.3777805004e+01   4.8198853871e+01     1.152238    0.9258752  30.00  0.003096728    1.331    0.249
         5 -14.8090    119.7433     38.0638   6.7401016455e+01   5.0933688361e+01     1.901802    0.7478925  47.71  0.006882313    2.505    0.601
         6 -13.2135    131.8465     32.6141   6.2334652262e+01   4.8754324840e+01    0.7635649    0.4784604 -26.07  0.003155347    1.600    0.375
         7 -13.1810    139.1830     22.1675   5.6723406625e+01   4.8218878676e+01    0.7982458    0.3914782  57.06  0.001873796    1.905    0.475
         8 -14.7289    166.6696     30.1396   5.4735948506e+01   4.0007573964e+01      1.27069     1.148863  86.85  0.004428486    1.129    0.114
         9 -14.8377    147.5462     30.2882   5.8180670166e+01   4.5036019320e+01     1.542265    0.9855332  60.34  0.004787004    1.537    0.349
        10 -13.0979    232.5564      2.3093   3.9101775870e+01   2.6174034230e+01     1.566061    0.5355368  56.45  0.006160457    3.162    0.684
        11 -15.6622    211.9423     41.0010   5.1674379167e+01   2.6802952451e+01     2.765751     1.832829  72.71   0.01047959    1.611    0.379
        12 -13.8561    215.1314      9.8988   4.2505189429e+01   2.9650134060e+01    0.9583147     0.605243  49.70  0.001113234    1.779    0.438
        13 -14.8462     42.1038      6.5421   7.9380972761e+01   7.0716077443e+01     2.470439     1.300569 -12.73   0.01160729    2.402    0.584
        14 -12.3647      3.3814     17.3572   1.0642823113e+02   7.2763910211e+01    0.5257347    0.2011823 -34.02   0.00257914    2.488    0.598
        15 -13.0369      2.7524     10.6071   1.0399502481e+02   7.4102912805e+01    0.4199321    0.2732516 -49.40  0.001839743    1.201    0.167
        16 -14.9827      6.3418     29.0226   1.0894835337e+02   7.0234209850e+01     1.072905    0.7442954  29.03  0.007109708    1.844    0.458
        17 -15.4960     13.6951     19.4655   1.0136155936e+02   7.1669379780e+01     1.187045    0.9322147 -49.44  0.008242257    1.185    0.156
        18 -14.3152     23.6616     14.0566   9.3241053809e+01   7.1790502810e+01     0.712752    0.3631271  27.70  0.002325397    2.237    0.553
        19 -12.9765     71.9773     16.6755   7.2352185679e+01   6.4306353638e+01    0.7535713    0.3576383 -24.51  0.002258181    2.102    0.524
        20 -13.0136     67.7427     24.5406   7.7869324687e+01   6.3913013553e+01    0.7599609     0.390617  38.95  0.003570599    2.050    0.512
        21 -13.8729    187.5051     12.3673   4.6014994381e+01   3.6498794155e+01     1.316719     0.695904 -52.67  0.005660515    2.001    0.500
        22 -11.9642     46.3667     21.1333   8.5265636723e+01   6.7838795015e+01    0.4099028    0.3406687  10.23  0.002329254    1.220    0.180
        23 -15.5344     98.0390     12.5532   6.2042315275e+01   5.9388771318e+01     1.776203    0.8405923  52.33  0.003584664    1.990    0.497
        24 -11.3866     60.2083     17.0935   7.7137266897e+01   6.6346374478e+01    0.3270025    0.1715946 -32.99  0.001605723    1.721    0.419
        25 -14.3769    188.5312     25.5977   5.0045590725e+01   3.4765822446e+01     1.839631    0.9637175 -54.91  0.007470204    2.161    0.537
        26 -11.8138    152.9514      8.6417   4.9251624155e+01   4.6043958382e+01    0.3297086     0.267633  49.06 0.0009720734    1.195    0.163
        27 -12.9223      7.8582      2.6273   9.6727386650e+01   7.5193192653e+01     0.591204    0.3612397  30.21  0.002729947    2.046    0.511
        28 -11.1514     59.2083      6.5804   7.1806496768e+01   6.7958541269e+01    0.2946214    0.2346107  72.55  0.001687951    2.047    0.511
        29 -10.3568    160.7688      6.4105   4.7343865326e+01   4.4177436186e+01    0.2073481    0.1195937  57.55  0.000939751    1.611    0.379
        30 -11.0012     68.0998      4.5563   6.7268630011e+01   6.6565838463e+01    0.2924147    0.1657594 -39.87  0.001448429    2.031    0.508
        31 -11.3952    112.0369      1.9896   5.3762272845e+01   5.7136768224e+01    0.2682375    0.2072684  72.72  0.001455135    1.390    0.281
        32 -11.7890    119.6714      3.6927   5.2966474190e+01   5.5103543716e+01    0.4186749    0.2244122  75.47  0.001799001    2.160    0.537
        33 -12.2096    116.5804      1.4500   5.2594417300e+01   5.6066239061e+01    0.6634346    0.3397381  85.82  0.002561889    2.966    0.663
        34 -13.4531    223.7561     20.9756   4.4763483513e+01   2.6320685782e+01     1.266875    0.5573475  53.70  0.005106442    2.467    0.595
        35 -12.0972     78.1816      2.3669   6.2670070050e+01   6.4788084343e+01    0.3506112    0.2820746  34.83  0.001352721    1.156    0.135
        36 -11.1187     83.0193      1.2353   6.0597787140e+01   6.3879715286e+01    0.2807771    0.1249043  57.73  0.001018008    2.262    0.558
        37 -14.0714    218.3586     15.2109   4.3686447127e+01   2.8287162988e+01       1.0438    0.6125202  38.72  0.004758485    2.235    0.552
        38 -12.0671     61.7467      2.0167   6.8173020945e+01   6.8044210191e+01    0.3729697    0.2181211  51.12  0.001347378    1.864    0.464
        39 -10.7175     28.5209      1.7680   8.3571994561e+01   7.3233628889e+01    0.2003524    0.1519946  14.61 0.0008524681    1.314    0.239
        40 -11.2280     54.0176      1.3632   7.0879074459e+01   6.9494308881e+01    0.1669071     0.111591  39.37            0    1.504    0.335
        41 -13.4338     22.3875    181.2195   1.2559507217e+02   3.4503453100e+01    0.5692191    0.4441512 -70.15  0.002928885    1.433    0.302
        42 -12.8265     57.3207    246.8333   1.2330217034e+02   1.8603636562e+01    0.4927088    0.3100102  39.63   0.00356043    1.542    0.351
        43 -13.5761     28.3609    246.1245   1.2793831855e+02   2.1964220964e+01    0.6190541    0.2883631  72.62  0.004166325    1.791    0.442
        44 -11.6913      2.6809    249.8457   1.3200625720e+02   2.3912956002e+01    0.2648735    0.1189114  49.83  0.001697882    1.527    0.345
        45 -13.8024      9.0415    245.7359   1.3092361676e+02   2.3967679444e+01    0.6760417    0.2993829  56.08   0.00319686    1.500    0.333
        46 -11.0002    148.8132    140.9561   9.1044195585e+01   2.4171696369e+01    0.2456344    0.1749614 -77.15  0.001093595    2.000    0.500
        47 -10.9394     88.4745    140.4788   1.0564192162e+02   3.5328127803e+01    0.1392516    0.1255399  89.14  4.20124e-05    1.003    0.003
        48 -12.4350     44.0580    132.9714   1.1607545636e+02   4.3022635837e+01     0.664786    0.3543741 -69.84  0.003425393    1.602    0.376
        49 -10.8261     81.0537    135.9888   1.0678073367e+02   3.7510544632e+01    0.1977052    0.1773036 -82.62  0.001173256    1.030    0.029
        50 -12.4957    245.8075    134.2188   7.0833844212e+01   5.5947521862e+00    0.3569363    0.2591042 -61.68  0.001803673    2.221    0.550
        51 -10.5785     63.1645    134.4064   1.1122786629e+02   4.0393811659e+01    0.1922491    0.1114916  50.21 0.0009524836    1.755    0.430
        52 -10.1961     11.1360    134.3644   1.2469134327e+02   4.5735129194e+01    0.1489024   0.09355791  49.75 0.0005124511    1.595    0.373
        53 -13.0065    222.3047    128.1183   7.3278158969e+01   1.1091194242e+01    0.3942961    0.2616231 -49.74  0.001884657    1.814    0.449
        54 -11.1606     25.5582    127.2462   1.2028832651e+02   4.6202660695e+01    0.2196191    0.1871712 -57.73 0.0008095926    1.321    0.243
        55 -12.9890     28.2869    122.5469   1.1900736839e+02   4.7069318167e+01    0.3999105    0.2961833 -74.30  0.002517473    1.118    0.106
        56 -13.1626    234.0209    126.3344   7.0900541919e+01   9.0111247656e+00    0.3253529    0.2281656 -23.95   0.00170505    1.305    0.234
        57 -13.0410    120.3899    102.2939   8.8733216130e+01   3.8318941881e+01    0.6323214    0.3612405  40.83  0.002153579    1.860    0.463
        58 -13.8321    105.8093    121.7923   9.7424830499e+01   3.6719749072e+01     1.514108     1.036503  39.24  0.007305054    1.546    0.353
        59 -14.8518    106.7713    105.7362   9.3358512012e+01   4.0231548047e+01      1.81675     1.487105  24.39   0.00816225    1.443    0.307
        60 -11.9219    181.0057    121.2920   7.9401657693e+01   2.1129159293e+01    0.3758229     0.252654  54.61  0.001574972    1.600    0.375
        61 -11.9964     78.2712    110.9577   1.0274399780e+02   4.3869314401e+01    0.4205651    0.2848124 -71.60  0.001575448    1.487    0.328
        62 -12.4160     77.0237    117.0060   1.0435409430e+02   4.2610563565e+01    0.5703358    0.3811052 -88.54  0.002722143    1.793    0.442
        63 -12.6645     85.0541    115.5437   1.0177197166e+02   4.1721779636e+01    0.6603926    0.3653507  32.08  0.002327506    2.145    0.534
        64 -12.0627     88.2031    109.6323   9.9570546756e+01   4.2612134664e+01     0.529582    0.3287207 -62.65  0.002073659    1.575    0.365
        65 -12.0323      4.9707    119.1667   1.2497837663e+02   4.9676760260e+01    0.5803971    0.5041806 -55.25  0.004269996    1.372    0.271
        66 -14.4824     17.9658    110.7936   1.2049903132e+02   5.0722988063e+01     1.060304    0.9269468 -13.14  0.007344714    1.565    0.361
        67 -13.4717    171.3264    243.0041   1.0337635144e+02   3.2912754212e+00    0.6749253     0.384878  32.20  0.004175675    1.490    0.329
        68 -13.5083      6.0794     43.8597   1.1331743985e+02   6.7069140197e+01    0.8224403    0.4611996  27.78  0.004873672    2.231    0.552
        69 -13.6938      2.2455     97.1539   1.2360569334e+02   5.4981716977e+01      1.25217    0.3517757 -80.32   0.00489408    3.162    0.684
        70 -11.4830     45.1036    110.6461   1.1249877927e+02   4.8258587207e+01    0.4300206    0.3052327 -57.00  0.002460558    1.296    0.228
        71 -12.6118     33.1731    111.1313   1.1610603293e+02   4.9348890911e+01    0.4153099    0.2174201 -87.39  0.001986637    2.001    0.500
        72 -11.6794    176.5190    110.7715   7.7641933086e+01   2.4112456832e+01    0.3609941     0.284521   0.10  0.001706512    1.525    0.344
        73 -10.7598     60.1242    125.2137   1.1059374325e+02   4.2973981674e+01    0.2314058    0.1649629  11.68  0.001194792    2.088    0.521
        74 -11.3903    222.8236    109.8248   6.8747071809e+01   1.3884187864e+01    0.1987957    0.1724405 -55.71 0.0007924598    1.327    0.246
        75 -11.4266     61.8758    110.1590   1.0741564616e+02   4.6374129640e+01    0.2731117    0.1789345 -69.92  0.001399348    1.396    0.284
        76 -12.2733    135.9520    103.1395   8.4918329072e+01   3.4832157648e+01    0.7190368    0.3222544  49.99  0.001916468    2.350    0.574
        77 -11.0593     56.5761     93.2273   1.0556260171e+02   5.1133333177e+01    0.2359932     0.180627 -54.21 0.0006766584    1.166    0.142
        78 -11.1641     64.6707    102.2870   1.0497008795e+02   4.7902767843e+01    0.2170687    0.1790165  41.74 0.0005528127    1.351    0.260
        79 -12.0186     61.9811     98.4910   1.0498947478e+02   4.9175101443e+01    0.4930683    0.3722906  73.99  0.001717416    1.526    0.344
        80 -12.9368     52.4394     98.0449   1.0791877151e+02   5.0476160012e+01    0.8089464    0.5121372   6.47  0.003823562    2.550    0.608
        81 -12.1396     49.3274     94.3573   1.0816398644e+02   5.1727562480e+01    0.4000235    0.2973997  71.91  0.001408135    1.541    0.351
        82 -11.7938    249.5049     99.5452   6.2154868562e+01   9.8750976601e+00    0.2714869    0.1009381 -39.64  0.001041728    2.441    0.590
        83 -12.4897    137.3885     95.6001   8.2451402236e+01   3.6102519976e+01    0.4181145    0.3575642  79.08 0.0006410113    1.348    0.258
        84 -11.7735    125.3806     92.6852   8.4717584456e+01   3.9360268218e+01     0.363346    0.2788693 -87.05  0.001640188    1.747    0.427
        85 -11.7922     43.2757     91.5152   1.0956977837e+02   5.3077650134e+01     0.445824    0.2177504 -75.70  0.001313972    2.235    0.553
        86 -11.9856     89.8344     88.2169   9.3671701003e+01   4.7333978387e+01    0.4990368    0.3525575  48.89   0.00227302    1.555    0.357
        87 -11.8610    126.7062     86.4238   8.2513395453e+01   4.0396494494e+01    0.5134368    0.3859423 -40.07  0.001932616    1.288    0.224
        88 -12.6068    132.0257     85.8340   8.0940610648e+01   3.9333168209e+01    0.3983097    0.3831044 -36.97  0.001380491    1.010    0.010
        89 -12.8898    135.4907     80.1354   7.8293833525e+01   3.9695459068e+01    0.8367612    0.4847378  45.72  0.002781017    1.785    0.440
        90 -12.0573    149.5943     85.1859   7.6407189389e+01   3.5382503646e+01    0.5762785    0.3759864  29.21  0.002356971    1.954    0.488
        91 -11.4841     34.5893     86.5347   1.1149810644e+02   5.5138831431e+01    0.2427768    0.1873425 -49.49 0.0005976339    1.233    0.189
        92 -13.2838    188.4142     84.4178   6.8008591759e+01   2.6064687347e+01      0.81668    0.3545518  45.06  0.002325089    2.496    0.599
        93 -13.4882    237.3808     80.3097   5.9022843186e+01   1.5232577773e+01     0.641807    0.4324599  83.36  0.003029591    2.097    0.523
        94 -13.5609    164.2294     71.2917   6.8849343791e+01   3.4371370177e+01     1.582416    0.5831965  44.55  0.004988737    3.054    0.673
        95 -12.7544    160.0499     68.0599   6.8703721523e+01   3.5989168344e+01     0.772163    0.4013152 -47.22 0.0004982065    2.058    0.514
        96 -13.5873    161.1285     80.4322   7.2345780056e+01   3.3493238303e+01    0.8799492    0.6119379  27.15  0.002809043    1.794    0.443
        97 -14.6095    169.4280     77.3633   6.9649853530e+01   3.1996249296e+01     1.693066    0.6954384  52.68  0.005907224    2.453    0.592
        98 -11.8932     40.6149    243.7965   1.2586642928e+02   2.1014678129e+01    0.3030449    0.1817143  85.91  0.002254245    1.513    0.339
        99 -13.6680     65.9859     48.8509   8.9062235986e+01   5.9815463821e+01      1.36432    0.5834016 -35.78  0.005346972    2.467    0.595
       100 -13.1820     90.8480     57.1695   8.3356680106e+01   5.3836448163e+01    0.7859568    0.5348941 -55.81  0.003700669    1.659    0.397
       101 -13.4511     72.9401     75.1084   9.5385211444e+01   5.3103361659e+01     1.265004    0.7266316  12.60  0.004814283    3.312    0.698
       102 -13.1758     87.5882     65.2084   8.7278810840e+01   5.2803982344e+01    0.6128171      0.43566 -31.70  0.001586246    1.418    0.295
       103 -12.8758     54.9882     81.9008   1.0343305478e+02   5.4028357268e+01    0.6148613    0.3610394 -46.43  0.002211218    1.567    0.362
       104 -14.1981     61.0843     75.3132   9.9563232328e+01   5.4774931326e+01     1.457328     1.001617  89.91  0.001046844    2.123    0.529
       105 -13.2478    218.2683     74.6730   6.0260875814e+01   2.0437707509e+01    0.8133686    0.5300011 -78.26  0.003441342    2.317    0.568
       106 -12.8891    216.9421     81.2190   6.2242800220e+01   1.9739058344e+01    0.6757336    0.4471771 -46.22  0.001423145    1.508    0.337
       107 -12.7595    210.2696     77.5337   6.2282852724e+01   2.1896834491e+01    0.6817588    0.4357701 -63.68  0.002877997    2.104    0.525
       108 -10.6745     90.1917     81.2037   9.1538816207e+01   4.8858620363e+01    0.2909342    0.2053898 -65.60  0.001368692    1.596    0.373
       109 -11.1890     93.7850     79.1289   8.9785765417e+01   4.8668678334e+01     0.476462    0.1989151  48.02  0.001733181    2.750    0.636
       110 -12.1516    114.1743     80.1697   8.4030591143e+01   4.4412439495e+01    0.4167093    0.3412331 -50.91  0.001099765    1.196    0.164
       111 -10.5695     32.7308     81.0010   1.1102950662e+02   5.6630691258e+01    0.1898102    0.1393211 -66.34 0.0007929527    1.123    0.110
       112 -11.3913     42.3292     77.2134   1.0676078553e+02   5.6587291741e+01    0.2860775    0.2251378 -55.84  0.001598918    1.070    0.065
       113 -14.2379    198.5133     69.7848   6.1993988885e+01   2.5992625872e+01     1.073068    0.7816283  25.26  0.003051623    1.688    0.408
       114 -13.4475    133.3481     66.4573   7.4373648815e+01   4.2841727404e+01     1.045531    0.7943277  -2.73  0.004045761    1.653    0.395
       115 -11.7847    240.9555     70.9808   5.6151351383e+01   1.5789113453e+01     0.335115    0.2047419  84.60   0.00147961    2.416    0.586
       116 -10.9775    100.9202     69.9988   8.4651676985e+01   4.9261744994e+01    0.2300025    0.2153506 -52.83 0.0007984365    1.080    0.074
       117 -12.3669     38.9698     68.1534   1.0575888980e+02   5.9050000937e+01    0.7016206    0.3569658  27.13  0.003436293    2.357    0.576
       118 -11.4516    100.2686     64.7264   8.3055458999e+01   5.0475092679e+01    0.4355857    0.3259715 -34.89  0.001689289    1.278    0.218
       119 -14.9244     24.6699     94.6801   1.1623219645e+02   5.4048453572e+01     1.864182     1.289656  -9.21   0.01070479    2.104    0.525
       120 -13.9175    101.1422     49.4226   7.7150590798e+01   5.3234797831e+01    0.8863854     0.755095  79.76  0.004628604    1.508    0.337
       121 -14.3818     94.8962    236.8420   1.1615241463e+02   1.5374020955e+01    0.9875825    0.5424356  68.00  0.004747998    1.975    0.494
       122 -12.0043    147.1927    238.9404   1.0709606753e+02   7.4596256655e+00    0.1749595    0.1329479  55.37 0.0009896237    1.267    0.210
       123 -12.7278    135.4456     50.7083   6.8323435227e+01   4.5108483179e+01    0.6236255    0.3892255  32.01    0.0024144    1.939    0.484
       124 -11.8199     24.8767    217.1669   1.2717023857e+02   2.7282514099e+01      0.55608    0.3016218  51.26  0.003820479    1.425    0.298
       125 -13.6557     25.7656    227.5392   1.2752328381e+02   2.5347777889e+01    0.6044667    0.3303038 -69.70  0.003844971    1.990    0.497
       126 -13.2689     20.7178    225.2240   1.2826589403e+02   2.6268156250e+01    0.5738094    0.3046307  49.48  0.003923249    1.450    0.310
       127 -12.6463     57.2047    203.7566   1.2034059585e+02   2.6151365509e+01    0.4717525    0.2432086 -86.06   0.00266218    1.980    0.495
       128 -14.0830     62.7647    214.2642   1.2011895334e+02   2.3492533550e+01    0.9302198    0.4595008  51.11  0.005486083    1.609    0.378
       129 -14.0907    178.0013     57.7413   6.1887030299e+01   3.3104227718e+01     1.021027    0.7383972 -42.77    0.0026164    1.352    0.260
       130 -10.6909     39.0537     60.5128   1.0364609961e+02   6.0786991889e+01    0.2859951     0.190803  82.53    0.0013986    2.365    0.577
       131 -11.8968     24.3340     59.5236   1.0933633132e+02   6.2355754857e+01    0.4034219    0.2103057 -59.32   0.00169493    1.499    0.333
       132 -11.8416    248.0071     55.1739   5.1275843877e+01   1.6403840145e+01    0.3587052     0.308358 -37.90  0.001788576    1.010    0.010
       133 -12.6560    248.4623     49.5398   4.9799547311e+01   1.7043073280e+01    0.5093734    0.4114958  20.48  0.002871925    1.539    0.350
       134 -11.6749     23.9931     49.5246   1.0678584204e+02   6.4627449134e+01    0.4162649    0.2036375 -28.86   0.00144428    2.575    0.612
       135 -12.9693     94.5872    218.6778   1.1453024621e+02   1.8433632086e+01     0.346582    0.2146224  51.71  0.001413371    1.301    0.232
       136 -11.0836     85.4857    215.9847   1.1599034967e+02   2.0182750478e+01    0.2435355    0.1261359  53.41    0.0013829    1.609    0.378
       137 -11.4173    185.5938    213.7945   9.6816842803e+01   4.8886524697e+00    0.1497432    0.1177117 -52.21  0.000954352    1.707    0.414
       138 -13.1678    157.7775     43.5705   6.0966287575e+01   4.0524177716e+01    0.9143121    0.6254676  29.72  0.004031869    1.742    0.426
       139 -12.1649    170.1279     44.0693   5.8856520991e+01   3.7212778697e+01    0.4118542    0.3434069 -72.20  0.001982433    1.315    0.240
       140 -11.3993     55.6275     41.1029   9.0150821444e+01   6.2890728171e+01    0.2061749    0.1801138  -2.33 0.0003186149    1.174    0.148
       141 -11.6405    104.5585     36.7875   7.1029848933e+01   5.4634356577e+01    0.4400428    0.1739095 -28.35  0.001549293    2.695    0.629
       142 -11.4225    105.2329     31.4720   6.8588841563e+01   5.5293168980e+01    0.4439575    0.2907747 -46.21  0.002077219    1.710    0.415
       143 -12.5279     76.0349     37.4848   8.0660496970e+01   6.0278033706e+01    0.3365599    0.2639201  37.47 0.0008791992    1.364    0.267
       144 -11.8625     69.5786     36.4753   8.2637265685e+01   6.1585411538e+01    0.4207966     0.243786  31.57  0.001322242    1.943    0.485
       145 -13.2932    242.0941     35.0721   4.6744244794e+01   2.0305966955e+01    0.7226791    0.5639814  60.50  0.002719357    1.425    0.298
       146 -11.6121     58.6627     35.4003   8.6512083621e+01   6.3531888746e+01    0.5164437    0.2774425  30.27  0.002451974    2.147    0.534
       147 -13.1220      9.0386    210.8723   1.2964236600e+02   2.9980401994e+01    0.6293949    0.3989811  40.82  0.004669291    1.604    0.377
       148 -10.9035    157.3296    213.6708   1.0202578804e+02   9.5389711796e+00    0.1221868   0.08830159  65.53  0.000705146    1.712    0.416
       149 -11.1500    136.8316    211.3259   1.0561022796e+02   1.3244307278e+01    0.1917901    0.1645447 -87.70 0.0008168514    1.356    0.263
       150 -11.1235     45.4328    209.1677   1.2298150445e+02   2.6524770062e+01     0.274312    0.1386057 -89.90  0.001604955    1.921    0.479
       151 -11.8566     41.9811    206.4945   1.2344578889e+02   2.7423038618e+01    0.3051575    0.1288061  72.64  0.001533329    2.515    0.602
       152 -11.0406     80.5168    208.5068   1.1623615689e+02   2.2222663563e+01    0.2184394   0.07947917  48.19  0.001028951    2.248    0.555
       153 -12.2118     46.1236     33.9675   9.1287926701e+01   6.5557375816e+01    0.5016294    0.2842097 -34.16  0.002566074    1.607    0.378
       154 -10.9228     90.7721     34.0405   7.4084673597e+01   5.8017855194e+01    0.2628464    0.1774423  29.89  0.001276136    1.605    0.377
       155 -10.1291     89.4275     30.4255   7.2921713393e+01   5.8862384988e+01    0.1410205    0.1274614  -5.41 2.426359e-05    1.001    0.001
       156 -11.0445    150.3428    206.9028   1.0239976423e+02   1.1750339492e+01    0.2636747     0.160967  36.29  0.001458941    1.465    0.317
       157 -12.8373     56.5917     27.5224   8.3825413021e+01   6.5253622847e+01    0.5897084    0.3260611  45.34  0.001967803    2.186    0.543
       158 -12.6339     40.4720    195.1258   1.2294287385e+02   2.9799000087e+01    0.4430937    0.1609508 -88.91  0.001912385    3.365    0.703
       159 -13.9356     18.4320    161.4157   1.2508132528e+02   3.9073948974e+01     1.823925     1.052002  17.04   0.01028315    2.725    0.633
       160 -10.9551     97.9438     27.1512   6.8811064304e+01   5.7540946297e+01    0.2115383     0.199213 -68.32  0.001218287    1.287    0.223
       161 -14.7963      8.4745    183.4196   1.2848280711e+02   3.5335539825e+01     1.053661    0.7951129  77.11  0.008056395    1.070    0.065
       162 -14.2122     15.8416    175.6556   1.2657750189e+02   3.6272735437e+01     1.259119    0.3843815  50.39  0.006165366    2.646    0.622
       163 -11.4997     45.3257    198.1555   1.2221532805e+02   2.8651615821e+01    0.2775339    0.1236528 -83.82   0.00146065    2.236    0.553
       164 -11.7149    164.2038    195.5701   9.7990708295e+01   1.1221374013e+01    0.3207228    0.2053049 -82.01  0.001331865    3.740    0.733
       165 -13.3569     66.8027    223.2858   1.2007423903e+02   2.1367258700e+01    0.7176085      0.46489  38.72  0.004782411    1.536    0.349
       166 -12.2995    201.0881    191.8542   9.0367569314e+01   5.3635465702e+00    0.3250617    0.2592502  16.92  0.001896929    1.137    0.121
       167 -11.6403     49.1179    181.5240   1.2009526943e+02   3.1577103646e+01    0.3201732    0.2195396 -58.81   0.00200251    1.681    0.405
       168 -12.2672    198.4569    181.6139   8.8994450072e+01   7.3282073166e+00    0.2674398    0.2447618  33.49  0.001330785    1.164    0.141
       169 -12.1444    124.5980    167.8028   1.0169768760e+02   2.3294636186e+01     0.518218    0.2663551 -51.89  0.002365541    2.063    0.515
       170 -11.9928    121.6835    164.3386   1.0176789511e+02   2.4515099201e+01    0.2233198    0.1967106 -88.06 0.0008280214    1.157    0.136
       171 -11.9568     77.3350    156.9672   1.1097062620e+02   3.3245671678e+01    0.4359809    0.2679724  41.31  0.001460189    1.619    0.382
       172 -12.8187     74.0226    153.3223   1.1125706465e+02   3.4535723849e+01    0.6059977    0.4277756  31.96  0.002709223    1.648    0.393
       173 -12.6469     17.0443    195.2518   1.2745857447e+02   3.2196125062e+01    0.7464355    0.2534255 -73.79  0.003918471    2.553    0.608
       174 -11.3935     85.9166    152.6857   1.0827384381e+02   3.2941906602e+01    0.3746418    0.1855989 -58.23   0.00171888    1.955    0.488
       175 -11.5998    103.1969    150.2399   1.0367564521e+02   3.0723168895e+01    0.3726291    0.2577547 -39.25  0.001853754    1.798    0.444
       176 -13.4086     29.9651    169.4009   1.2316790068e+02   3.6243788748e+01    0.6370488    0.4032116 -50.78  0.002723477    2.074    0.518
       177 -10.6682     60.2745    149.3675   1.1408167443e+02   3.7276853164e+01    0.1267372   0.09272814 -46.36 0.0007004633    1.674    0.403
       178 -11.4767      6.4401    147.5415   1.2680582456e+02   4.3123025520e+01    0.3296022    0.1983548  75.64  0.002086594    1.365    0.267
