#   1 NUMBER                 Running object number                                     
#   2 MAG_AUTO               Kron-like elliptical aperture magnitude                    [mag]
#   3 X_IMAGE                Object position along x                                    [pixel]
#   4 Y_IMAGE                Object position along y                                    [pixel]
#   5 X_WORLD                Barycenter position along world x axis                     [deg]
#   6 Y_WORLD                Barycenter position along world y axis                     [deg]
#   7 A_WORLD                Profile RMS along major axis (world units)                 [deg]
#   8 B_WORLD                Profile RMS along minor axis (world units)                 [deg]
#   9 THETA_WORLD            Position angle (CCW/world-x)                               [deg]
#  10 FWHM_WORLD             FWHM assuming a gaussian core                              [deg]
#  11 ELONGATION             A_IMAGE/B_IMAGE                                           
#  12 ELLIPTICITY            1 - B_IMAGE/A_IMAGE                                       
         1 -14.4439    165.1992     50.3907   7.5189734196e+01   3.7700810676e+01     1.907795     1.282894  22.59   0.00708572    2.245    0.555
         2 -14.1573    179.1252     34.5185   6.8608325964e+01   3.6441302426e+01    0.8812785    0.8131754 -75.06  0.003255002    1.100    0.091
         3 -13.5021    183.3970     27.8336   6.6275860324e+01   3.6226247236e+01    0.5341324    0.4641119  85.57  0.001181803    1.012    0.012
         4 -12.8319    189.7274     14.9046   6.2261347154e+01   3.6172496552e+01    0.3276037    0.2342724  85.44  0.001177812    1.231    0.188
         5 -13.9161    199.1472      3.8863   5.8656725895e+01   3.5099468701e+01    0.8739865    0.4568185  71.53  0.004311606    1.601    0.375
         6 -11.7978     58.2317      2.7373   8.4934366056e+01   6.5547058062e+01    0.2047855     0.127877  44.53  0.001304073    1.504    0.335
         7 -12.6223    121.8761    199.3184   1.2096562420e+02   1.6101325426e+01     0.560261    0.3944452 -13.85  0.001922029    2.653    0.623
         8 -18.4674     59.0858    247.4842   1.3982103748e+02   1.5878893332e+01     7.023677     4.703436  38.89   0.04362703    1.645    0.392
         9 -12.7814    193.6613    193.0850   1.0411921690e+02   3.6530408755e+00    0.8642263    0.4999219 -53.29  0.003226954    2.026    0.506
        10 -10.7133    163.9241    204.8937   1.1263531964e+02   7.0221672761e+00    0.2342652    0.2228255  45.35 0.0004007451    1.019    0.019
        11 -10.5637    209.6905    199.0455   1.0205841064e+02  -4.4139150664e-01    0.1961684    0.1684884 -33.24 0.0006201589    1.168    0.144
        12 -11.0471    154.8715    197.0944   1.1319026732e+02   1.0361137368e+01     0.231983     0.195165  71.00  0.001221808    1.297    0.229
        13 -13.0610    112.3547    196.7253   1.2270382671e+02   1.8390781654e+01    0.6046806    0.4575239  15.15  0.002961532    1.903    0.475
        14  -9.7796    180.1965    192.4039   1.0680309310e+02   6.3885181058e+00    0.2009563    0.1330198  52.78  0.000384674    1.620    0.383
        15 -10.7638    167.8298    190.0790   1.0901663306e+02   9.2927984254e+00    0.3036566    0.2469816 -23.70  0.001099622    1.415    0.293
        16  -9.6930     73.1874    183.8114   1.2979732391e+02   2.7799715258e+01    0.1766855    0.1552273 -50.03 0.0004544062    1.335    0.251
        17 -19.2515     36.4731    100.3791   1.2526845776e+02   5.2221731411e+01     18.79869     2.043958 -60.29   0.03867854    9.886    0.899
        18 -12.2095    206.7963    180.0571   9.8821767198e+01   3.6323474972e+00     0.739989     0.404066  28.75  0.003021588    2.306    0.566
        19 -12.6151     98.4644    180.9482   1.2336794061e+02   2.4470027875e+01     0.449489    0.3034558  36.61  0.001653715    1.592    0.372
        20 -12.0953    196.0347    171.3741   9.9180958942e+01   7.4660752272e+00    0.6988861    0.3780377 -48.92  0.002379536    1.920    0.479
        21 -10.7659    193.8171    164.9775   9.8265820130e+01   9.2167874848e+00    0.3560977    0.2615243 -47.68  0.001148471    1.361    0.265
        22 -11.6286     73.5409    175.0116   1.2841714796e+02   2.9855962866e+01    0.2626884    0.1908367 -73.55  0.001192537    1.266    0.210
        23 -13.1793    106.9898    210.1153   1.2594191361e+02   1.6340709648e+01    0.6669188    0.5518696  37.58  0.003794564    1.305    0.234
        24 -12.3363    137.5574    170.9993   1.1215167721e+02   1.9543573869e+01    0.3557015    0.3127965  56.74 0.0008037219    1.116    0.104
        25 -10.3714    223.8257    164.0983   9.2179708875e+01   3.3843827981e+00     0.215617    0.1870361 -60.33 0.0005546635    1.293    0.227
        26 -10.0832    120.0103    163.6572   1.1493948415e+02   2.4699795208e+01    0.2124109    0.1852174  54.61 0.0004364427    1.138    0.121
        27 -10.3754    115.2393    162.0622   1.1580856710e+02   2.5984497800e+01    0.2123888    0.1897722 -72.10 0.0003641222    1.080    0.074
        28 -10.3131     13.4669    160.5911   1.4086260206e+02   4.0272717486e+01    0.2381919    0.1277662  78.26 0.0009873023    2.003    0.501
        29  -9.8007      8.4823    160.6125   1.4201156050e+02   4.0681571067e+01    0.1195984   0.09401859 -81.01 0.0001932775    1.035    0.034
        30 -13.3680    106.9045    202.9148   1.2489698510e+02   1.7948456402e+01    0.8728625    0.4744916  34.21  0.003849843    2.048    0.512
        31 -11.4536    119.8395    156.3615   1.1349487618e+02   2.6471204459e+01    0.3372918    0.2761017 -75.59  0.001673436    1.274    0.215
        32  -9.8979      3.2752    155.6195   1.4270602621e+02   4.2234887795e+01     0.124115    0.1125929 -31.32 0.0002937826    1.482    0.325
        33 -12.3245    134.3937    148.2080   1.0808724944e+02   2.5490660401e+01    0.7771235    0.2850043 -55.88  0.002368196    3.225    0.690
        34 -10.5949      9.9258    153.1295   1.4089097759e+02   4.2297400960e+01    0.1985693    0.1814859 -24.24  0.001190556    1.471    0.320
        35 -10.6359    174.8745    149.1051   9.8777136222e+01   1.6598847130e+01    0.2430856    0.2143316 -84.18 0.0005397882    1.255    0.203
        36 -12.1974    145.2231    146.1073   1.0495345636e+02   2.3704919700e+01    0.4057072    0.3456722  82.90 0.0007053614    1.303    0.233
        37 -11.0710      6.4374    145.5459   1.4089436779e+02   4.4320217443e+01     0.324477    0.1972592 -38.61   0.00107476    2.048    0.512
        38 -13.1997      4.6909    131.2430   1.3965228171e+02   4.7736061282e+01     1.331155    0.4768057 -75.05   0.00591431    2.440    0.590
        39 -12.4861    100.8616    139.5689   1.1486259714e+02   3.4045073473e+01    0.2971869    0.2880361 -45.35 0.0004831684    1.093    0.085
        40 -11.1066     10.4430    213.7465   1.4607779169e+02   2.8635135122e+01    0.1165479   0.09772329  35.69  0.000810448    1.635    0.388
        41 -11.7332    106.0895    130.7237   1.1145887791e+02   3.5203881536e+01    0.4054848    0.3330469 -64.83  0.001288974    1.216    0.178
        42 -11.2923    105.9025    126.0657   1.1041354515e+02   3.6335116065e+01    0.3280101    0.2409074 -37.34 0.0008158409    1.445    0.308
        43 -12.1393    117.9230    129.8105   1.0806160538e+02   3.3142067469e+01    0.3955862    0.3754478   2.58  0.001106429    1.169    0.144
        44 -12.1455    135.4742    121.7975   1.0152207096e+02   3.1333663080e+01     0.733767    0.2134928 -46.70  0.002130367    3.387    0.705
        45 -11.3867    125.7005    127.5984   1.0548023009e+02   3.2080459100e+01    0.4026256     0.258976  79.66  0.001469241    2.716    0.632
        46 -10.4135     84.7758    126.3564   1.1639660401e+02   3.9948447787e+01     0.190193    0.1412476  24.64 0.0003728674    1.590    0.371
        47 -10.6948    112.1723    119.0157   1.0696829828e+02   3.6768827229e+01    0.2456924    0.2211355  46.40 0.0002631778    1.148    0.129
        48 -12.8188    110.9807    139.9508   1.1224682422e+02   3.2091685242e+01    0.7222965     0.458401 -25.78  0.002829809    2.438    0.590
        49 -11.1178    168.4625    113.2182   9.1493491211e+01   2.5720189561e+01    0.4039771    0.2845999 -73.53   0.00105413    1.860    0.462
        50 -11.6808      2.3647    112.8411   1.3783997088e+02   5.2056619247e+01    0.2948485    0.2060655 -28.29  0.001914549    1.677    0.404
        51 -10.8972    205.1646    110.6488   8.3488856522e+01   1.7700289294e+01    0.3658195    0.2903621  22.49  0.001164136    1.669    0.401
        52 -11.2556    159.1324    205.9916   1.1386397976e+02   7.7107324104e+00    0.3687194    0.2515972  62.94  0.001741624    1.755    0.430
        53 -12.6435     98.8666    188.7162   1.2453464908e+02   2.2571541471e+01    0.6015728    0.2967559 -49.84  0.002525806    2.170    0.539
        54 -10.1256     81.6077    106.2627   1.1253927717e+02   4.5108814517e+01    0.2021763    0.1247053 -43.03  0.000513877    1.540    0.351
        55 -10.7614    153.3603    103.4174   9.2352988916e+01   3.1259489642e+01    0.3280565    0.2420898  83.11 0.0009275768    1.771    0.435
        56  -9.3006     85.6112     98.2800   1.0924305688e+02   4.6214971018e+01     0.143188    0.1128111  76.00 0.0007001531    1.738    0.425
        57 -11.0515    160.7853    127.4194   9.6798858826e+01   2.4467111788e+01    0.3225671    0.2512213 -75.61  0.001094457    1.532    0.347
        58  -9.6262    150.2811     79.6506   8.6508858121e+01   3.6564998072e+01     0.154114     0.116195 -73.49  0.000565471    1.647    0.393
        59 -10.5777     83.2632     76.7810   1.0381713719e+02   5.1003229304e+01    0.1935349    0.1820486 -39.29  0.000632489    1.128    0.114
        60  -9.1245    168.2908    248.2909   1.1883951329e+02  -1.6952110293e+00    0.1230316   0.09392813  11.36 0.0001823988    1.546    0.353
        61 -10.3565    169.2870    237.0289   1.1692443996e+02   3.3478110529e-02    0.1720784    0.1650568  32.64 0.0003897392    1.100    0.091
        62 -13.5989     11.8039    206.1725   1.4527597033e+02   3.0126147419e+01    0.5231047    0.2563317  34.77  0.002959824    2.326    0.570
        63 -10.2258     13.5304     59.9334   1.2365905177e+02   6.2484169523e+01    0.1627592    0.1313446 -33.54 0.0004169149    1.058    0.055
        64 -10.0916    112.9346     21.7216   7.7048109288e+01   5.3370558619e+01    0.1804216    0.1442669  52.93 0.0002892803    1.134    0.118
        65 -13.0742    116.3290    211.5028   1.2410715126e+02   1.4425626351e+01    0.6310821    0.4731076 -86.07  0.002714285    1.459    0.315
        66 -14.0209    106.1647    192.0058   1.2336592436e+02   2.0555602714e+01     1.470556    0.8699625 -29.34   0.00546295    3.428    0.708
