#   1 NUMBER                 Running object number                                     
#   2 MAG_AUTO               Kron-like elliptical aperture magnitude                    [mag]
#   3 X_IMAGE                Object position along x                                    [pixel]
#   4 Y_IMAGE                Object position along y                                    [pixel]
#   5 X_WORLD                Barycenter position along world x axis                     [deg]
#   6 Y_WORLD                Barycenter position along world y axis                     [deg]
#   7 A_WORLD                Profile RMS along major axis (world units)                 [deg]
#   8 B_WORLD                Profile RMS along minor axis (world units)                 [deg]
#   9 THETA_WORLD            Position angle (CCW/world-x)                               [deg]
#  10 FWHM_WORLD             FWHM assuming a gaussian core                              [deg]
#  11 ELONGATION             A_IMAGE/B_IMAGE                                           
#  12 ELLIPTICITY            1 - B_IMAGE/A_IMAGE                                       
         1 -14.5612     43.1530    117.2528   1.2315799212e+02   4.7840304154e+01     1.989576     1.600064   9.61  0.008267662    1.453    0.312
         2 -12.8398    180.4470     44.4617   6.7414025396e+01   3.4938133098e+01     1.320346     0.684701 -59.79  0.005790086    2.337    0.572
         3 -13.3994    205.5330     15.5031   5.7573693007e+01   3.2717312772e+01     1.063964    0.7913113  29.63  0.006260958    2.216    0.549
         4 -13.5660    193.3029     30.5426   6.2298448521e+01   3.3734283849e+01     1.057494    0.7033418  65.76  0.005085745    1.356    0.263
         5 -11.8432    189.0899     14.7253   5.9171947557e+01   3.6519789156e+01    0.3353345    0.2298607  64.75  0.001801569    1.319    0.242
         6 -10.5810     48.2212      9.3990   8.7720988511e+01   6.6360047992e+01    0.1521948   0.09671913  45.40 0.0009559567    1.702    0.412
         7  -9.9169     66.1602    233.0814   1.3396983992e+02   1.7038952083e+01     0.180351    0.1708794 -87.04 0.0006299742    1.278    0.217
         8 -13.6133    139.5810    248.2238   1.2048100733e+02   2.3873769056e+00     0.959678    0.8353096  44.58  0.006012941    1.008    0.008
         9 -10.8473     97.2973    249.0286   1.2932237564e+02   9.0727719947e+00    0.5840433     0.185658  52.86  0.002022601    3.658    0.727
        10 -14.4823     54.8084    206.7992   1.3356228250e+02   2.4536843204e+01     3.561485     2.188838 -73.71   0.01882601    1.493    0.330
        11 -14.6870     12.1071    206.8944   1.4266145282e+02   2.9401086811e+01     1.327575     1.027167  82.91  0.006025679    1.026    0.025
        12 -16.4274      9.2181    242.2711   1.4561738780e+02   2.2059757913e+01      3.11523     2.144156  63.02   0.02186357    1.179    0.152
        13 -13.8121     36.9785    244.3704   1.4072542695e+02   1.8481591130e+01    0.5928702    0.4096981  76.63 0.0007035243    1.172    0.147
        14 -11.9865    126.2965    229.8514   1.2068942542e+02   8.2359138019e+00    0.4461095    0.3146202  57.63  0.002334898    1.418    0.295
        15 -12.4761    112.8950    228.9213   1.2348711065e+02   1.0696351917e+01    0.9730083    0.3517764  46.12  0.003718553    2.537    0.606
        16 -11.7295    121.7049    249.0320   1.2430356670e+02   5.1769960810e+00    0.5312149    0.2303869  39.17  0.001900117    2.017    0.504
        17  -9.5820     82.4864    230.0211   1.3020778346e+02   1.5315980600e+01    0.2030265    0.1641899  55.08 0.0005283699    1.112    0.101
        18 -11.4751     95.3751    225.7857   1.2690097674e+02   1.4236825985e+01    0.4249112    0.2181176  55.43  0.001592618    1.982    0.495
        19 -15.2828      2.9929    104.4230   1.3353344713e+02   5.4061236637e+01     13.19463          nan -61.63   0.02934096    9.239    0.892
        20 -14.8848      2.0081     35.2366   1.1801179272e+02   6.7805831764e+01     12.91335    0.1749227 -53.55   0.02233824   22.129    0.955
        21 -11.5316     32.3859    206.5496   1.3842233032e+02   2.7344414122e+01    0.6877209    0.2606056  59.08   0.00278522    3.036    0.671
        22 -10.6657     87.8460    202.2008   1.2539577268e+02   2.0823633933e+01    0.4941501    0.2863485  42.77  0.001841851    1.658    0.397
        23 -11.2130     80.1627    198.9354   1.2674270935e+02   2.2797510360e+01    0.5668561    0.4540102  35.20  0.002806626    1.373    0.272
        24 -10.7553    199.3070    199.0447   9.9501965992e+01   1.4209591218e+00    0.2799907    0.2355559   7.19  0.001550508    1.220    0.180
        25 -13.9775    100.2237    183.4689   1.1945724814e+02   2.3305629139e+01     1.735657     1.601272  32.51  0.007184172    1.202    0.168
        26 -14.6775     29.0011    223.7595   1.4062717620e+02   2.3839290652e+01     2.065715    0.9110277  73.15  0.008978421    2.562    0.610
        27  -9.6370    208.5059    186.9840   9.5255125777e+01   2.1137818762e+00    0.2056159    0.1165594 -22.13 0.0008098642    2.487    0.598
        28 -10.9917     73.0772    183.6749   1.2625468425e+02   2.7576358626e+01      0.43387    0.2749627 -40.09   0.00122065    2.029    0.507
        29 -10.9805     77.3630    177.8937   1.2429437730e+02   2.8370758918e+01    0.3142925    0.2493152 -50.32  0.000664094    1.328    0.247
        30 -11.1910     85.0657    167.6087   1.2058922600e+02   2.9745271155e+01    0.3735168    0.3161589 -72.86 0.0005236756    1.111    0.100
        31 -11.6378     76.5079    135.6196   1.1682740928e+02   3.9066131884e+01    0.9567191     0.783364  73.58   0.00500359    1.396    0.284
        32 -13.0710     73.2391    163.7533   1.2304697196e+02   3.2524470740e+01     0.793179    0.6683892 -32.51  0.001310484    1.409    0.290
        33 -12.7247     47.8495    158.8331   1.2901320557e+02   3.7129949682e+01      1.26631    0.9661534 -17.50   0.00679272    1.818    0.450
        34 -11.1909     74.7367    153.7843   1.2088326424e+02   3.4808334782e+01    0.5270802    0.4493105   1.11  0.001903583    1.478    0.323
        35 -11.3200     47.2314    174.5304   1.3139130052e+02   3.3302707310e+01    0.7138978    0.3665679 -57.12  0.002765871    1.782    0.439
        36 -11.7288     42.7463    167.9272   1.3163342181e+02   3.5463987187e+01    0.5808324    0.4590284 -69.53  0.002183517    1.109    0.098
        37 -13.6925     67.7917    144.8631   1.2116737640e+02   3.8046531076e+01     2.123986     1.192062 -77.11  0.006989295    2.231    0.552
        38 -12.8234     51.1449    146.2336   1.2610986823e+02   3.9876043512e+01     1.394944     1.006191  14.31  0.007320624    1.783    0.439
        39  -9.7484     72.3749    175.8512   1.2524070668e+02   2.9620864596e+01    0.2491659    0.1859862  53.82 0.0008065399    1.352    0.261
        40 -10.1258     61.4509    170.1807   1.2716718395e+02   3.2571806690e+01    0.3497922    0.2484489 -67.57  0.001828598    1.270    0.212
        41  -9.8023     27.9749    169.0020   1.3546237326e+02   3.6782619599e+01    0.3166451    0.2243254  84.40 0.0003396805    1.330    0.248
        42 -11.1391     33.3268    164.8049   1.3361025007e+02   3.7264654155e+01    0.5611991    0.2922838 -55.70  0.001936867    1.745    0.427
        43 -11.0079     26.0402    163.1788   1.3524337879e+02   3.8393146090e+01    0.4879628    0.2736755 -80.80  0.001938747    1.638    0.390
        44 -12.1483     30.5744    159.1254   1.3357836848e+02   3.8940981741e+01    0.8771873    0.5289605 -67.69  0.004668108    1.384    0.278
        45 -11.1291     91.4146    160.1804   1.1754729906e+02   3.0572645024e+01    0.5786817    0.3492268 -33.48   0.00179259    2.302    0.566
        46  -9.1601     21.4698    158.9949   1.3588812670e+02   3.9838921674e+01    0.2022205    0.1067771 -70.90 0.0009252178    1.558    0.358
        47 -11.3206     92.2613    144.0268   1.1408958299e+02   3.4458024677e+01    0.3038884    0.2649618 -27.69 0.0004387544    1.285    0.222
        48 -13.5798    125.7167    116.1731   9.8244332756e+01   3.4703320637e+01     2.017569     1.505938 -12.28  0.008898778    1.851    0.460
        49 -12.7276    102.7082    146.3506   1.1168776736e+02   3.2056935116e+01     1.915264     1.109766  29.29  0.007807674    2.060    0.515
        50 -12.8453    115.9923    133.1869   1.0507778558e+02   3.2748877825e+01     2.197794    0.9976997  30.65  0.007261015    3.023    0.669
        51 -12.9428    110.7155    121.2831   1.0365076474e+02   3.6573522179e+01     1.029979    0.9305698 -34.36  0.003140789    1.124    0.111
        52  -9.3363     34.5928    147.1646   1.3084515141e+02   4.1478883776e+01    0.3381678    0.2127169  88.33   0.00169215    1.777    0.437
        53 -10.5649     36.8526    140.9848   1.2927044338e+02   4.2766886204e+01     0.380216    0.3197251  59.43  0.001647472    1.309    0.236
        54 -12.4708     21.0920    129.7556   1.3202519494e+02   4.6941765543e+01     1.056764    0.6416961 -52.43  0.005273143    1.416    0.294
        55 -10.8644    114.5754    250.0447   1.2590414304e+02   6.1370158745e+00    0.4012713    0.1786799  33.35  0.001725481    2.347    0.574
        56 -10.9844     88.3768    112.8017   1.0804638503e+02   4.2605189937e+01    0.8931491    0.3852629 -43.00  0.003337491    2.336    0.572
        57 -10.8543    100.8772    110.5847   1.0375472146e+02   4.0883683418e+01    0.6722711     0.456422 -73.27  0.002873917    2.076    0.518
        58  -9.7182    167.7111    112.4459   8.7080349983e+01   2.6190748646e+01     0.320566    0.2365592 -79.67 0.0008636012    1.722    0.419
        59 -12.9566    133.3921     79.9383   8.6375404971e+01   4.0402378362e+01     1.055185    0.6428356 -33.74   0.00470428    1.794    0.442
        60 -11.2076    102.5987    129.0853   1.0783579266e+02   3.6272852031e+01    0.8275698    0.4607148  43.24  0.001911068    1.860    0.462
        61 -12.4709     72.4674    114.0844   1.1325219184e+02   4.4839870448e+01     1.265812     0.639154  25.39  0.005170818    2.444    0.591
        62 -10.7837     78.1198    108.1326   1.1003245659e+02   4.5345587161e+01    0.4487407    0.3564722  -5.89  0.002023368    1.477    0.323
        63 -12.5860    118.0256     74.9120   8.8860499572e+01   4.4666086098e+01    0.5959828    0.4517121 -31.35   0.00306284    1.391    0.281
        64 -11.1740     83.0543    244.2535   1.3169129015e+02   1.2215344587e+01    0.3216976    0.1900095  82.54   0.00160651    2.010    0.502
        65 -10.7048     87.5739    240.7808   1.3037958306e+02   1.2250685905e+01    0.2718858    0.1937796  77.52 0.0007304272    1.402    0.287
        66 -12.5895    185.6002     36.2136   6.4650847928e+01   3.4813583561e+01     0.561237    0.4000663 -83.68  0.001710754    1.385    0.278
        67 -11.5439    193.4223    237.6212   1.0770008667e+02  -4.6200687242e+00    0.3944651    0.2344321 -53.59   0.00195117    2.177    0.541
        68 -12.2297     30.7839     34.9556   1.0509004543e+02   6.5416614752e+01    0.4682552    0.3158633 -17.64  0.003061729    1.277    0.217
        69 -12.3575     31.7009     28.6424   1.0231245992e+02   6.6227632089e+01    0.5535388    0.2788135  18.69  0.003063966    2.042    0.510
        70 -10.0287    246.3249     18.6657   5.4538863533e+01   2.3642831063e+01    0.1283861   0.06706087 -68.61 0.0007051135    1.713    0.416
        71  -8.9813    101.4812    233.4880   1.2656867484e+02   1.1600326625e+01    0.1377368     0.116721  63.85 7.126742e-05    1.040    0.039
