#   1 NUMBER                 Running object number                                     
#   2 MAG_AUTO               Kron-like elliptical aperture magnitude                    [mag]
#   3 X_IMAGE                Object position along x                                    [pixel]
#   4 Y_IMAGE                Object position along y                                    [pixel]
#   5 X_WORLD                Barycenter position along world x axis                     [deg]
#   6 Y_WORLD                Barycenter position along world y axis                     [deg]
#   7 A_WORLD                Profile RMS along major axis (world units)                 [deg]
#   8 B_WORLD                Profile RMS along minor axis (world units)                 [deg]
#   9 THETA_WORLD            Position angle (CCW/world-x)                               [deg]
#  10 FWHM_WORLD             FWHM assuming a gaussian core                              [deg]
#  11 ELONGATION             A_IMAGE/B_IMAGE                                           
#  12 ELLIPTICITY            1 - B_IMAGE/A_IMAGE                                       
         1 -14.8909    199.4075     21.7133   4.0694413115e+01   3.1828418769e+01     16.55503     3.599432 -36.41    0.0568094    3.260    0.693
         2 -14.2227    246.0228     55.9319   4.4986673976e+01   1.7601118472e+01     3.034662     0.832412  51.60  0.009644163    4.326    0.769
         3 -11.3643    236.8790      5.3480   3.3790837612e+01   2.5027344641e+01    0.8649791    0.4430048 -15.42   0.00402713    2.333    0.571
         4 -12.3729    248.0504     15.6076   3.5536760015e+01   2.1716349131e+01     1.304729    0.5444316 -35.93  0.006641249    1.825    0.452
         5 -13.2655    249.9613     34.4918   3.9722033447e+01   1.9325698684e+01     1.410339    0.6147535 -25.22  0.003765634    2.134    0.531
         6 -14.2708    231.0433     40.6333   4.2720011341e+01   2.2474083629e+01     6.303482     1.091476 -34.25   0.02122102    3.616    0.723
         7 -12.0197    160.7868     31.1649   4.8170065584e+01   4.0494289383e+01    0.8010407    0.5989774 -13.70  0.001412359    1.539    0.350
         8 -11.1368    176.6873     21.6980   4.3052375644e+01   3.7490213972e+01    0.5165472    0.4228112  29.93  0.002158876    1.475    0.322
         9 -10.5026    156.4223     11.5055   4.2154749105e+01   4.3870915798e+01    0.5401127    0.3220376  -9.17  0.001758612    2.093    0.522
        10  -9.1448    226.5995      8.7226   3.5198187802e+01   2.6907550415e+01    0.2459874    0.1862074 -70.98 0.0006269975    1.215    0.177
        11 -11.2232     56.4658    145.1812   1.0674636108e+02   3.8862240712e+01    0.7193149    0.4765819 -84.18  0.002301513    1.543    0.352
        12  -9.3706    232.5135    151.2255   6.7628812702e+01   7.4282806460e+00    0.2173238    0.1819805   0.38 0.0004203547    1.041    0.040
        13  -9.2934    234.9786    147.4866   6.6510734407e+01   7.5341261779e+00    0.1960158    0.1469442 -21.39  0.001083565    1.163    0.140
        14  -8.5370    133.1602    148.5997   8.6614377285e+01   2.5665130855e+01    0.3462429    0.2140914 -56.00  0.001605188    1.853    0.460
        15 -10.6524    249.3128    145.0341   6.3934098441e+01   5.6392007637e+00     0.427796    0.2940227 -32.42  0.002716551    1.369    0.269
        16 -11.3082     68.0678    143.8318   1.0319966247e+02   3.7626523285e+01    0.7220291    0.6302068  78.63  0.004237595    1.080    0.074
        17  -8.1807    131.9808    141.2743   8.5435589462e+01   2.7373285885e+01    0.2599508    0.2068942 -84.69  0.001305593    1.634    0.388
        18 -10.5664    237.3046    138.6638   6.4384937573e+01   8.3318805425e+00    0.3336876    0.2150144  31.87   0.00131022    1.619    0.382
        19 -10.4835    243.9404    135.0004   6.2681567238e+01   7.7496364220e+00     0.645813    0.1772972  48.69  0.002489059    4.191    0.761
        20  -9.7199    240.1485    144.2871   6.5101468385e+01   7.1402272156e+00    0.2093058    0.1489213  43.79  0.000951814    1.611    0.379
        21  -9.3577    224.6670    131.3209   6.4765368439e+01   1.1458970910e+01    0.2326579    0.2045787  -5.63 0.0007177758    1.035    0.033
        22  -9.3492    221.5228    129.4901   6.4864699302e+01   1.2272159525e+01    0.2254074    0.1963032 -28.28 0.0007651395    1.146    0.127
        23  -8.1323    241.2978    247.9531   8.2278163703e+01  -4.5728189967e+00    0.1353561   0.09555266   1.09 0.0007270672    1.148    0.129
        24  -8.0674    210.5223    219.4883   8.3140219853e+01   2.0362596083e+00    0.1715332    0.1024312 -44.28  0.001028407    2.433    0.589
        25  -7.5066    140.7021    123.2974   7.9362657019e+01   2.9307901402e+01    0.1454707    0.1184826  85.49 0.0005357302    1.572    0.364
        26  -7.7868    157.4383    120.9026   7.4918315187e+01   2.6290517524e+01    0.2031648    0.1265508 -64.01  0.000805311    2.457    0.593
        27  -7.7479    182.3001    120.6389   6.9707638573e+01   2.1173969198e+01    0.1418605    0.1123414 -70.06 0.0007035667    1.718    0.418
        28  -8.2630    186.2444    117.9962   6.8335103899e+01   2.0814676672e+01    0.1903317     0.115356 -35.54 0.0008847748    1.598    0.374
        29  -7.6801    172.2999    118.6515   7.1220083694e+01   2.3588609031e+01    0.1442493    0.1153322 -74.25  0.000634883    1.687    0.407
        30  -9.8089    230.4086    213.1129   7.8891362022e+01   1.7878378802e-01     0.190081    0.1426678  16.41 0.0001558623    1.122    0.109
        31  -9.0561    194.7011    115.3253   6.6159066520e+01   1.9533143491e+01    0.2354002    0.2135032 -58.14 0.0007130927    1.265    0.210
        32  -7.7332    157.9514    114.4508   7.3242786302e+01   2.7401632658e+01    0.2046161    0.1320755  72.46 0.0008077527    2.469    0.595
        33  -8.8858    125.9381    114.5374   8.0990583076e+01   3.4183444682e+01    0.2337845    0.1461652  43.19  0.000685607    1.565    0.361
        34  -7.9029    176.5016    113.4930   6.9132576304e+01   2.3614910698e+01    0.1421782    0.1381793 -19.38 0.0008102516    1.044    0.042
        35  -8.0436    168.4370    113.2393   7.0702424581e+01   2.5376977843e+01     0.211241    0.1352774 -48.71 0.0009548829    1.678    0.404
        36  -9.4165    217.5034    110.4556   6.1257821928e+01   1.5785136583e+01     0.286867    0.2259669  35.21  0.001590281    1.349    0.259
        37  -9.5176    184.4845    110.7208   6.6920695924e+01   2.2405227812e+01    0.3466468    0.2603685 -82.61  0.001647525    2.028    0.507
        38 -10.4520    134.3132    108.8140   7.7404583812e+01   3.3613749237e+01    0.6023741    0.3184603 -42.83  0.002179804    1.930    0.482
        39  -8.8047    115.9885    110.9849   8.2803856337e+01   3.6997075628e+01    0.2982219    0.2059976 -79.28  0.001250145    2.095    0.523
        40 -11.0725    190.2841    108.2797   6.5260974119e+01   2.1593411925e+01    0.7017341    0.4191873 -62.67  0.002799853    2.826    0.646
        41 -10.7696    195.6587    104.6564   6.3430503535e+01   2.1056582873e+01    0.5576638    0.2663417 -47.86  0.002243013    2.394    0.582
        42 -10.5521    185.8853     98.6853   6.3664647623e+01   2.4119289762e+01    0.5756179    0.3212639 -49.87  0.002464092    2.023    0.506
        43  -7.5223    151.4686    110.4622   7.3703381573e+01   2.9564536365e+01    0.1473367    0.1451205  19.71 0.0001435956    1.005    0.005
        44  -8.4236    127.7917    109.5999   7.9278301284e+01   3.4842421234e+01    0.2257479    0.1406526  55.60 0.0009524645    1.746    0.427
        45  -9.6259    148.0480    104.5722   7.2979314095e+01   3.1458518029e+01    0.4849444    0.3080184  31.79  0.001834578    1.861    0.463
        46  -8.1169    118.7346    105.9853   8.0785454627e+01   3.7522919932e+01    0.1989503    0.1333333 -47.07 0.0007904803    1.516    0.340
        47  -9.2368    113.1317    102.8566   8.1543497926e+01   3.9372812103e+01    0.2403445    0.2118904  78.12   0.00111568    1.228    0.186
        48  -9.2923    159.7863    100.7650   6.9353648460e+01   2.9557539937e+01    0.6374341    0.2820768 -44.68  0.002385331    2.307    0.567
        49  -8.6715    156.3130    101.3233   7.0256214178e+01   3.0233858945e+01    0.2728344    0.2134302 -23.49  0.001335629    1.392    0.281
        50  -9.5076    121.4397    100.8243   7.8690853169e+01   3.8060980801e+01    0.3016523    0.2453674  80.77 0.0007671747    1.472    0.321
        51 -10.3442    197.4312     98.3563   6.1577042723e+01   2.1686443009e+01    0.3776963    0.2714905 -80.41  0.001273013    2.125    0.529
        52  -8.3135    134.6924     98.8503   7.4684830868e+01   3.5569237065e+01    0.2244728    0.1977947  32.28  0.001147462    1.179    0.152
        53  -8.0233    128.7706     98.5925   7.6132660779e+01   3.6935102016e+01    0.2177108    0.1450279  57.68 0.0007534301    1.627    0.385
        54  -8.1195    245.3165    173.3210   6.9857475038e+01   2.7586953585e+00    0.1209975    0.0741519   3.29 0.0003832297    1.661    0.398
        55  -9.7855    113.6178     96.6483   7.9744119926e+01   4.0630083848e+01    0.3433746    0.2402581  50.75    0.0015699    1.438    0.305
        56  -9.1393    165.0984     95.3531   6.6797803291e+01   2.9339595403e+01    0.4343004     0.226376  61.24    0.0016811    2.340    0.573
        57 -10.9974    173.4208     93.8235   6.4729510380e+01   2.7716407392e+01    0.7020778    0.5414617  26.22  0.002358221    1.494    0.331
        58  -9.3313    169.2156     91.4055   6.4904219693e+01   2.9095571784e+01    0.3284651    0.2698239  86.43   0.00125344    1.474    0.322
        59  -8.2172    140.1813     94.8668   7.2234663213e+01   3.5129211110e+01     0.231759    0.2091996 -86.65 0.0005418246    1.219    0.180
        60 -10.2580    130.0066     89.0572   7.3135033850e+01   3.8607924773e+01    0.4161387    0.3445284 -66.18  0.002046223    1.340    0.254
        61  -8.4696    160.2954    130.9645   7.6618937387e+01   2.3812178268e+01    0.2454121     0.198423  55.06 0.0007572816    1.330    0.248
        62 -10.2977    155.3858     91.7109   6.7860639263e+01   3.2233914281e+01    0.5215994      0.36657  67.58 0.0008045672    1.681    0.405
        63  -8.1572    110.3099     92.6223   7.9583895390e+01   4.2208015664e+01    0.1621305    0.1218944 -87.66 0.0007028041    1.788    0.441
        64  -7.9540    142.6111     90.8288   7.0520129189e+01   3.5359844241e+01    0.2239643    0.1401858 -50.54 0.0008100722    1.701    0.412
        65  -9.1053    116.2291     91.1004   7.7448965112e+01   4.1262914514e+01    0.2942267    0.2041006  75.74  0.001220956    2.033    0.508
        66  -9.9568    122.8727     88.7386   7.4929372389e+01   4.0287991545e+01    0.3917718     0.251965  54.79  0.001695692    1.618    0.382
        67 -10.0252    101.2678     84.1046   7.9850552945e+01   4.5975113139e+01    0.2559633    0.2384457  57.44 0.0002326522    1.075    0.069
        68  -9.9786    143.7578     82.0765   6.7717551942e+01   3.6755941052e+01    0.3914727    0.3112446 -72.33  0.001868178    1.497    0.332
        69  -7.4359    124.3092     94.3281   7.6136330753e+01   3.8807222959e+01    0.1559402    0.1240571   2.07 0.0007039847    1.661    0.398
        70  -9.6124    138.1893     81.5259   6.8871369335e+01   3.8181253853e+01    0.3206762    0.2456631 -81.98  0.001090229    1.689    0.408
        71  -8.2153    119.4362     80.5911   7.3435155270e+01   4.2736385847e+01    0.2959705    0.1935569  77.23  0.001140856    2.368    0.578
        72  -8.6979    140.9653     75.8474   6.6491125520e+01   3.8581393334e+01    0.3398481    0.2114791  71.46  0.001357298    2.113    0.527
        73  -9.1886    127.4662     76.1084   6.9893163930e+01   4.1760962239e+01    0.3196055    0.2108441  72.58  0.001307421    2.014    0.503
        74  -9.9813    146.2385     69.0470   6.3190188649e+01   3.8514093427e+01    0.5820354    0.3000544 -62.60  0.001841555    3.546    0.718
        75  -8.2415    157.4995     70.8371   6.1373513541e+01   3.5433237891e+01    0.2504948    0.2114136 -82.16 0.0008882619    1.324    0.245
        76  -8.5444    133.2890     70.6615   6.6701079647e+01   4.1396752373e+01    0.3351187    0.2506989 -74.56  0.001506821    1.699    0.411
        77  -8.0596    139.5157     68.8899   6.4654323880e+01   4.0197707204e+01    0.2416243    0.2039349  58.40 0.0008058724    1.184    0.155
        78  -8.0509    128.6693     69.3703   6.7434154475e+01   4.2754917930e+01    0.2402967    0.1842273 -79.88  0.001087821    1.654    0.395
        79  -9.5684     12.9642    168.5073   1.2066815970e+02   3.8025604751e+01    0.2976608    0.2210803  55.55   0.00130349    1.119    0.107
        80 -10.7862    172.7642     64.6276   5.6669557657e+01   3.2694768137e+01    0.7125724    0.3833075 -57.71  0.002753642    2.423    0.587
        81  -8.4039    151.8736     67.3422   6.1456365774e+01   3.7413603003e+01    0.2474645    0.1950163  84.63  0.001085833    1.463    0.317
        82  -7.7888    112.4374     66.7505   7.0942054811e+01   4.7109604805e+01     0.210848     0.150206 -29.21 0.0007605953    1.554    0.357
        83  -9.5536    136.4640     63.9328   6.3761590242e+01   4.1830017808e+01    0.3584016    0.1997589 -54.53  0.001381194    2.175    0.540
        84 -10.3134    128.5869     57.2042   6.3372106465e+01   4.4962424417e+01    0.4356499    0.2149899  52.76  0.001114147    1.973    0.493
        85  -8.3756    131.0976     64.4972   6.5229735915e+01   4.3055321213e+01    0.2320909    0.1507955  54.92 0.0006517491    1.529    0.346
        86  -7.8885    121.2900     64.6416   6.7779739568e+01   4.5416111435e+01    0.1603489    0.1199471 -72.26  0.000316166    1.687    0.407
        87  -8.9528    158.9570     62.4648   5.8531222273e+01   3.6455904781e+01    0.3041883    0.1939346 -49.64 0.0009981373    1.629    0.386
        88  -9.5043    164.0956     65.3448   5.8439098098e+01   3.4714555245e+01    0.2736062    0.2266353 -70.83 0.0008479022    1.314    0.239
        89  -9.5009    151.6374     73.0585   6.3259567184e+01   3.6487004746e+01    0.4096141    0.2563484 -61.40  0.001670596    2.072    0.517
        90  -7.8172    153.4082     60.1682   5.8894387216e+01   3.8219373757e+01    0.2213334    0.1327352 -45.70 0.0007688536    1.682    0.405
        91 -10.0242    147.7673     58.7619   5.9586496604e+01   3.9872035829e+01    0.3475516    0.3375441 -53.04  0.001884538    1.028    0.027
        92 -10.5059    140.2049     58.0116   6.0954534058e+01   4.1907381506e+01    0.4059518    0.2785483  81.65   0.00175962    1.832    0.454
        93  -8.2016    158.3302     55.6797   5.6528237962e+01   3.7685394710e+01    0.1596456    0.1121491 -67.59 0.0007048514    1.692    0.409
        94 -10.2176    163.1941     53.2314   5.4881528913e+01   3.6824873704e+01    0.3874127    0.2523507 -80.85  0.001645941    2.053    0.513
        95  -8.9911    144.0129     54.2000   5.8865885993e+01   4.1564001759e+01    0.2631285    0.1751076 -79.09  0.001082686    2.087    0.521
        96  -8.2349    122.5048     53.4984   6.3578751196e+01   4.7114611920e+01    0.1529904    0.1472182 -84.89 -0.0002209352    1.049    0.046
        97 -11.1603    191.7520     49.2490   4.9323305124e+01   3.0304146583e+01     0.482605      0.46867 -22.95  0.001933803    1.106    0.096
        98 -11.4863    150.1765     48.3779   5.5693229391e+01   4.0885974982e+01    0.7185025    0.3810501 -25.18   0.00287263    2.112    0.527
        99 -10.2160    145.1353     48.4605   5.6705002323e+01   4.2174176473e+01     0.342347    0.2158949 -57.14  0.001125745    1.829    0.453
       100 -10.0766    141.7360     49.3906   5.7714218776e+01   4.2906735203e+01    0.3032641    0.1902601 -36.29  0.001015487    1.583    0.368
       101  -7.4355    105.6474     51.3193   6.7387767608e+01   5.1597869537e+01    0.1583225    0.1200201 -79.67 0.0006159261    1.746    0.427
       102 -10.3945    157.1439     47.4257   5.4097987884e+01   3.9231003751e+01    0.4999281      0.18753 -42.84  0.001743367    2.631    0.620
       103  -7.8590    112.2238     49.2249   6.4721418357e+01   5.0382682379e+01    0.2113358    0.1768298 -72.34 0.0008193989    1.364    0.267
       104  -9.5019    122.3632     46.8609   6.1195426297e+01   4.8257745814e+01    0.2993074    0.2061265  88.51  0.001275326    1.956    0.489
       105 -10.9805    145.6078     40.6971   5.3952774947e+01   4.3197414779e+01    0.4679925    0.2413546  39.44  0.001772673    2.449    0.592
       106 -12.0443    132.3088     39.5827   5.6223031764e+01   4.6828783970e+01    0.7873372    0.5070825 -42.35  0.003578239    1.568    0.362
       107 -10.5353    176.8509     39.2774   4.8425678655e+01   3.5314786779e+01    0.3667043    0.2332079 -47.12  0.001442485    1.518    0.341
       108 -10.2382      8.0945    165.3605   1.2174380240e+02   3.9125790582e+01    0.6333318    0.2610335  88.65  0.003079032    2.252    0.556
       109 -10.8283     14.4453    163.4557   1.2001862838e+02   3.9027161066e+01     0.747816    0.3842153  64.08  0.004022924    1.706    0.414
       110  -9.8387    168.5537     31.5211   4.7166091406e+01   3.8427962731e+01    0.3360361    0.2235174  67.72  0.001338826    1.477    0.323
       111  -8.1130    136.4210    127.2175   8.1309442692e+01   2.9384207650e+01    0.2037942    0.1426663 -58.49 0.0009430021    1.638    0.389
       112 -10.9745    167.5523     37.3087   4.9149902839e+01   3.7947829518e+01    0.5566972    0.3294204 -35.83  0.001643146    1.616    0.381
       113 -10.2001    134.2194     31.0896   5.2687793312e+01   4.7513411768e+01    0.3159328     0.228455  43.95 0.0009313792    1.446    0.308
       114 -10.3136    129.2778     26.0490   5.1742997544e+01   4.9471391805e+01    0.4094703    0.2480918 -42.61 0.0007930836    1.688    0.408
       115 -10.2674     41.3412    151.6505   1.1181751618e+02   3.9129154535e+01    0.3427868    0.2964086  16.54 0.0009821013    1.395    0.283
       116 -12.9136    248.4199     60.3532   4.5778178035e+01   1.6603304662e+01    0.9623884    0.3114861 -31.10 0.0005067263    2.473    0.596
       117  -8.2637    189.4861    124.4932   6.9238534921e+01   1.9078252399e+01    0.2353932    0.1363831  59.23 0.0007479662    2.249    0.555
       118  -8.2383    212.9423    123.3192   6.4887047405e+01   1.4737619518e+01    0.1806889    0.1662537  12.85 0.0008371922    1.096    0.088
       119 -11.6749     48.8730    147.6767   1.0924437850e+02   3.9204596916e+01    0.8290862    0.7289501  62.25  0.003348422    1.042    0.040
       120  -8.0013    219.5705     12.6812   3.6651188465e+01   2.8074434585e+01    0.1635422      0.10437 -40.65 0.0004058417    1.334    0.250
       121  -8.8493    217.3484    126.0499   6.4779564085e+01   1.3521150250e+01    0.1916806    0.1568904 -21.91  0.001151604    1.098    0.089
       122  -7.2301    121.3464     11.2862   4.7331396598e+01   5.3270048712e+01    0.1533102   0.09941034  39.82 0.0002485328    1.651    0.394
