#   1 NUMBER                 Running object number                                     
#   2 MAG_AUTO               Kron-like elliptical aperture magnitude                    [mag]
#   3 X_IMAGE                Object position along x                                    [pixel]
#   4 Y_IMAGE                Object position along y                                    [pixel]
#   5 X_WORLD                Barycenter position along world x axis                     [deg]
#   6 Y_WORLD                Barycenter position along world y axis                     [deg]
#   7 A_WORLD                Profile RMS along major axis (world units)                 [deg]
#   8 B_WORLD                Profile RMS along minor axis (world units)                 [deg]
#   9 THETA_WORLD            Position angle (CCW/world-x)                               [deg]
#  10 FWHM_WORLD             FWHM assuming a gaussian core                              [deg]
#  11 ELONGATION             A_IMAGE/B_IMAGE                                           
#  12 ELLIPTICITY            1 - B_IMAGE/A_IMAGE                                       
         1 -15.4936     16.6981    109.1223   1.3626222309e+02   5.1279513026e+01       1.6156     1.134133 -86.24  0.005193629    1.468    0.319
         2 -15.6121     55.0196     72.1030   1.1606439234e+02   5.5525167467e+01     1.872572     1.534168  28.63  0.003331776    1.374    0.272
         3 -15.6843    122.1648     37.4450   8.4509468601e+01   4.9520495049e+01     2.101832    0.9673448  47.45  0.007170785    1.974    0.494
         4 -15.1289     85.0956     66.2310   1.0449366533e+02   5.2283176331e+01     2.126887     1.273529   3.70  0.007227229    2.903    0.656
         5 -15.6847      7.0949     69.9890   1.3192293421e+02   6.0200193138e+01       1.5481    0.6812928 -60.40  0.007000246    1.786    0.440
         6 -13.6626      9.0952     42.8615   1.2432112093e+02   6.5207778329e+01    0.7470258    0.5828662  34.56   0.00551863    1.773    0.436
         7 -13.9731     25.2050     31.4763   1.1405662343e+02   6.5868281150e+01    0.6860253    0.6009995 -75.87  0.004864305    2.030    0.507
         8 -15.2776     42.0808      6.9455   9.7222906394e+01   6.7300364094e+01     1.753239     1.028577  -1.71  0.009904409    1.694    0.410
         9 -15.1990      8.2910     29.3838   1.2039924757e+02   6.7543528429e+01    0.8496614    0.7291862  14.03  0.006871128    1.476    0.322
        10 -15.6337     13.8761     20.4602   1.1476245115e+02   6.8518370249e+01     1.412925     0.680496 -16.49  0.007857738    2.332    0.571
        11 -13.5065      8.1597      3.1904   1.1024365135e+02   7.1363300829e+01    0.7163202    0.5682211  26.99  0.005762908    1.783    0.439
        12 -14.9166    166.3653     30.1353   7.3304428816e+01   4.0044678180e+01     1.071684    0.7932677  57.53  0.003117249    1.226    0.184
        13 -15.1580    146.6103     30.6291   7.7015837425e+01   4.4760712576e+01     1.543821    0.7213772  58.72  0.005289523    1.925    0.481
        14 -13.0349    194.9376     23.6114   6.7313857564e+01   3.3804624497e+01    0.7433307     0.354548 -32.05  0.002711998    2.251    0.556
        15 -14.5751    215.2708     20.8104   6.4190617687e+01   2.9234750104e+01     1.255163    0.5584444 -25.80  0.005385287    2.880    0.653
        16 -14.0609    218.9312     15.3236   6.2535526612e+01   2.9010892708e+01    0.7694865    0.5006806  52.82  0.003906528    1.699    0.411
        17 -14.4998    217.6459     41.9249   6.8904424226e+01   2.5954629677e+01     1.163665     0.705259  70.26     0.005078    1.578    0.366
        18 -13.6393    232.2789      2.5782   5.8505507722e+01   2.7350652110e+01       1.4009    0.3873954  61.72  0.005704711    3.148    0.682
        19 -13.8415    215.0780      9.5760   6.1619328828e+01   3.0556218855e+01    0.9435776     0.502358  55.24  0.004060546    1.930    0.482
        20 -14.2188    189.7849     26.7990   6.8824828248e+01   3.4687498121e+01      1.76157    0.6425281 -56.51  0.005377683    4.816    0.792
        21 -15.8337     99.7359     12.8306   8.1358601770e+01   5.7029267226e+01     1.403903    0.6928084  49.82  0.003536966    1.754    0.430
        22 -11.6783    244.6161     14.5624   5.9943921573e+01   2.3245579108e+01    0.2995008    0.0896732 -39.04  0.001260171    2.865    0.651
        23 -11.8111    202.2332     11.6285   6.3464853814e+01   3.3383986173e+01    0.2346524    0.2032237  64.37 0.0005076216    1.194    0.163
        24 -11.4463    162.2702      8.9086   6.7892011950e+01   4.3314892631e+01    0.2989326    0.1845403 -77.73   0.00146687    2.045    0.511
        25 -11.4956    125.8893      8.8890   7.4108159309e+01   5.1814204589e+01    0.2085924    0.1535608  36.95  0.001232914    1.263    0.208
        26 -11.3636    153.6310      8.1103   6.8974187072e+01   4.5455716654e+01    0.2498028    0.1612638  59.40 0.0004647943    1.315    0.240
        27 -11.8057    121.2903      4.2719   7.3469874372e+01   5.3232231824e+01    0.3332329    0.1880738  75.42  0.001628062    2.163    0.538
        28 -11.2300     67.9080      3.6617   8.6695989891e+01   6.3765593411e+01    0.2369791    0.1653633  11.03  0.001451437    1.271    0.213
        29 -11.7690     26.7173      3.9880   1.0218631260e+02   6.9484248419e+01    0.1988982    0.1281903  11.65 0.0006318433    1.346    0.257
        30 -13.6207    222.6972     21.4339   6.3530919775e+01   2.7410096072e+01    0.7231591    0.5215341   5.28  0.002731316    2.403    0.584
        31 -13.7828    187.1785     12.8270   6.5553644374e+01   3.6891906773e+01    0.9897022    0.7548992  33.26  0.004066323    1.632    0.387
        32 -12.1509     80.9123      1.8377   8.2088658339e+01   6.1640733076e+01    0.5090773    0.1178589  49.10  0.002023102    3.252    0.693
        33 -10.7492     62.4837      1.5073   8.7512017137e+01   6.4854232829e+01    0.1490933   0.09590518  -3.84 0.0009371681    1.468    0.319
        34 -11.1693     59.4888      1.5359   8.8514755813e+01   6.5329951058e+01    0.2321568    0.1465011  30.22  0.001122096    1.334    0.251
        35 -12.6335     98.4851    187.2962   1.2822357887e+02   2.3085423721e+01    0.3859612    0.3752716  12.17   0.00237468    1.320    0.243
        36 -14.8705     96.1152    237.1086   1.3518085074e+02   1.3109490207e+01     1.736021    0.9119139  65.17  0.008197044    2.021    0.505
        37 -13.2945     57.4517    246.7913   1.4300459790e+02   1.6879644907e+01    0.6983543    0.4488313  35.31  0.004341809    1.983    0.496
        38 -11.4010     40.5120    245.9865   1.4577062076e+02   1.9198241269e+01    0.2515318   0.09028354 -70.39  0.001305345    2.580    0.612
        39 -13.7468     27.9661    246.5492   1.4783619613e+02   2.0588631630e+01    0.6287979    0.4139176  75.82   0.00381738    1.100    0.091
        40 -14.4924     23.9207    223.9396   1.4698428057e+02   2.5391240565e+01     1.353791    0.5594943 -78.59  0.007387067    2.079    0.519
        41 -13.5396     10.6542    210.4114   1.4833192403e+02   2.9499374460e+01     0.770447    0.5839316  77.21  0.005827178    1.109    0.098
        42 -13.8270     30.1584    169.5795   1.4097605457e+02   3.6359854127e+01    0.8644484    0.7351142  87.14  0.002211382    1.116    0.104
        43 -13.0904     16.6106    196.3381   1.4621695546e+02   3.1841845523e+01    0.9274881     0.229919 -66.43  0.003854007    3.060    0.673
        44 -13.7418     22.4471    181.1604   1.4376650706e+02   3.4549236770e+01    0.6025344    0.5396817 -81.61  0.003185999    1.280    0.219
        45 -14.9505      8.2300    183.5186   1.4678119798e+02   3.5369045388e+01     1.063449     0.818908  85.73  0.007808317    1.072    0.067
        46 -15.3137     15.4684    175.3315   1.4464123858e+02   3.6499413111e+01     2.371584     1.132423  80.66   0.01160172    2.210    0.547
        47 -11.8881      2.8891    249.8970   1.5186980550e+02   2.2692437109e+01    0.2769468    0.1688038  51.57  0.002098219    1.504    0.335
        48 -14.2167      9.1246    245.7700   1.5072335667e+02   2.2801177519e+01    0.7287276    0.3696446  64.41  0.003117774    1.489    0.328
        49 -11.4387    198.7472    183.0378   1.0565840890e+02   4.7598597361e+00    0.2729388      0.17971  29.89   0.00127975    1.631    0.387
        50 -11.5037    122.4248    181.7059   1.2193712009e+02   2.0137311444e+01    0.4949159    0.2831144  79.76  0.001747786    3.343    0.701
        51 -11.1858    109.6438    183.5746   1.2513950695e+02   2.2019272395e+01    0.2719224    0.1372025  36.85  0.001141862    2.155    0.536
        52 -12.9711     85.1205    180.0008   1.3011298646e+02   2.6886149990e+01    0.5031491    0.3163912 -86.68  0.002434125    1.794    0.443
        53 -12.3701    194.6506    177.4489   1.0534662485e+02   6.6409871743e+00    0.3404481    0.3283879 -66.88  0.000870807    1.139    0.122
        54 -12.3126    131.4762    173.0281   1.1829135082e+02   2.0363731617e+01    0.4032269    0.2797049 -60.07  0.001931935    1.481    0.325
        55 -13.3961    123.9657    166.7173   1.1883577460e+02   2.3228198387e+01    0.7457722    0.4787287 -72.07  0.003281722    1.870    0.465
        56 -11.0911    177.3911    167.7497   1.0693910835e+02   1.2139000316e+01    0.2120516    0.1423891 -34.62 0.0009361368    1.627    0.385
        57 -11.5013     27.6139    158.8119   1.4032129353e+02   3.9062353590e+01    0.2851546    0.1920609 -78.67  0.001750311    1.200    0.166
        58 -12.5423     24.4884    156.4973   1.4075935651e+02   3.9888562635e+01    0.4059626    0.2894353 -37.01  0.002481961    1.898    0.473
        59 -12.5530     77.6203    157.2092   1.2827081418e+02   3.3343171684e+01    0.3946188    0.3043259  33.09    0.0012172    1.519    0.342
        60 -13.1996     74.2079    153.4716   1.2848006813e+02   3.4725678085e+01    0.6616663    0.5481838  31.43   0.00312398    1.437    0.304
        61 -11.1831    155.3619    157.5934   1.0965188632e+02   1.8952401962e+01    0.3094118    0.1315447  56.63 0.0009573409    3.293    0.696
        62 -12.5613    122.5338    155.1645   1.1689051359e+02   2.6156531679e+01    0.5822756    0.3693511 -44.35  0.002609791    1.657    0.397
        63 -12.6856    111.5289    155.5094   1.1964157236e+02   2.8136445070e+01    0.6330044    0.3843811  80.30  0.002393894    2.776    0.640
        64 -11.6694     55.6906    156.0920   1.3341036291e+02   3.6590511746e+01     0.339025    0.2524552  -6.82  0.001744373    2.227    0.551
        65 -13.1029    208.7875    155.1121   9.7688955137e+01   8.0270410911e+00    0.7584866    0.3739834  50.83  0.003022383    2.174    0.540
        66 -12.2091     85.7409    153.2413   1.2558240566e+02   3.3047594695e+01    0.5536969     0.314691 -47.52  0.002527426    1.822    0.451
        67 -11.9617     41.8156    154.2332   1.3645810257e+02   3.8649320578e+01    0.3415587    0.1905748  74.18  0.001644562    2.224    0.550
        68 -12.1260    103.4636    149.9704   1.2054289038e+02   3.0879343665e+01     0.411831    0.3046864 -39.43  0.001579183    1.527    0.345
        69 -12.5832      6.3043    148.0575   1.4393834620e+02   4.3325301996e+01    0.4795194    0.2816948 -84.73  0.002925466    1.412    0.292
        70 -12.2951    244.3847    147.5555   8.9485121654e+01   2.2122312490e+00    0.3896902    0.2263293 -41.81   0.00183649    1.598    0.374
        71 -10.4907     60.3260    149.3109   1.3123419050e+02   3.7601865885e+01    0.1322407   0.09743228 -37.94 0.0007040156    1.660    0.397
        72 -11.7055     63.4934    146.9518   1.3005738671e+02   3.7747512524e+01    0.2133815    0.1185131 -62.51 0.0008906717    1.576    0.365
        73 -11.4940     38.5816    145.8438   1.3607535674e+02   4.0947755703e+01    0.1855738    0.1760786 -40.90 0.0005823939    1.308    0.235
        74 -11.5758     44.6798    145.2645   1.3449057204e+02   4.0425752057e+01    0.2072996    0.1813848   4.50 0.0006807263    1.548    0.354
        75 -11.5337    149.2310    140.8230   1.0732307181e+02   2.3968904561e+01    0.3747643     0.290967  80.04  0.001721575    1.586    0.369
        76 -12.2534     42.6573    139.8973   1.3418777487e+02   4.1901153535e+01    0.2351173    0.2207821 -30.53 0.0006582141    1.316    0.240
        77 -12.7924     46.1102    135.1210   1.3254981549e+02   4.2640262482e+01    0.6753262    0.4349058 -59.83  0.003763474    1.308    0.236
        78 -11.0729     56.6735    137.6622   1.3023180378e+02   4.0810306755e+01    0.2343566    0.1902037 -48.63  0.001090869    1.253    0.202
        79 -12.7232    245.8601    134.6100   8.6387392296e+01   4.2073129167e+00    0.4257037    0.2923992 -66.22  0.002011061    1.987    0.497
        80 -11.0021     15.0378    139.0239   1.4088953222e+02   4.4680399730e+01    0.1765824    0.1401141 -77.19 0.0004039397    1.031    0.030
        81 -13.8040    230.9434    133.5576   8.8679492655e+01   7.4352883953e+00    0.6013685    0.4422486  61.78  0.003007678    1.581    0.367
        82 -10.9128     60.9973    133.7813   1.2841432817e+02   4.1182673726e+01    0.2537913    0.1882889  38.98 0.0007026993    1.520    0.342
        83 -12.9208    133.0022    129.4010   1.0857421926e+02   2.9974277893e+01     0.946466    0.3902003 -47.19  0.003334826    2.374    0.579
        84 -10.7405     11.1135    134.4833   1.4128378602e+02   4.6008150482e+01    0.1390134    0.1175825  38.86 0.0004438816    1.482    0.325
        85 -14.9269    131.1695    102.7983   1.0223207818e+02   3.6191317893e+01     4.812727     1.039711  51.99  0.009304006    8.630    0.884
        86 -14.5633    105.4069    123.3045   1.1427032677e+02   3.6768547428e+01      2.16572      1.15035  38.88  0.009061547    2.020    0.505
        87 -15.2311    105.9958    108.7928   1.1053982254e+02   3.9939852779e+01     1.954558     1.353189 -40.51  0.009346293    1.422    0.297
        88 -13.2676     85.3604    115.5367   1.1795355491e+02   4.1966592034e+01     1.000657    0.5493525  20.59   0.00395031    2.892    0.654
        89 -13.9785     89.6062    109.4414   1.1529456303e+02   4.2664273766e+01      1.37552    0.7764745  23.88  0.005719773    2.470    0.595
        90 -11.4375     64.0000    134.0077   1.2766046815e+02   4.0740742312e+01    0.3626058    0.1672137 -58.72  0.001598885    1.875    0.467
        91 -11.0168     57.7730    128.0182   1.2821958648e+02   4.2940197362e+01    0.2133077    0.1839654 -63.73 0.0006231175    1.017    0.017
        92 -11.4161     60.1894    125.0128   1.2699220270e+02   4.3341431017e+01    0.2883393     0.214895  12.59  0.001574144    1.788    0.441
        93 -14.6063     29.8267    119.4122   1.3431003425e+02   4.7897968574e+01     2.608014          nan -55.97  0.007417913    5.403    0.815
        94 -13.2205     62.2383    102.3024   1.2158108708e+02   4.8272572276e+01     1.251894    0.4731611 -58.19  0.004890348    2.543    0.607
        95 -14.2048     48.3846     96.4526   1.2444072832e+02   5.1212961732e+01     1.304941    0.8890889  49.95  0.007259469    1.861    0.463
        96 -12.8379      4.2384    119.9026   1.4116933143e+02   4.9740058637e+01    0.4860521    0.3218915   6.53  0.002221105    2.169    0.539
        97 -11.9539    235.4846    248.8022   1.1072541967e+02  -1.1905673052e+01    0.2338634    0.1448428  33.82  0.001423426    1.376    0.273
        98 -15.5161     24.7323     95.0938   1.3141448014e+02   5.3748106737e+01     1.543972     1.140984 -28.51  0.009960647    1.456    0.313
        99 -14.0673      2.5429     96.8787   1.3833931118e+02   5.4865297688e+01    0.9467224    0.3153095 -67.38  0.003706506    2.317    0.568
       100 -11.4184    185.0052    124.0479   9.5237116922e+01   1.9506039837e+01    0.2851229    0.2232078  78.68 0.0007816307    1.549    0.354
       101 -12.1390    180.8484    121.0767   9.5377829109e+01   2.1076935041e+01    0.3830415    0.2327216  49.64  0.001242266    1.668    0.401
       102 -11.6075     51.7309    117.2666   1.2784039268e+02   4.6156010216e+01     0.422439    0.1965239 -75.22  0.001599702    3.154    0.683
       103 -13.1746    137.2432     96.2849   9.8898921301e+01   3.6214452960e+01    0.5275591    0.3973493 -54.17  0.001478933    1.397    0.284
       104 -12.8135    176.4930    111.6806   9.3926635787e+01   2.4009466671e+01    0.5195101    0.3683793 -46.07  0.002329048    1.393    0.282
       105 -12.3865     45.7852    109.7332   1.2805241511e+02   4.8535349633e+01     0.559241    0.3002762 -42.08  0.002772324    1.850    0.459
       106 -12.5016    121.0964    111.5423   1.0717761210e+02   3.6406058067e+01    0.4194259    0.2896918  71.83  0.001617994    2.042    0.510
       107 -12.3470    249.1385     99.6830   7.8052089418e+01   9.6457360133e+00    0.2674475    0.1750246 -48.84  0.001340295    1.394    0.282
       108 -11.2431    161.2942     96.8787   9.3346748080e+01   3.0566400887e+01    0.3599662    0.1741159  51.64  0.001349187    2.078    0.519
       109 -12.4870    128.1689     95.9867   1.0113033352e+02   3.8248256739e+01    0.3435353    0.2331174  59.47  0.001529486    1.704    0.413
       110 -11.3619     76.0816     95.6728   1.1578219616e+02   4.7815092991e+01    0.2383723    0.1789972 -42.49 0.0003317613    1.209    0.173
       111 -13.9602    188.4663     84.3777   8.4342479863e+01   2.6346934770e+01     1.511685    0.7439452  58.79  0.001491906    2.094    0.522
       112 -15.2140    160.9895     80.5221   8.8870741936e+01   3.3734601759e+01      2.04821     1.331534  21.38  0.001830311    2.394    0.582
       113 -14.9317    170.6032     77.0814   8.5875067445e+01   3.2015992122e+01      1.13566    0.8558388  46.15  0.004601937    1.346    0.257
       114 -11.8959     89.6693     87.5333   1.0949274734e+02   4.7382786252e+01     0.428894    0.2598164  50.00  0.001984913    1.958    0.489
       115 -14.6361    134.9727     79.5286   9.4653595535e+01   3.9981630424e+01     1.510702    0.9586738  22.63  0.005723861    2.273    0.560
       116 -13.9986    133.4039     67.5302   9.1427451390e+01   4.2474938851e+01     1.212666    0.8227888  33.12  0.004189263    1.616    0.381
       117 -14.4457    101.2068     50.0325   9.4299472580e+01   5.2084330362e+01    0.8810607    0.6205255  56.84  0.002705097    1.675    0.403
       118 -11.6056    209.5874    249.2251   1.1545674215e+02  -7.9280351092e+00    0.1619426    0.1103788 -19.91 0.0009606846    1.706    0.414
       119 -15.3575    119.3050     54.6573   9.0917806989e+01   4.7675709755e+01     1.355884    0.7757769  43.69  0.001915159    1.686    0.407
       120 -13.7975    170.5048    242.3506   1.2170780854e+02  -3.4529282516e-01    0.9947162    0.6109998  35.13  0.005431598    1.482    0.325
       121 -12.5360    144.9078    231.6868   1.2510422578e+02   5.9455110651e+00    0.3882512    0.2182557 -48.70  0.001970077    2.067    0.516
       122 -12.6636    241.2166     83.7982   7.5570627723e+01   1.4036957179e+01    0.4576811    0.2840748  78.16  0.002127517    1.986    0.496
       123 -13.3068    238.1625     80.2915   7.5191679395e+01   1.5297264061e+01    0.7645063     0.382688  73.12  0.003064766    2.652    0.623
       124 -10.9802     98.1187     84.0638   1.0600167744e+02   4.6611074788e+01    0.2149189    0.1772836  89.16 0.0005746933    1.666    0.400
       125 -11.3314     41.4022    249.7966   1.4589426042e+02   1.8383143962e+01    0.2093632    0.1526246  86.80  0.001545555    1.166    0.142
       126 -11.5603    249.3057    236.2979   1.0617344937e+02  -1.2379815618e+01     0.214299    0.1449347 -52.52  0.001188884    2.546    0.607
       127 -13.1083     34.0808     32.9383   1.1101165440e+02   6.4773300935e+01    0.3620726    0.2909321  38.49  0.001993621    1.729    0.422
       128 -12.5794     48.6372    180.8728   1.3827649736e+02   3.1729531323e+01    0.5792962    0.2776699 -61.76  0.002911376    1.854    0.461
       129 -12.7880    236.0050    229.5197   1.0734483528e+02  -9.4495818373e+00    0.2216008    0.1778061 -44.60  0.001401331    1.619    0.382
       130 -12.7879    147.3079    238.8073   1.2564240523e+02   4.2750451037e+00    0.4939431    0.3279879  79.46  0.002370248    2.166    0.538
       131 -13.2136     45.5417    208.9973   1.4185333879e+02   2.5942806977e+01    0.6018531    0.2618919  68.27  0.002723205    2.699    0.629
       132 -14.0494    198.0858     70.8240   7.9054773056e+01   2.6325257578e+01     1.123862    0.6414251  41.75  0.003607385    2.112    0.527
       133 -12.1919    219.5293     74.9576   7.6648508806e+01   2.0469064868e+01    0.3807386     0.279511 -44.15  0.001075934    1.296    0.228
       134 -12.3216    216.8090     80.2707   7.8372915016e+01   2.0220520347e+01     0.455401    0.3776176 -30.18  0.001697378    1.303    0.233
       135 -12.9022    210.6784     77.4975   7.8668001651e+01   2.2151547348e+01    0.7102664      0.45377 -81.99  0.002853731    2.151    0.535
       136 -12.1751    113.7963     80.6227   1.0053401934e+02   4.4287115288e+01    0.4211067    0.3628321 -37.41  0.001442538    1.135    0.119
       137 -11.8558     90.9467     80.0314   1.0694014945e+02   4.8676706705e+01     0.409915    0.3187297   6.52  0.002168734    1.487    0.327
       138 -12.5895     41.8355     77.2624   1.2189029157e+02   5.5967529882e+01    0.3178481    0.2273993 -47.18 0.0006017319    1.163    0.140
       139 -11.7595    241.4670     71.7746   7.2787518413e+01   1.5945196569e+01    0.5002656    0.2382942 -71.02  0.001560363    4.520    0.779
       140 -11.9669    158.0582     63.7468   8.4671006878e+01   3.7327602035e+01    0.4121986    0.1959947 -46.67  0.001591263    2.314    0.568
       141 -14.2056    177.9601     57.4228   7.8980927523e+01   3.3438736634e+01    0.8448151    0.6411067 -64.53  0.002442233    1.447    0.309
       142 -13.7304     79.3995     60.1232   1.0431746743e+02   5.4306875131e+01    0.6925296    0.4839518  -7.06  0.003647748    1.660    0.397
       143 -12.6975     39.3244     60.4542   1.1811270171e+02   5.9514909621e+01     0.297364    0.2629814  48.22  0.002035968    1.544    0.352
       144 -12.4939     24.5733     60.1687   1.2335436807e+02   6.0915538483e+01    0.2958611    0.1810462 -46.01 0.0008394998    1.285    0.222
       145 -10.5539     31.2761     60.6432   1.2106087228e+02   6.0251699620e+01    0.1086173   0.09087373 -77.49 0.0006726764    1.653    0.395
       146 -13.0187    248.7921     51.2777   6.7326944174e+01   1.7456068542e+01    0.6471713    0.4247195 -28.15  0.002835221    1.808    0.447
       147 -11.9446    230.2196     55.0081   7.0387576351e+01   2.1105086153e+01    0.4744681    0.2075943  71.15  0.001898526    2.566    0.610
       148 -13.7219     67.0099     49.0870   1.0468131676e+02   5.8081169320e+01    0.6370568    0.4800961 -34.71  0.003871922    1.251    0.201
       149 -11.8680     86.2430     49.5805   9.8598830247e+01   5.4911595208e+01    0.2458626    0.1961622 -10.46 0.0005643299    1.203    0.168
       150 -13.2757     57.3770    202.4579   1.3888733781e+02   2.5833860114e+01     0.911779    0.3138358 -69.55  0.003852345    2.755    0.637
       151 -14.3392    159.2992     44.4812   7.8750934528e+01   3.9920885956e+01     1.489932    0.4572744  50.65  0.005094568    2.948    0.661
       152 -13.0510    139.3721     21.6282   7.5604394088e+01   4.7483694122e+01    0.6528792    0.2744723  60.58  0.001883641    2.143    0.533
       153 -13.7457     68.1878    222.6073   1.3889037867e+02   2.0123268238e+01    0.6661801     0.518148 -52.79  0.004245768    1.696    0.410
       154 -14.6490     62.8969    214.8430   1.3910594732e+02   2.2457724887e+01     1.072214    0.8128965  63.10  0.006380686    1.148    0.129
       155 -14.1391     97.3292    217.2057   1.3260510089e+02   1.6841725649e+01    0.6987604    0.6007727  13.18  0.004217527    1.735    0.424
       156 -12.3427     85.4742    215.9817   1.3481780649e+02   1.8950820511e+01    0.3565947    0.1967884  51.91  0.001647887    1.617    0.381
       157 -12.6624     78.1982    220.0139   1.3670302482e+02   1.9211889700e+01     0.335391    0.2401633  66.42  0.002050179    1.194    0.162
       158 -12.2900    185.3082    213.7749   1.1419629349e+02   1.7712783712e+00     0.252823    0.2141969  89.70  0.001434355    1.561    0.359
       159 -12.2626    202.3048     46.3970   7.2094560950e+01   2.9043697713e+01    0.4029436    0.2351912  76.10  0.001812234    1.805    0.446
       160 -10.7141    157.5093    213.4985   1.1977820375e+02   7.0028189090e+00    0.1382414    0.1237298  51.12 2.073872e-05    1.017    0.017
       161 -13.5112    205.6487     40.3618   7.0103613414e+01   2.9064592691e+01    0.7785129    0.4111323  89.14   0.00314609    2.561    0.610
       162 -11.7266     25.5099     43.0440   1.1789444658e+02   6.3939767795e+01    0.1755348   0.09262269 -44.91  0.000500794    1.556    0.357
       163 -12.9870    242.8212     36.2853   6.4713356678e+01   2.0888961146e+01    0.7953731    0.3437306  77.48  0.003382926    2.593    0.614
       164 -11.2186    245.4896     31.0338   6.3314553960e+01   2.0993266208e+01    0.2923191    0.1552829 -35.92  0.001430441    1.901    0.474
       165 -12.9299     75.9435     37.5166   9.7554869376e+01   5.8464695679e+01    0.3512114    0.2424009  36.17 0.0009921613    1.424    0.298
       166 -12.3822     70.4673     36.5129   9.8989317933e+01   5.9487381600e+01    0.2970521    0.2198906  -0.35 0.0009848785    1.298    0.229
       167 -11.7720     51.2370     36.4741   1.0574744831e+02   6.2237740323e+01    0.4384893    0.1344485  37.09  0.001832853    3.433    0.709
       168 -13.0875     56.1640     27.6711   1.0058793950e+02   6.2843800218e+01    0.4448915    0.2777267  33.58  0.001786947    1.595    0.373
       169 -11.6391     45.4532     36.5093   1.0791913981e+02   6.2949550142e+01    0.2372051    0.1628577 -20.54  0.000656516    1.264    0.209
       170 -12.7872     47.4133     32.1300   1.0554538398e+02   6.3370641271e+01    0.4150187    0.2429929   3.29  0.001840207    2.056    0.514
       171 -10.6131    163.4945    225.4776   1.2049801199e+02   3.7236818404e+00     0.134094    0.1175905  41.75 0.0001848781    1.027    0.026
       172 -10.6616     89.2953     30.3178   9.0743875003e+01   5.7101166259e+01    0.1326629   0.08902629  13.43 0.0002152301    1.608    0.378
       173 -11.5057    136.8423    211.2927   1.2368960279e+02   1.1241765522e+01    0.2295344     0.185779 -78.22 0.0008707379    1.350    0.259
       174 -12.5176     96.8233     27.3178   8.7487442757e+01   5.6041678209e+01    0.3315803      0.26257  -3.06  0.001428257    1.241    0.194
       175 -11.7323    248.4642    224.6507   1.0425471969e+02  -1.0718636123e+01    0.2366624    0.2100635 -73.02  0.001516195    1.946    0.486
       176 -11.2259     39.4106    210.8104   1.4317388297e+02   2.6303092191e+01    0.3462999    0.1379906  41.97   0.00151184    2.387    0.581
       177 -11.2490     64.8624     24.8770   9.6423295600e+01   6.1933104112e+01    0.1948879    0.1421557   3.51 0.0008133997    1.253    0.202
       178 -12.1837     80.1364    208.4463   1.3498983298e+02   2.1341398740e+01      0.33459    0.1941522  65.98  0.001698105    1.745    0.427
       179 -10.7128    149.9641    206.5338   1.2018711478e+02   9.7535882195e+00    0.2196829      0.12792  41.79  0.001026473    1.591    0.372
       180 -12.1108     45.2837    197.7521   1.4080689120e+02   2.8386789487e+01    0.4285519     0.229221 -73.27  0.002355275    1.623    0.384
       181 -12.3794     41.5166    201.0123   1.4186969725e+02   2.8133557267e+01     0.283548    0.1785469 -84.32  0.001466516    1.342    0.255
       182 -11.4622     70.7886     16.9820   9.1288391448e+01   6.1930738573e+01    0.1948359    0.1504684  26.91 0.0004099446    1.147    0.128
       183 -12.9988     39.2994    195.3052   1.4175115626e+02   2.9630541865e+01    0.4963812    0.3478138  86.14  0.002179471    1.173    0.148
       184 -11.1298    213.0828    200.8703   1.0634749596e+02  -1.1514447978e+00    0.2732546    0.2263884 -81.36  0.001483653    1.818    0.450
       185 -12.6676    164.5188    194.6819   1.1503870399e+02   9.3000929885e+00    0.7294472    0.4186804 -63.90  0.003029954    2.449    0.592
       186 -11.9178    248.7790    195.4418   9.8685798460e+01  -6.5350435419e+00    0.3121732    0.1472805 -32.94  0.001446811    2.042    0.510
       187 -12.7100    201.4113    191.8175   1.0687864540e+02   2.6249895782e+00    0.4119235    0.3476815 -11.07  0.001736943    1.250    0.200
       188 -10.6820    107.5173    193.0690   1.2711830630e+02   2.0279463821e+01    0.2065143    0.1316852 -59.53  0.001025287    1.578    0.366
       189 -10.5144     81.2558    193.3887   1.3285145827e+02   2.4452579135e+01    0.1912775    0.1099095  52.15 0.0009536755    1.655    0.396
