#   1 NUMBER                 Running object number                                     
#   2 MAG_AUTO               Kron-like elliptical aperture magnitude                    [mag]
#   3 X_IMAGE                Object position along x                                    [pixel]
#   4 Y_IMAGE                Object position along y                                    [pixel]
#   5 X_WORLD                Barycenter position along world x axis                     [deg]
#   6 Y_WORLD                Barycenter position along world y axis                     [deg]
#   7 A_WORLD                Profile RMS along major axis (world units)                 [deg]
#   8 B_WORLD                Profile RMS along minor axis (world units)                 [deg]
#   9 THETA_WORLD            Position angle (CCW/world-x)                               [deg]
#  10 FWHM_WORLD             FWHM assuming a gaussian core                              [deg]
#  11 ELONGATION             A_IMAGE/B_IMAGE                                           
#  12 ELLIPTICITY            1 - B_IMAGE/A_IMAGE                                       
         1 -15.4732     28.3204     60.9855   6.4900028042e+01   6.2094014904e+01     1.216187     1.114219  -5.88  0.008404801    1.150    0.131
         2 -15.0512     39.5767     49.3764   5.6326429876e+01   6.3083972070e+01     1.742574    0.6996635 -40.82  0.007921728    2.298    0.565
         3 -14.0218      2.7486     45.8258   7.2163410583e+01   6.6975270042e+01    0.8274502    0.6420917 -80.19  0.003634708    1.747    0.428
         4 -13.8910      5.9325     23.2842   6.3121533696e+01   7.0765201056e+01     1.488707    0.8155049 -30.83  0.008585734    1.510    0.338
         5 -13.5151     25.6938     12.5095   4.7985241227e+01   7.0449188882e+01     1.164235    0.8217259   4.64  0.008032924    1.201    0.167
         6 -14.1703     48.6883     22.7160   4.1997127157e+01   6.5999680499e+01     2.349424    0.6608673  36.87  0.009151733    3.454    0.710
         7 -13.4052    104.0381      5.2104   1.7623306365e+01   5.7156658921e+01     1.220318    0.5169038  68.08  0.005393901    2.404    0.584
         8 -14.2674     85.0477     12.0730   2.4891351752e+01   6.0617251215e+01     1.309649    0.9795287  21.64  0.006645077    1.333    0.250
         9 -11.4909    116.8781     10.9213   1.6947265988e+01   5.3751601544e+01    0.4079921    0.2031803  40.77  0.001298616    2.067    0.516
        10 -11.3060    124.1521     10.3984   1.5383623063e+01   5.2112216508e+01    0.2524868    0.1971578  54.70  0.000514935    1.113    0.102
        11 -11.2687     58.8231     10.3949   3.2589256907e+01   6.5785180007e+01    0.3270992    0.1868264  34.78  0.001874771    1.518    0.341
        12 -11.4234     43.4717      8.0323   3.7569308117e+01   6.8554144810e+01    0.3799715    0.2061164 -12.92  0.002101355    2.086    0.521
        13 -10.2160    150.5703      8.7367   1.0622062229e+01   4.5992105175e+01    0.1603172    0.1144958 -48.71 0.0009322964    1.523    0.343
        14  -9.4615    130.6514      8.6936   1.3692327788e+01   5.0740743475e+01    0.1361497   0.08208665  42.43 0.0007042651    1.703    0.413
        15 -11.0124    137.3921      5.2015   1.1532690060e+01   4.9454696609e+01    0.3159957    0.2023132  79.99  0.001348046    1.461    0.316
        16 -13.1973     75.5908     13.6261   2.8308751207e+01   6.2356298983e+01    0.7271718    0.3543848  36.65  0.002594193    1.924    0.480
        17 -10.3569     73.2952      1.4075   2.3891203142e+01   6.3925708208e+01    0.1513071     0.102855  58.15 0.0004293233    1.431    0.301
        18  -9.8825    119.4281     48.5123   2.8857143944e+01   4.8701239445e+01    0.1411992    0.1275266  38.23 0.0001726896    1.081    0.075
        19 -12.1305    220.1182     83.5127   1.9523611806e+01   1.9380497631e+01    0.3542785    0.2631831  20.03  0.001734141    2.288    0.563
        20 -15.2818     22.1381     77.3760   7.1758074073e+01   5.9217991922e+01     1.246383       1.0834  18.19  0.008318657    1.296    0.228
        21 -13.1370     43.2730     62.4989   5.9078456942e+01   6.0183836895e+01    0.3569983    0.2764622   4.58  0.001314441    1.302    0.232
        22 -10.2439    246.5631    183.2281   3.6167564545e+01  -2.8631632819e+00     0.180137    0.1051074 -28.05 0.0007511713    1.618    0.382
        23 -11.1560    230.3867    180.8105   3.8477971730e+01   5.8540415280e-02    0.2436455    0.1540692 -31.50    0.0010071    1.474    0.321
        24 -12.4434    214.4903     74.0034   1.8162320929e+01   2.2177848156e+01    0.3144648    0.2419597 -36.06  0.001735769    1.391    0.281
        25 -11.4743    179.6057     74.2014   2.3683942647e+01   3.0215359907e+01     0.199596    0.1412205 -28.11 0.0009497139    1.687    0.407
        26 -13.0503    163.2487     71.7046   2.6072180956e+01   3.4575177548e+01    0.4995292    0.3083055  56.59   0.00229047    1.554    0.356
        27 -12.8946    194.9877     67.9719   1.9588216780e+01   2.7601921876e+01    0.4527372    0.3340154  59.27  0.002400947    1.369    0.269
        28 -12.3701    206.9677     76.7718   1.9881455805e+01   2.3406675203e+01      0.35883    0.1605106 -53.49  0.001421576    2.371    0.578
        29 -13.9476      8.6248     63.4598   7.4051888279e+01   6.3126789633e+01    0.5540261    0.3385958 -47.66  0.002647046    1.306    0.234
        30 -11.1360    223.8002     66.3825   1.5228587509e+01   2.1347002241e+01    0.1840093    0.1175089  56.17 0.0009197584    1.718    0.418
        31 -12.8055     60.3236     70.0234   5.4719073615e+01   5.6423380149e+01    0.4496985    0.2517973 -41.59  0.002165316    1.702    0.412
        32 -10.5784    214.5246     61.9700   1.5419910331e+01   2.4068270608e+01    0.2116895    0.1244206 -40.56  0.001047686    1.639    0.390
        33 -12.4004    169.1511     61.2654   2.2152714048e+01   3.4851050129e+01    0.4884209    0.2284073 -56.98  0.001803822    2.811    0.644
        34 -12.9329     55.4957     58.4867   5.2861017394e+01   5.9331950146e+01    0.3629877     0.252205 -55.20  0.001958778    1.701    0.412
        35 -10.5868    250.5095     58.1083   1.0523078805e+01   1.7063308284e+01    0.1848954    0.1056801 -43.31 0.0005014747    1.527    0.345
        36 -11.9779    173.7552     57.0755   2.0241075301e+01   3.4381871608e+01    0.3013456    0.2309966 -18.33 0.0007670216    1.716    0.417
        37 -11.7928    249.3276    153.6367   2.9988909764e+01   1.6357115037e+00    0.3950417    0.2161784 -30.92  0.001947184    1.777    0.437
        38 -14.0839    200.9899    139.2904   3.5295263679e+01   1.3156835961e+01     1.690328    0.9389034  61.18  0.006877791    2.403    0.584
        39 -12.1086    246.1808    144.3209   2.8615149874e+01   3.7522344031e+00    0.3306662    0.2080712  45.19  0.001771194    1.837    0.456
        40 -11.7936    235.4308     76.2498   1.5924413647e+01   1.7339994093e+01    0.2722127    0.2261096 -67.81  0.001674991    1.048    0.045
        41 -10.5074    164.2830     45.1649   1.8640442394e+01   3.8423240786e+01    0.3142731    0.1462534  62.82  0.001332339    1.967    0.492
        42 -10.7129    203.4999     43.4737   1.2555159291e+01   2.9275872913e+01    0.1345037    0.1147239 -81.44 5.033912e-05    1.015    0.015
        43 -10.2329    225.9386     39.2595   9.1083400082e+00   2.4814694061e+01    0.1772767    0.1420297 -83.22 0.0005075556    1.075    0.069
        44 -11.9404    216.1194     38.3191   9.9309650622e+00   2.7104811677e+01    0.5032085    0.1873209  63.03  0.001939238    2.516    0.602
        45 -10.2698    200.9831     39.4443   1.1920418684e+01   3.0407398301e+01    0.1999243     0.118567  73.19  0.001017146    1.572    0.364
        46 -10.2682    159.8094     36.1253   1.6893192655e+01   4.0720710002e+01    0.1775792    0.1491652  47.37 0.0004115923    1.283    0.221
        47 -10.9126    134.3997     34.1976   2.0949026053e+01   4.7120301561e+01     0.187191    0.1227958 -46.14 0.0006270225    1.689    0.408
        48 -11.6467    175.9142     33.0220   1.3613708254e+01   3.7199450494e+01    0.3269801    0.1839273  69.99 0.0008041337    1.608    0.378
        49 -11.7974    147.9794     30.8683   1.7398736354e+01   4.4253370604e+01    0.4342176    0.2807111  71.21  0.001326968    1.433    0.302
        50 -10.6730    123.9847     30.9335   2.2086686180e+01   4.9984292613e+01    0.2027156    0.1785155  53.99 0.0003661323    1.027    0.026
        51 -11.8738     51.6123    140.1886   7.3978348425e+01   4.1269703012e+01    0.5762392    0.1675934 -59.97  0.001998964    2.880    0.653
        52 -11.9022      3.5346    139.4592   8.7855464836e+01   4.5981695660e+01    0.3832159    0.2338488 -84.88  0.002165986    1.424    0.298
        53 -11.2230     33.7907    135.6018   7.8593202748e+01   4.4414190526e+01    0.1835793    0.1175466  42.98 0.0007682242    1.677    0.404
        54 -10.2606    178.2547     27.5562   1.1892320215e+01   3.7306619408e+01    0.1831374     0.108731  59.40 0.0009320187    1.571    0.363
        55 -11.3349    242.0791     22.8749   4.3245046907e+00   2.3513852637e+01    0.3664978    0.1749874 -62.82  0.001765766    1.901    0.474
        56 -12.8429     21.1877    133.2467   8.2034165767e+01   4.6162400460e+01     0.332747    0.2048715  50.39  0.001765638    1.793    0.442
        57 -10.9221    122.2626    127.0033   5.0526833273e+01   3.2666833600e+01    0.2267006    0.2139932 -58.50  0.001169343    1.054    0.051
        58 -11.8802     27.9064    126.1282   7.8963260944e+01   4.7323007915e+01    0.2081994     0.171918  81.38  0.001208408    1.244    0.196
        59 -13.0629     20.5679    123.7441   8.0898625424e+01   4.8541568783e+01    0.3153603    0.2912572   9.54  0.002081524    1.287    0.223
        60 -11.9748      2.9724    115.4795   8.5291541563e+01   5.1761790744e+01    0.2459433    0.1861114 -60.86  0.001574136    1.112    0.101
        61 -12.1193    198.9861    108.9949   2.8761597308e+01   1.9454575440e+01    0.3655508     0.216876 -34.28  0.001603722    1.800    0.444
        62 -13.0945    217.8177     95.3714   2.2522324128e+01   1.7845219812e+01    0.7288331    0.5017194  50.49  0.003766021    1.620    0.383
        63 -12.1818    183.8418     88.5034   2.6543705759e+01   2.6704888938e+01    0.2556096    0.1985232 -67.12  0.001116285    1.328    0.247
        64 -12.7096    157.9578     84.9861   3.0752626215e+01   3.3487964168e+01    0.4667669    0.3496754  -9.78  0.002117687    1.939    0.484
