#   1 NUMBER                 Running object number                                     
#   2 MAG_AUTO               Kron-like elliptical aperture magnitude                    [mag]
#   3 X_IMAGE                Object position along x                                    [pixel]
#   4 Y_IMAGE                Object position along y                                    [pixel]
#   5 X_WORLD                Barycenter position along world x axis                     [deg]
#   6 Y_WORLD                Barycenter position along world y axis                     [deg]
#   7 A_WORLD                Profile RMS along major axis (world units)                 [deg]
#   8 B_WORLD                Profile RMS along minor axis (world units)                 [deg]
#   9 THETA_WORLD            Position angle (CCW/world-x)                               [deg]
#  10 FWHM_WORLD             FWHM assuming a gaussian core                              [deg]
#  11 ELONGATION             A_IMAGE/B_IMAGE                                           
#  12 ELLIPTICITY            1 - B_IMAGE/A_IMAGE                                       
         1 -14.3899     68.3979    144.7822   9.6217580224e+01   3.7328614936e+01     4.491594     2.395068  81.64  0.002632926    4.673    0.786
         2 -13.8009    235.9538     21.1819   3.0589192931e+01   2.5687047809e+01    0.9234419    0.8273077  54.69  0.002695726    1.549    0.354
         3 -13.7111    215.0949     38.5471   3.6034208139e+01   2.7816140270e+01     1.325971    0.9109405 -33.45  0.006151715    1.585    0.369
         4 -10.4311      2.8114      3.2624   8.1545574173e+01   7.4203270656e+01    0.1648845    0.1281578  18.41  0.001230186    1.466    0.318
         5 -13.6797    207.5190     43.9998   3.8072227531e+01   2.8720433092e+01     1.364555     1.032466  32.20  0.005621675    1.976    0.494
         6 -10.1361     75.5027    209.8033   1.0416191619e+02   2.0118996912e+01    0.3401821    0.2191213  82.31  0.001600388    1.872    0.466
         7 -14.9981      9.2046    207.7856   1.1926744906e+02   2.8142128766e+01     2.227597     1.284756 -81.87  0.009074019    1.501    0.334
         8 -16.2160     32.2797    187.0964   1.1221515458e+02   3.0838977839e+01     9.448879       4.0242  77.88   0.03350028    3.642    0.725
         9 -13.2218     25.1444    201.7539   1.1525895400e+02   2.8035899035e+01    0.5423851    0.3906904 -44.73  0.001036277    1.728    0.421
        10 -16.0021     23.6274    246.4706   1.1872891883e+02   1.8396520672e+01     9.637223     2.801189  22.73   0.02686456    8.887    0.887
        11 -10.8042    192.9236    194.7180   7.4274851069e+01   4.4851543673e+00    0.9469039    0.4812295 -63.32  0.002464803    7.480    0.866
        12  -9.3287     99.3064    180.9947   9.3944574159e+01   2.3445763960e+01    0.2036228    0.1907284 -68.41 0.0005401151    1.068    0.063
        13 -12.0331     55.2430    175.6889   1.0492677927e+02   3.1094107115e+01    0.4709912    0.3027543 -32.74  0.001916595    2.079    0.519
        14 -12.0176     61.0216    170.3842   1.0260687547e+02   3.1713371571e+01    0.3427592    0.3059949 -31.69 0.0008082144    1.271    0.213
        15  -9.3254    187.5096    176.0110   7.1693553986e+01   9.0322795809e+00    0.2280163    0.1348775 -42.43  0.001037911    1.606    0.377
        16 -11.8058     71.6764    161.2303   9.8172130299e+01   3.2621181154e+01    0.3584284    0.3367659  40.76 0.0003089433    1.116    0.104
        17 -13.0072     78.8691    155.1474   9.5028068499e+01   3.3138987159e+01     1.033097    0.8527045 -66.90   0.00147259    1.180    0.152
        18  -9.7591    173.0747    243.0305   8.6801183175e+01  -1.1293347487e+00    0.1845911    0.1563205  61.03   0.00112008    1.703    0.413
        19  -9.1986    110.4528    167.2784   8.8483497473e+01   2.4944046062e+01    0.2072147    0.1490192 -69.20 0.0009339779    1.572    0.364
        20 -12.2955     35.1960    159.2397   1.0828362531e+02   3.7561461325e+01    0.6955891    0.3582752  71.04  0.001717302    2.660    0.624
        21 -13.5341     58.4068    156.4149   1.0120867802e+02   3.5645841303e+01    0.8092114    0.4199126 -58.61  0.003513211    1.743    0.426
        22  -8.9883    174.7031    149.3158   6.8716783872e+01   1.6919452211e+01    0.1472882    0.1212817 -81.09 0.0003239494    1.607    0.378
        23 -10.1973    133.9413    146.4881   7.7843466175e+01   2.5614068615e+01    0.8058431    0.1960927 -54.63  0.001647857    7.059    0.858
        24  -9.8577    145.2736    141.9577   7.3912005556e+01   2.4411705722e+01    0.4610361     0.290806 -78.26   0.00116655    3.177    0.685
        25 -10.5075     95.0261    141.6829   8.7594710541e+01   3.3984161797e+01      0.32903    0.2978678   5.86 0.0008277037    1.196    0.164
        26  -9.7540     97.9936    138.5181   8.6026482466e+01   3.4265738211e+01    0.3426557    0.2463232 -18.62  0.001166201    1.810    0.448
        27 -12.4303     82.7766    139.7419   9.0847649471e+01   3.6485295485e+01     0.336876    0.2845387 -46.88 0.0003555899    1.140    0.122
        28 -10.9579    106.6597    130.7748   8.1699491137e+01   3.4614515595e+01    0.3995979    0.3457391  11.97  0.001201088    1.265    0.209
        29 -12.2201     64.9205    126.0766   9.3585839702e+01   4.2613395894e+01    0.7230131    0.4678819  62.91  0.002506946    2.144    0.534
        30  -9.9752     94.1273    126.5480   8.4436679965e+01   3.7908509936e+01     0.285917    0.2350547 -31.54 0.0006192466    1.256    0.204
        31  -9.0942    114.6556    124.6910   7.7909224342e+01   3.4550804498e+01    0.1633703     0.124143  -8.41 0.0007044468    1.699    0.411
        32  -9.7101    162.0450    119.7526   6.4534119635e+01   2.5785166530e+01    0.3278795    0.1916868 -66.17  0.001165598    2.780    0.640
        33  -9.7958    105.0701    119.0775   7.9291891022e+01   3.7721596820e+01    0.2250148    0.2152501 -22.37 0.0003233853    1.028    0.027
        34 -10.0962    205.1318    110.6273   5.3838440789e+01   1.8509031612e+01    0.3046792    0.2481503  31.09  0.001425329    1.476    0.322
        35  -9.1974     64.4617    101.4959   8.7993845650e+01   4.8732541194e+01    0.1456484    0.1363087 -39.72 0.0008089174    1.050    0.048
        36 -10.0019    241.3001     99.3145   4.5966707594e+01   1.3521344085e+01    0.1211695    0.0985297 -10.91 0.0002038124    1.611    0.379
        37 -11.1256     53.2020     90.9931   8.9351649552e+01   5.2718221558e+01    0.3734319    0.2081427 -57.16  0.001428084    1.781    0.439
        38 -10.5584     42.7307     91.0946   9.3362077394e+01   5.3953916509e+01     0.402608    0.2373391 -28.89  0.001307696    1.846    0.458
        39  -9.3628    162.2110     83.8154   5.5157520717e+01   3.2786482134e+01    0.1990552    0.1768742  17.43 0.0005556627    1.317    0.240
        40 -10.6731     57.0577     76.2967   8.3671162244e+01   5.5442932472e+01    0.5049819    0.2823193  53.39  0.002031435    2.971    0.663
        41  -8.5584     41.9270     67.0000   8.6917743680e+01   5.9345081722e+01     0.199953   0.07415287  27.79 0.0004057471    2.813    0.644
        42 -11.0862     13.3907     59.9855   9.7503145397e+01   6.3498027167e+01    0.2538537    0.1976478 -49.92 0.0004276879    1.190    0.160
        43 -11.7123     57.7414    224.8981   1.0993569529e+02   1.9044372117e+01    0.5313486    0.3207413  79.02  0.002730122    1.841    0.457
        44 -13.8179     11.0604    232.3781   1.2037103306e+02   2.2568999136e+01    0.9616992    0.6561839  74.77  0.003307202    1.200    0.167
        45 -12.7610    223.1646     32.2820   3.3905506898e+01   2.6925344240e+01    0.5566844    0.4330806  51.21  0.001571242    1.653    0.395
        46  -9.3072     27.1508     51.9172   8.8588682358e+01   6.3956642904e+01    0.1718265    0.1556686 -15.22 0.0004030651    1.182    0.154
        47 -10.6166      2.0000     50.0030   1.0017335004e+02   6.6251408982e+01    0.3292645    0.0577779 -60.77  0.001051105    4.932    0.797
        48  -9.5461    127.1163     34.8551   4.8063706094e+01   4.8467810457e+01    0.2005729    0.1722278 -81.52 0.0004858068    1.300    0.231
        49  -9.8076    129.6905     29.2532   4.5759698172e+01   4.8527663368e+01      0.20956    0.1828968  89.81 0.0005538599    1.204    0.169
        50 -11.0780      8.5025     25.9952   8.8598897147e+01   7.0280203762e+01    0.2104232    0.1498175  27.93  0.001386326    1.679    0.404
        51  -9.8788    189.8231     15.3543   3.3380660784e+01   3.6057906518e+01    0.2081052    0.1478909 -55.22 0.0007956046    1.326    0.246
        52  -8.5165     89.2645    210.6769   1.0096195926e+02   1.7961569849e+01    0.1395368     0.100217  69.27 0.0004123872    1.560    0.359
