#   1 NUMBER                 Running object number                                     
#   2 MAG_AUTO               Kron-like elliptical aperture magnitude                    [mag]
#   3 X_IMAGE                Object position along x                                    [pixel]
#   4 Y_IMAGE                Object position along y                                    [pixel]
#   5 X_WORLD                Barycenter position along world x axis                     [deg]
#   6 Y_WORLD                Barycenter position along world y axis                     [deg]
#   7 A_WORLD                Profile RMS along major axis (world units)                 [deg]
#   8 B_WORLD                Profile RMS along minor axis (world units)                 [deg]
#   9 THETA_WORLD            Position angle (CCW/world-x)                               [deg]
#  10 FWHM_WORLD             FWHM assuming a gaussian core                              [deg]
#  11 ELONGATION             A_IMAGE/B_IMAGE                                           
#  12 ELLIPTICITY            1 - B_IMAGE/A_IMAGE                                       
         1  -8.6197     38.7611     17.4805   7.6580685488e+01   6.8370126690e+01    0.3074101    0.1463306 -38.65  0.001583958    2.121    0.529
         2  -8.0351     83.4322     11.2139   5.6778588289e+01   6.1334348722e+01    0.1670415    0.1151752 -33.44 0.0006008829    1.655    0.396
         3  -8.6690     55.5626      9.9731   6.5668397913e+01   6.6722757202e+01    0.1960047    0.1929237 -14.34 0.0008710826    1.479    0.324
         4  -8.0624     47.5289     10.0290   6.8976372137e+01   6.8029104285e+01    0.1723625    0.1069006 -26.83  0.001013499    1.574    0.364
         5  -8.7694     90.9190      8.6760   5.3604954594e+01   5.9995891079e+01    0.2430598     0.154298 -40.41 0.0006911026    1.941    0.485
         6  -7.9869    101.4025      8.1718   5.0780571198e+01   5.7737130231e+01    0.1603487    0.1180188 -34.26 0.0002770592    1.564    0.360
         7  -7.9770      5.6710      8.2955   8.9644467013e+01   7.3271997431e+01   0.09079614   0.08621263   4.21 0.0003371112    1.632    0.387
         8  -8.6176     33.4948      5.0436   7.2754684355e+01   7.0675042333e+01    0.2630523    0.1708922 -46.87  0.001489555    2.554    0.608
         9  -8.3770     79.0844      4.2494   5.4959163734e+01   6.2863497181e+01     0.203024    0.1504664 -34.11 0.0008528976    1.612    0.380
        10  -7.6040     99.2998      3.6685   4.9461684491e+01   5.8585060652e+01    0.1207802   0.09746983 -66.18 0.0004182192    1.647    0.393
        11  -7.8925     44.6025      2.8764   6.6531178338e+01   6.9273764846e+01    0.1539717    0.1000557 -31.42 0.0009368347    1.713    0.416
        12  -7.7658     15.7001      2.6923   8.0850213488e+01   7.3133198368e+01    0.1165055   0.06806962  -7.72 0.0003442274    1.597    0.374
        13  -8.3114     62.2900      1.5041   5.8998070335e+01   6.6368064149e+01    0.1972696    0.1112059  53.86 0.0003928302    1.829    0.453
        14  -7.4847     39.4325      1.4881   6.8057407024e+01   7.0216069345e+01    0.1183939    0.0916439   7.69 8.239925e-05    1.018    0.017
        15  -8.6442     58.6627    244.9054   1.1729354474e+02   1.6172590614e+01    0.2291532   0.07809939  60.04 0.0009050022    3.537    0.717
        16  -8.9667    210.8767    246.5940   8.7828966595e+01  -6.6994137038e+00    0.2235274    0.1641455 -54.11 0.0007768067    2.265    0.558
        17  -8.1792    191.3196    249.8241   9.1988451407e+01  -4.2902372698e+00    0.1571146    0.1529211  47.98 0.0007494884    1.440    0.306
        18  -8.1023    183.9643    250.4519   9.3481189920e+01  -3.2821707157e+00     0.190899   0.09950306  35.78 0.0006600202    1.579    0.367
        19  -9.2718    147.3400    246.3886   1.0006206433e+02   2.9679124089e+00    0.3587639    0.2129969  62.06  0.001757314    2.476    0.596
        20  -8.4290     93.8698    249.6953   1.1098554374e+02   1.0500788569e+01    0.2256825    0.1312053  71.20  0.001102255    2.063    0.515
        21  -8.9608      9.6594    243.8415   1.2603072423e+02   2.1957282463e+01    0.2723838   0.07573247  89.19  0.001076961    4.494    0.778
        22  -9.5139    248.5979    242.0645   8.0364776497e+01  -1.1221757339e+01    0.3208208    0.1811359 -29.62  0.001530585    1.726    0.420
        23  -8.9012    201.9266    243.4709   8.9011146167e+01  -4.9785606026e+00    0.1928452    0.1671344 -45.13 0.0007345148    1.593    0.372
        24  -8.5027    169.0268    243.4877   9.5368187633e+01   3.2876586710e-02    0.1949144    0.1770018 -87.78  0.000561545    1.533    0.348
        25  -8.7594    139.5568    243.3273   1.0121309600e+02   4.6902468186e+00    0.2719375    0.1240351 -50.17  0.001312011    2.609    0.617
        26  -9.3871     78.2710    243.4837   1.1342213979e+02   1.3831032481e+01    0.3597551    0.1611367  60.97  0.001681462    2.477    0.596
        27  -8.4165    213.9900    242.4883   8.6602117556e+01  -6.5987184508e+00    0.2045366    0.1680986 -40.89  0.001372044    1.637    0.389
        28  -8.6929    195.3916    243.3935   9.0238469995e+01  -3.9962334585e+00    0.2894533    0.1275459  32.37  0.001049149    1.968    0.492
        29  -9.4778    160.2687    240.6834   9.6702321286e+01   1.8507926933e+00    0.3495965    0.2476799 -79.59  0.001660073    2.520    0.603
        30  -9.4526    183.1277    240.1813   9.2110323262e+01  -1.6597051796e+00    0.3456518    0.2388333  60.11   0.00181401    2.234    0.552
        31  -8.1623    153.3696    242.1918   9.8293341885e+01   2.6994768753e+00    0.1581926    0.1213976 -68.01 0.0009438358    1.791    0.442
        32  -8.3856     88.2742    242.1083   1.1133082122e+02   1.2680763529e+01    0.1662144    0.1369498  77.80 0.0005794494    1.181    0.153
        33  -8.6399    240.5925    240.2510   8.1448225910e+01  -9.9685302473e+00    0.2396997   0.09608106 -31.01  0.001199436    2.483    0.597
        34  -8.4835    146.4261    240.2613   9.9422932350e+01   4.1174212272e+00    0.2763308    0.1643214  62.75  0.001166926    2.511    0.602
        35  -8.4030    193.9211    239.7003   8.9944844910e+01  -3.2458054135e+00    0.1737765    0.1327523  27.21 0.0004112076    1.102    0.093
        36  -7.7183    111.6616    240.3239   1.0646382609e+02   9.5462681565e+00    0.1326501   0.08350199  62.55 0.0007051088    1.721    0.419
        37  -9.1126    135.8235    239.1179   1.0141621290e+02   5.9942222443e+00    0.2443517    0.1555544  56.08  0.001233302    1.681    0.405
        38  -8.7224    129.0092    238.7485   1.0275364532e+02   7.1350739356e+00    0.2095918    0.1624215  84.40  0.001252918    1.629    0.386
        39  -9.2456    230.6626    236.8933   8.2646970873e+01  -8.2055973953e+00     0.275085    0.2170862 -50.08   0.00134397    2.060    0.515
        40  -8.0722    209.0066    238.3331   8.6860459707e+01  -5.3098813612e+00    0.1708666    0.1353737  17.88 0.0004795245    1.043    0.041
        41  -8.4328     25.6274    237.2778   1.2288079116e+02   2.1544304294e+01    0.3189436   0.08946191  63.05  0.001174234    4.489    0.777
        42  -9.8618    214.9648    233.4178   8.4938198139e+01  -5.5024750136e+00    0.4812174    0.3716023 -84.58  0.002375508    3.640    0.725
        43  -8.7368    203.0856    234.7032   8.7390378164e+01  -3.9137500299e+00    0.2331402    0.1753954 -51.68  0.001017756    1.911    0.477
        44  -9.8251    175.8091    233.4767   9.2522811038e+01   5.2414994439e-01    0.4384033     0.265388 -59.70   0.00216783    2.639    0.621
        45  -8.3212    170.2036    235.9945   9.4027764826e+01   1.0195802211e+00    0.1804752    0.1465607  86.14 0.0006502973    1.946    0.486
        46  -9.4366    109.1841    234.6293   1.0630221394e+02   1.0970159140e+01    0.5085674    0.2424667  56.43  0.001442207    2.360    0.576
        47  -9.1462    248.0392    234.4352   7.9178514543e+01  -1.0219308949e+01    0.2537632    0.1435104 -18.94  0.001041846    1.657    0.397
        48  -9.6825    246.6451    228.8546   7.8460589804e+01  -9.3312480848e+00    0.4856365    0.2063168 -28.01  0.002440787    2.298    0.565
        49  -8.2566    153.1534    235.1931   9.7350799080e+01   3.8891061745e+00    0.1739861    0.1420534  57.43 0.0006442849    1.356    0.263
        50  -8.5214    123.0075    234.3202   1.0341858159e+02   8.8727820049e+00    0.2269848    0.1621145  70.98 0.0009452245    1.674    0.403
        51  -8.3141     99.7898    234.6505   1.0822970075e+02   1.2392008536e+01    0.2393232    0.1455404  75.01  0.001219392    2.100    0.524
        52  -9.2516     78.5060    234.3467   1.1251320198e+02   1.5537180329e+01    0.2770529    0.1695937  80.22 0.0009077284    1.831    0.454
        53  -9.6414     67.9176    231.5992   1.1437624801e+02   1.7527327367e+01    0.5356905    0.2733956  82.38  0.002566251    2.517    0.603
        54  -8.6925    194.4964    232.9366   8.8755939624e+01  -2.3389780457e+00    0.1670174    0.1222349 -36.28 0.0004994324    1.528    0.346
        55  -7.9888    144.6984    233.3486   9.8818152923e+01   5.5705116214e+00    0.2003833     0.139534  63.41  0.001078002    1.798    0.444
        56  -8.7777    140.0634    230.2291   9.9337494723e+01   6.8713525188e+00    0.3792554    0.1898529  54.76  0.001395974    2.455    0.593
        57  -8.5789    132.6458    232.6708   1.0121148083e+02   7.6349126198e+00     0.248724    0.1650514  67.94  0.001259682    1.992    0.498
        58  -8.4764     92.3067    232.0229   1.0947221657e+02   1.4006681436e+01     0.300205    0.1604817  74.20  0.001156673    2.730    0.634
        59  -8.5869     37.1959    232.8082   1.2045581495e+02   2.1124578469e+01    0.2178649   0.08004858  63.11 0.0009579154    2.896    0.655
        60  -9.4099    186.3324    230.6662   8.9988258746e+01  -7.1186957807e-01    0.3182696    0.2413912 -75.77  0.001292966    2.481    0.597
        61  -8.4656    157.8444    232.0748   9.5939299326e+01   3.6535806352e+00    0.1921094    0.1480067  81.87 0.0007319382    1.985    0.496
        62  -8.9054    235.9921    230.5128   8.0614594787e+01  -8.1051450717e+00    0.2815138    0.1453524 -32.56  0.001212245    1.910    0.477
        63  -9.3703    151.4764    228.9871   9.6791446026e+01   5.2227314887e+00    0.3500018    0.2419262  87.92  0.001099039    2.641    0.621
        64  -9.3680    148.6691    224.6596   9.6732617528e+01   6.4494947287e+00    0.3553834    0.2614695 -82.92  0.001130982    2.056    0.514
        65  -8.8896      1.8133    230.9447   1.2679443501e+02   2.5181277092e+01    0.2090211     0.105355  73.42 0.0008564561    1.578    0.366
        66  -8.2455    229.6438    228.5927   8.1423028602e+01  -6.9600880655e+00    0.1963142    0.1058123 -34.09  0.001073536    1.876    0.467
        67  -8.0947    223.3771    227.7189   8.2415500733e+01  -5.9389853768e+00    0.1623989    0.1033027 -21.06 0.0009345193    1.544    0.352
        68  -8.8412    162.0561    227.8260   9.4435161649e+01   3.6825375629e+00    0.3046491    0.2088619  51.61  0.001245794    1.575    0.365
        69  -8.8912    128.0427    227.4736   1.0146978634e+02   9.3253991666e+00    0.2959372    0.1889548  60.11  0.001136678    1.778    0.437
        70  -8.3400    119.9566    227.6442   1.0319338871e+02   1.0593385569e+01    0.2424413    0.1663717 -87.75 0.0008344662    1.981    0.495
        71  -9.0976      8.0151    228.2327   1.2556587872e+02   2.5125222721e+01    0.1726546   0.08655128  72.07 0.0009285577    1.639    0.390
        72  -8.2785     49.0415    226.7401   1.1771493615e+02   2.0930913346e+01    0.2173087    0.1271401  84.04 0.0007826495    1.669    0.401
        73  -8.2395    200.1644    226.2178   8.6546150453e+01  -2.2109805864e+00    0.1581218    0.1478152  33.15 0.0004878872    1.323    0.244
        74  -9.0623     94.0547    224.1890   1.0823103800e+02   1.5286825583e+01    0.4051642    0.2181355  69.58  0.001819063    2.525    0.604
        75  -8.7706    180.5696    224.4184   9.0123374530e+01   1.2096910093e+00    0.2397764    0.1946809  47.24 0.0005966878    1.357    0.263
        76  -8.9904    104.8235    223.7388   1.0589700910e+02   1.3732113103e+01    0.3422902    0.2138902  76.45  0.001691289    2.112    0.526
        77  -8.0298     38.4399    224.9398   1.1965901253e+02   2.2562194522e+01    0.1702358   0.07728282  75.92 0.0008062143    2.430    0.589
        78  -8.9657    216.4493    223.5893   8.2988557307e+01  -4.3252780060e+00    0.2220829    0.2114121 -47.49    0.0010057    1.540    0.351
        79  -8.4973    173.0479    223.2798   9.1464580358e+01   2.6349308494e+00    0.2062538    0.1824144  82.56 0.0006347144    1.568    0.362
        80  -8.5293    113.9943    224.3006   1.0401942031e+02   1.2181881179e+01    0.1945267    0.1494463  49.73  0.001142976    1.138    0.121
        81  -7.8893     59.7241    223.9706   1.1533699931e+02   2.0147025900e+01    0.2303348   0.08302622  59.53 0.0008753907    3.416    0.707
        82  -9.3954    192.4856    221.4731   8.7248926818e+01  -2.5382906589e-01    0.2706125    0.2468485 -88.76 0.0008846494    1.639    0.390
        83  -9.2031    160.5927    221.4873   9.3749742140e+01   5.0192982612e+00    0.5860764    0.2781871  56.74  0.002095565    3.812    0.738
        84  -8.9152    140.3825    222.8954   9.8217270160e+01   8.1471317070e+00     0.227079    0.1629532  49.36 0.0006683323    1.320    0.242
        85  -9.0816    238.9311    221.1525   7.8459590421e+01  -7.2594695047e+00    0.3268531    0.1566021 -32.19  0.001256322    1.997    0.499
        86  -9.2493    225.5921    221.7460   8.0969553601e+01  -5.4234420090e+00    0.2253513    0.2096206  28.15 0.0009249261    1.433    0.302
        87  -8.6684    206.1037    226.2029   8.5398934127e+01  -3.1310848951e+00     0.244993    0.1710397 -39.60 0.0006350848    1.630    0.386
        88  -9.1240    210.1208    220.0496   8.3569521759e+01  -2.8323257581e+00    0.2868322    0.1996085 -36.11  0.001287045    1.538    0.350
        89  -9.2460    120.3447    219.2983   1.0199185776e+02   1.2134362284e+01    0.4497732    0.2384166  61.80  0.001864351    2.623    0.619
        90  -8.8216     82.5471    220.6065   1.1026000938e+02   1.7707412121e+01    0.3213479    0.1581665  59.48  0.001040517    2.194    0.544
        91  -8.3547     73.0301    220.5397   1.1225848992e+02   1.9068050333e+01    0.2668522    0.1415445  85.66  0.001236087    2.450    0.592
        92  -7.9552     27.5857    221.2483   1.2150850344e+02   2.4534643880e+01    0.1568957   0.09276022 -68.63 0.0009492366    1.687    0.407
        93  -8.2399    202.5264    219.9929   8.5023283117e+01  -1.6304291270e+00     0.177237    0.1232349 -36.65 0.0005557558    1.544    0.352
        94  -8.4207    248.4471    218.1112   7.6255375589e+01  -8.1650647788e+00    0.2777654    0.1893721  55.53  0.001464215    2.953    0.661
        95  -8.5669    179.1550    217.8521   8.9318935203e+01   2.5313383205e+00    0.1915992    0.1759147  51.12 0.0008797516    1.291    0.225
        96  -9.4848    132.9381    216.2379   9.8830380341e+01   1.0646065378e+01    0.4758132    0.2813955  71.22  0.001944428    3.031    0.670
        97  -8.5757     62.1683    217.4343   1.1422536667e+02   2.1184186206e+01    0.3545278    0.1464205  58.07  0.001532239    2.582    0.613
        98  -8.9826     51.4279    217.1570   1.1642939493e+02   2.2617749968e+01    0.2894482    0.1793388  82.73  0.001009519    1.553    0.356
        99  -8.7674    169.3369    216.3605   9.1094765131e+01   4.4416562779e+00    0.2731522    0.2328062 -79.76  0.001128309    1.639    0.390
       100  -8.6618    142.8804    216.5824   9.6736504383e+01   8.9030438585e+00    0.2480609    0.1821538 -81.88 0.0009379105    1.947    0.486
       101  -8.2793    111.8455    217.2544   1.0355461795e+02   1.3913361394e+01    0.2256587    0.1237204  67.17 0.0009350742    2.717    0.632
       102  -8.6763     18.5553    216.5451   1.2294842783e+02   2.6453880185e+01     0.206946   0.08794523  87.52  0.001027416    2.289    0.563
       103 -10.2666    230.0956    214.5217   7.8856548672e+01  -5.0542108582e+00    0.3436599    0.2237166  35.18  0.001995209    1.523    0.344
       104  -7.9508    154.2024    215.1645   9.4089409677e+01   7.2376389308e+00    0.1823307     0.156938  71.37 0.0006733892    1.407    0.289
       105  -8.9291     93.1606    214.1776   1.0723101304e+02   1.7465190043e+01    0.3660417    0.1888776  60.25  0.001442057    2.223    0.550
       106  -8.2212    185.5122    214.0806   8.7377954747e+01   2.1013788564e+00    0.1838705    0.1307858 -41.11 0.0007268071    1.543    0.352
       107  -9.5258     73.2232    212.2336   1.1134146033e+02   2.0786198526e+01    0.6450421    0.2374927  58.88  0.002235672    3.913    0.744
       108  -8.1182    224.9379    212.9299   7.9513075493e+01  -4.0475900005e+00    0.1690476    0.1619621 -80.39 0.0008199166    1.666    0.400
       109  -9.4432    213.9709    212.2834   8.1452454838e+01  -2.2523080929e+00    0.3520055    0.2519458  52.54  0.001858267    1.944    0.486
       110  -8.6359    161.6903    212.5096   9.2062141712e+01   6.4367392052e+00    0.2315475    0.2126144 -87.80 0.0006438945    1.358    0.264
       111  -8.2204    106.4774    213.0293   1.0416388056e+02   1.5629711109e+01    0.1852625    0.1314396 -68.90  0.001004861    1.546    0.353
       112  -9.2211    204.2531    210.9302   8.3082258321e+01  -4.8253435889e-01    0.2859486    0.2142715 -47.63 0.0007638295    1.658    0.397
       113  -9.4471    175.3857    210.0241   8.8756677051e+01   4.5206015466e+00    0.3762839    0.2745111  72.66  0.001286092    2.314    0.568
       114  -8.4498    192.2688    210.6267   8.5404175212e+01   1.5468084353e+00    0.2172351    0.1637342 -51.66  0.000644737    1.682    0.405
       115  -8.8239    148.0750    210.5442   9.4662867568e+01   9.1565355491e+00    0.2704894    0.2081458  81.41  0.001120221    1.813    0.448
       116  -9.1233    116.1954    210.3561   1.0164664015e+02   1.4603821336e+01    0.3565781     0.231394  68.21  0.001014859    1.917    0.478
       117  -8.3966     33.2023    211.1227   1.1966832408e+02   2.6044652338e+01    0.2620254    0.1047174  55.96  0.001242542    2.302    0.566
       118  -9.2386      6.5556    209.3106   1.2483205237e+02   2.9124741556e+01    0.3971703     0.122221  76.40   0.00143788    4.518    0.779
       119  -8.7170     85.5541    209.5450   1.0833742870e+02   1.9585486918e+01    0.3058137     0.164924  68.64  0.001005309    2.386    0.581
       120  -8.5328     46.5282    209.5650   1.1678057683e+02   2.4838272115e+01    0.2671166    0.1197181  73.94  0.001136672    2.829    0.647
       121  -8.3801    139.2982    208.2473   9.6213485016e+01   1.1119537163e+01     0.271856     0.187264  72.19 0.0008475511    2.067    0.516
       122  -9.5866    124.4149    206.3976   9.9231729381e+01   1.4040805902e+01    0.3622098    0.2338207  72.13  0.001654825    2.195    0.544
       123  -9.4083    246.4119    207.3497   7.4644670392e+01  -6.4027262945e+00    0.2584702    0.1881285 -25.53 0.0005880324    1.262    0.208
       124  -7.9429    156.4111    208.2005   9.2472164945e+01   8.1500101640e+00    0.1774134    0.1345761 -63.87 0.0007461664    1.663    0.399
       125  -9.2509     99.3010    206.0798   1.0483011633e+02   1.8224122679e+01    0.3852036    0.2411724  81.07  0.001737443    2.129    0.530
       126  -8.7301     11.4975    207.0194   1.2373576016e+02   2.9149408304e+01    0.1759784    0.0936066 -82.45  0.001030675    1.583    0.368
       127  -8.9262    183.8262    204.1063   8.5952774606e+01   4.1032207049e+00    0.3091657    0.2292015  64.82 0.0009885447    2.010    0.503
       128  -8.3105    108.9702    205.1767   1.0252570637e+02   1.6865677972e+01    0.2159294    0.1681848  67.87 0.0006592955    1.318    0.241
       129  -8.1695     92.2079    205.1826   1.0630808304e+02   1.9519648565e+01    0.1934582    0.1425452  70.10 0.0005803696    1.371    0.271
       130  -8.5898     55.9220    204.9349   1.1433589276e+02   2.4683772309e+01    0.2332603    0.1544386 -85.27  0.001135381    1.433    0.302
       131  -8.4448     24.8742    205.0634   1.2091716161e+02   2.8244069410e+01    0.2153536    0.1012866  71.94 0.0007446955    2.115    0.527
       132  -9.3751    250.1335    202.3223   7.3067597544e+01  -6.2208614651e+00    0.4140383    0.1774094 -38.93  0.001973867    2.300    0.565
       133  -9.2228    245.3414    193.4688   7.2204474132e+01  -4.2337573442e+00    0.3654873    0.2796056 -66.97  0.001694667    2.674    0.626
       134  -9.4351    194.9904    203.4829   8.3560412635e+01   2.2892457057e+00    0.3997851    0.2805489 -34.37  0.000976703    1.458    0.314
       135  -9.2591    192.3650    197.3221   8.2942304354e+01   3.8066345705e+00    0.3012733    0.2608833 -55.99  0.001013643    1.461    0.315
       136  -9.6654    163.8208    203.0035   8.9980921927e+01   7.8217312857e+00    0.4314585    0.2914924  61.01  0.001137668    1.996    0.499
       137  -8.7422    131.0710    203.9386   9.7358789449e+01   1.3404036233e+01    0.2729505     0.204251  65.18 0.0008651282    1.519    0.342
       138  -7.6982     66.6491    203.2920   1.1180517580e+02   2.3634792208e+01    0.1404172   0.08405516  64.39 0.0005741168    1.674    0.403
       139  -9.0801    236.4096    208.3318   7.6585033311e+01  -5.0927631324e+00    0.2704702    0.2279969 -55.29  0.001075346    1.871    0.465
       140  -9.1565    243.0772    200.7768   7.3993509805e+01  -4.9762308793e+00    0.3036545    0.1644836 -36.32 0.0009443262    1.767    0.434
       141  -7.9179    227.2756    202.3554   7.7123880249e+01  -2.8151245837e+00    0.1350881   0.08832086  -4.23 0.0006483255    1.649    0.393
       142  -8.3963    210.9098    202.1187   8.0164662456e+01  -1.5370046961e-01    0.1847559    0.1810546  45.28 0.0005194437    1.373    0.272
       143  -9.0239    140.5992    201.0577   9.4754512347e+01   1.2323052372e+01     0.392848    0.2598296  73.27  0.001730006    2.374    0.579
       144  -8.6742     80.0122    201.2395   1.0856580017e+02   2.2207954290e+01    0.3251537    0.1842771  75.89  0.001384368    2.286    0.563
       145  -8.3437     48.2047    201.9918   1.1572829440e+02   2.6294456856e+01    0.2194953     0.116429  75.28  0.001063291    2.047    0.511
       146  -7.9192    221.9809    201.2284   7.7892540485e+01  -1.8058482390e+00    0.1737025    0.1379485 -46.80  0.000674366    1.599    0.374
       147  -9.3054    237.0062    198.6325   7.4656453696e+01  -3.7492374322e+00    0.2966672    0.1673564 -41.16  0.001115397    1.886    0.470
       148  -9.5889    149.4119    198.2737   9.2311993506e+01   1.1311154470e+01    0.4741556    0.3010761 -70.78  0.001352208    2.429    0.588
       149  -8.9838    123.9163    199.2050   9.8229741189e+01   1.5618768729e+01    0.3336087    0.2309296 -87.72  0.001512142    2.006    0.501
       150  -9.3308    112.7372    198.4053   1.0067214608e+02   1.7688152846e+01     0.486751    0.2700199  64.24  0.001789206    2.525    0.604
       151  -9.2452     88.6663    198.4577   1.0623238995e+02   2.1533964163e+01    0.4123856    0.2482951  83.74  0.001454825    2.193    0.544
       152  -8.7423    177.0011    198.8954   8.6427296829e+01   6.2393164916e+00    0.2371159    0.2006082 -39.51 0.0007843571    1.269    0.212
       153  -8.3369    202.1276    197.7045   8.1050002252e+01   2.0516940398e+00    0.2205999     0.178168 -42.66 0.0006083705    1.397    0.284
       154  -9.1815     61.5006    197.2048   1.1228827605e+02   2.5683320975e+01    0.4026148    0.2184414  72.92  0.001530932    2.160    0.537
       155  -8.1093     29.5914    197.8044   1.1937177506e+02   2.9343573413e+01    0.1761915   0.09618629  87.43 0.0009369144    1.704    0.413
       156  -7.7573     23.3032    198.6551   1.2076853313e+02   2.9807372769e+01    0.1311063   0.07104345  68.17 0.0007040093    1.686    0.407
       157  -8.3804     12.4386    197.1719   1.2291911607e+02   3.1188192520e+01    0.2829927   0.09341528 -88.06  0.001146015    3.231    0.690
       158  -8.6859    215.8532    195.6020   7.7974900982e+01   8.9633374059e-02    0.2425566    0.1720428 -52.66 0.0008527296    1.913    0.477
       159  -8.2708    133.0669    196.0453   9.5622911953e+01   1.4683147453e+01    0.2218239    0.1662634  73.28 0.0006437388    1.668    0.400
       160  -7.8765     53.3805    196.2190   1.1401185672e+02   2.6949872799e+01    0.1830763    0.1079643 -87.53 0.0005078583    1.700    0.412
       161  -7.8589     36.2731    196.6515   1.1783487957e+02   2.8874892308e+01    0.1322277   0.07692336  70.91 0.0003812155    1.628    0.386
       162  -8.6498    224.5304    194.0134   7.6035230780e+01  -1.0754617940e+00    0.2966104    0.1937874 -46.78  0.001183172    1.848    0.459
       163  -8.8921    185.1198    194.8426   8.3966568448e+01   5.5296696124e+00    0.2469907    0.2248141 -67.23 0.0007117908    1.411    0.291
       164  -8.9496    160.6422    194.1507   8.9088066106e+01   1.0091966049e+01    0.2881849    0.2351282 -89.58 0.0007915578    1.695    0.410
       165  -9.0389     43.8577    193.5710   1.1587848277e+02   2.8704539687e+01    0.4298879    0.2032182  70.35  0.001897573    2.508    0.601
       166  -8.1699    230.7159    194.2062   7.4937093824e+01  -2.0955806198e+00    0.1925274    0.1530955 -38.97 0.0005870073    1.412    0.292
       167  -8.8179     76.8665    193.8205   1.0836103894e+02   2.4328101531e+01    0.2448175    0.1821483 -83.98 0.0006005602    1.325    0.245
       168  -8.4872    198.8341    191.8579   8.0584569470e+01   3.6300866991e+00    0.2390854    0.1812373 -39.85 0.0007546149    1.383    0.277
       169  -8.0845    178.9857    191.7694   8.4672356436e+01   7.2008008990e+00    0.2398655     0.180749 -56.07 0.0006453514    1.623    0.384
       170  -8.4280    172.3470    191.9412   8.6125448895e+01   8.3794142937e+00    0.2429537    0.1962656  63.07 0.0008075625    1.551    0.355
       171  -9.1690    139.5017    190.7482   9.3238170441e+01   1.4637655545e+01    0.3482697    0.2587524  81.13  0.001129955    1.862    0.463
       172 -10.5000     92.0020    188.7195   1.0409935279e+02   2.3210668042e+01      1.02479    0.2915226  48.31  0.003185727    3.918    0.745
       173  -8.3224     90.4964    181.9962   1.0346946794e+02   2.4997517333e+01    0.2953151    0.2176091 -22.60  0.001427472    2.041    0.510
       174  -8.3539      6.4605    190.9601   1.2374733717e+02   3.3092036147e+01    0.1747051   0.07184163  75.69 0.0006314425    2.461    0.594
       175  -8.5630    148.6642    189.5356   9.0926717058e+01   1.3214471015e+01    0.2346855    0.1802708 -79.16 0.0009088571    1.752    0.429
       176  -9.0030    129.2865    188.6263   9.5238422863e+01   1.6930462018e+01    0.3349392    0.2433183  89.21 0.0009168174    1.876    0.467
       177  -8.9289    216.5531    187.9236   7.6340857496e+01   1.2404565335e+00    0.2643442    0.2103259 -43.65  0.000743731    1.428    0.300
       178  -7.6024    210.2958    189.6586   7.7887341972e+01   2.0166415931e+00    0.1251054     0.111891 -78.14 0.0003682385    1.661    0.398
       179  -9.2520    155.8523    187.5091   8.8927131540e+01   1.2298167216e+01    0.3647378    0.2249231 -59.10 0.0009451615    2.009    0.502
       180  -9.8404    120.8173    186.6676   9.6900860056e+01   1.8861399227e+01    0.5463596    0.3120673 -75.61  0.002142834    2.731    0.634
       181  -8.6267     34.0972    188.0591   1.1754413603e+02   3.1063172316e+01     0.302176     0.144843  72.28  0.001209893    2.338    0.572
       182  -8.5113    237.1807    187.8571   7.2537203120e+01  -2.1257889340e+00    0.2676446    0.1549886 -26.91 0.0009297314    1.608    0.378
       183  -9.3444    109.6861    186.3172   9.9498655680e+01   2.0864725812e+01    0.4201044    0.2688848  75.86  0.001228995    2.197    0.545
       184  -9.1622     54.6547    187.1654   1.1274304203e+02   2.8865818135e+01    0.3817153    0.2064392  67.48  0.001607998    2.057    0.514
       185  -7.8541    230.5216    187.5026   7.3660668687e+01  -1.0065840635e+00    0.1318615    0.1149359  -8.63 7.748999e-05    1.072    0.067
       186  -8.8274    164.7683    186.6659   8.6778306044e+01   1.0805610664e+01    0.2620196    0.2310892 -74.83 0.0007705805    1.395    0.283
       187  -9.1536    249.1927    185.6006   7.0015087659e+01  -3.6321636527e+00    0.2510675    0.1876088 -29.19  0.000838107    1.221    0.181
       188  -8.5242    182.9931    185.2444   8.2557359676e+01   7.6898256470e+00    0.2283129    0.1957269 -52.15 0.0005605975    1.344    0.256
       189  -8.5399    210.0847    184.4522   7.6894356219e+01   2.9443731786e+00    0.2302916    0.1843284 -47.76 0.0004810013    1.464    0.317
       190  -8.7067    202.9923    184.9887   7.8398277107e+01   4.1023581091e+00    0.2500637    0.2172716 -89.89 0.0008602126    1.735    0.424
       191  -9.0441     66.4674    184.6438   1.0965239020e+02   2.7905893545e+01    0.3349635    0.2037605  69.72  0.001125642    1.809    0.447
       192  -8.2189    224.1441    183.6311   7.4058852533e+01   6.7269075772e-01    0.2264496    0.1630665 -38.14 0.0006048435    1.396    0.284
       193  -8.8231    174.1882    183.6302   8.4125439798e+01   9.6387575299e+00    0.2768362    0.2238466 -76.63 0.0008991242    1.737    0.424
       194  -9.0102     44.2417    182.3137   1.1464852915e+02   3.1258746048e+01    0.3282281    0.1841334  78.46 0.0009848682    1.918    0.479
       195  -8.1679     19.8476    182.8741   1.2028088129e+02   3.3699745325e+01    0.3119131    0.1136595  78.43  0.001091809    4.155    0.759
       196  -7.9332      1.8081    183.6504   1.2425381940e+02   3.5106688871e+01    0.1610732   0.08574732  46.56 0.0009433615    1.776    0.437
       197  -9.5128    190.3172    186.5516   8.1283096448e+01   6.1036975048e+00    0.4224472    0.3254735  87.98  0.002002738    2.304    0.566
       198  -9.2267    147.5196    180.7872   8.9561339281e+01   1.5251571021e+01    0.3512964    0.2682561  82.65  0.001127612    1.824    0.452
       199  -7.7167     83.2787    182.6109   1.0532017672e+02   2.5966169312e+01     0.148837   0.09879237  75.77 0.0006999871    1.735    0.424
       200  -9.6635     25.4750    178.8001   1.1866040812e+02   3.4096202983e+01    0.6808138    0.2627502  79.46  0.002439457    3.934    0.746
       201  -8.2321    240.3984    180.2433   7.0459264078e+01  -1.4408510164e+00     0.182151    0.1124733 -41.18 0.0008716867    1.645    0.392
       202  -8.6233    137.7171    179.4956   9.1612626278e+01   1.7367404225e+01    0.2880645    0.2192265  88.93  0.001176884    1.765    0.433
       203  -8.8070    205.0877    177.8822   7.6542722205e+01   4.9889015748e+00    0.2990668    0.2213473 -47.64 0.0009542162    1.515    0.340
       204  -9.2963    191.6480    178.5007   7.9391332862e+01   7.3476787049e+00    0.2981645    0.2501128  65.12 0.0008438377    1.560    0.359
       205  -8.3177    169.1718    178.6945   8.4244679485e+01   1.1562561078e+01    0.2426713    0.1986616 -55.68 0.0007519389    1.381    0.276
       206  -9.1681     36.2182    177.1941   1.1600366222e+02   3.3362386379e+01    0.5310033    0.2237705  79.24  0.001935962    3.638    0.725
       207  -9.4874    248.3950    176.3128   6.8304127566e+01  -2.0865574307e+00    0.4273342    0.2292852 -46.47  0.002043941    2.193    0.544
       208  -8.5041    250.5684    172.7448   6.7223125751e+01  -1.8707656828e+00    0.2094675    0.1708958 -32.02 0.0004695329    1.209    0.173
       209  -8.5838    217.9032    177.5063   7.3985293531e+01   2.7722039414e+00     0.245411    0.1857923 -49.90 0.0008152848    1.582    0.368
       210  -8.7634    129.1654    177.5666   9.3295657218e+01   1.9376312600e+01    0.3033884    0.2252253  85.69 0.0009259226    1.795    0.443
       211  -8.2572     97.0808    177.9587   1.0122166395e+02   2.4885256895e+01    0.2244995    0.1784032 -16.04  0.001126945    1.763    0.433
       212  -8.6293    231.0957    176.9352   7.1435379517e+01   6.1124387628e-01    0.2352825    0.1734208 -30.86 0.0006292329    1.242    0.195
       213  -8.8978    183.0720    176.0949   8.0699585939e+01   9.4202376230e+00    0.3026959    0.2293422 -55.20  0.000486492    1.557    0.358
       214  -9.6806    104.2285    174.7902   9.8921738596e+01   2.4435888824e+01    0.5490829    0.3366084  72.91  0.001690299    2.379    0.580
       215  -8.8745     89.0213    176.8625   1.0304893281e+02   2.6433464502e+01    0.2908918    0.2154924  83.13 0.0009180563    1.477    0.323
       216  -9.9873     57.1364    172.6296   1.1039997122e+02   3.1991617888e+01    0.9650009    0.4383472  88.56  0.003322734    3.753    0.734
       217  -9.2315     12.3907    176.3258   1.2142624872e+02   3.5883328059e+01    0.3274412    0.1520498  77.14  0.001247859    2.196    0.545
       218  -7.4184    211.6899    176.3317   7.4931907746e+01   4.0748690135e+00    0.1307176    0.1139434 -76.63 0.0007042334    1.671    0.402
       219  -9.2119    158.9124    175.1617   8.5840588235e+01   1.4256278149e+01    0.3986326    0.2808638  75.78  0.001289926    2.273    0.560
       220 -10.8159     75.8655    170.2741   1.0535483916e+02   3.0001604618e+01     1.257969    0.4858276 -75.76  0.003703406    4.614    0.783
       221  -8.4837    224.2978    174.0509   7.2080869629e+01   2.2489166655e+00    0.2758069    0.1559968 -42.53  0.000897247    1.782    0.439
       222  -8.2359     53.0323    174.5409   1.1165322679e+02   3.2047731616e+01    0.1794428    0.1280573  38.00 0.0003249433    1.477    0.323
       223  -9.5878    175.9054    172.1753   8.1435475582e+01   1.1567639203e+01    0.3971558    0.2680522 -43.09   0.00104023    1.505    0.335
       224  -8.2816    143.0521    172.8055   8.9064122375e+01   1.7815385852e+01    0.2593167    0.1946978 -70.68 0.0007571842    1.639    0.390
       225  -8.6386    134.8004    171.9536   9.0874726779e+01   1.9574786243e+01    0.2638126    0.2105008 -82.98 0.0008711991    1.534    0.348
       226  -9.8246    121.4124    170.1289   9.3806574810e+01   2.2482326172e+01    0.5785491    0.3149556 -61.07  0.001184439    2.067    0.516
       227  -9.1141     44.9633    170.8875   1.1320178213e+02   3.3888703586e+01    0.4068536    0.2192148  84.35  0.001406216    2.133    0.531
       228  -8.5562    205.9692    170.4623   7.4826120327e+01   6.1650024053e+00    0.2593561    0.1927799 -51.81 0.0007134302    1.581    0.368
       229  -8.4034    198.5223    170.3053   7.6281312549e+01   7.5866174225e+00    0.2393318    0.2003609 -54.79 0.0005387192    1.415    0.293
       230  -8.5451    237.1320    169.6786   6.8877159884e+01   7.9340605050e-01    0.2284561    0.1647135 -39.08 0.0006025407    1.360    0.265
       231  -8.7023    230.6455    169.9369   7.0075947243e+01   1.8487136239e+00    0.2433828     0.199464 -11.74 0.0008467437    1.100    0.091
       232  -7.5703    229.3101    166.6304   6.9624735648e+01   2.6364182623e+00    0.1327002    0.1079476 -64.49 0.0007035491    1.766    0.434
       233  -8.6324    149.7784    169.4926   8.6811287871e+01   1.7233150911e+01    0.2825131    0.2317201 -88.41 0.0007451298    1.558    0.358
       234  -8.5028    244.3908    169.2292   6.7539619364e+01  -3.3035904651e-01    0.1840975    0.1109414 -42.23 0.0005545486    1.656    0.396
       235  -8.5706    218.8446    168.3420   7.1903543069e+01   4.1928648900e+00    0.2297133    0.1780778 -41.10 0.0005892483    1.318    0.241
       236  -9.1529    167.1127    168.5822   8.2633903732e+01   1.4017998356e+01    0.3647976    0.2575794  68.82   0.00124714    2.068    0.516
       237  -8.7715    111.9147    167.9681   9.5783446715e+01   2.4698092023e+01    0.3742241    0.2402958  71.51  0.001553143    2.197    0.545
       238  -8.5715     88.7930    168.7472   1.0181269079e+02   2.8404110603e+01    0.2714128    0.1761814  85.54  0.000962408    1.991    0.498
       239  -8.0071    211.5724    167.8533   7.3182515419e+01   5.6013488086e+00    0.2033528    0.1279922 -47.55 0.0009528057    1.741    0.426
       240  -9.0546    191.9877    166.9075   7.6899445434e+01   9.4769312313e+00    0.3187762     0.202911 -47.39 0.0006614365    1.666    0.400
       241  -8.6973    184.8815    166.2069   7.8241953614e+01   1.0996346781e+01     0.400615    0.1942384 -50.10  0.001082716    2.358    0.576
       242  -9.9236    136.8770    164.6230   8.8915032673e+01   2.0817997406e+01    0.6889625    0.3391815  57.52  0.002345613    2.999    0.667
       243 -10.1267     95.0313    163.0897   9.9237230814e+01   2.8759072255e+01    0.8673063    0.4712977  77.25  0.002750262    4.048    0.753
       244  -9.1533     20.6474    166.2757   1.1864256049e+02   3.7500742058e+01    0.3457315    0.1595119  60.61  0.001622104    2.329    0.571
       245  -7.9251    250.7966    165.0500   6.5618148931e+01  -6.9747804851e-01    0.1797662   0.09058839 -35.68 0.0008581646    1.723    0.419
       246  -8.3300    233.8550    164.9026   6.8455858443e+01   2.1410299901e+00    0.2470843    0.1633272 -38.07 0.0008378399    1.411    0.291
       247  -8.5947    159.4067    164.4819   8.3526240103e+01   1.6405607966e+01    0.2599974    0.2345717 -58.19 0.0004928313    1.193    0.162
       248  -9.4155     33.5548    163.5655   1.1519930452e+02   3.6899599868e+01     0.537412    0.2093618  54.87  0.002165385    2.992    0.666
       249  -8.3268    239.9966    164.0340   6.7210761142e+01   1.2401077825e+00     0.196547    0.1643729 -64.61  0.000704631    1.710    0.415
       250  -8.5850    213.0238    163.7908   7.2038001446e+01   6.0628332438e+00    0.2463447    0.1888657 -36.23 0.0005716934    1.245    0.197
       251  -8.7740    246.0309    163.0487   6.5989555379e+01   3.9643959973e-01     0.203379    0.1705793 -20.01 0.0004614246    1.020    0.019
       252  -8.5236    204.9025    162.7430   7.3389829722e+01   7.7812596548e+00    0.2673542    0.1983679 -44.20 0.0005253954    1.381    0.276
       253  -9.4048      3.3438    162.4388   1.2241904646e+02   3.9836318169e+01    0.3722448    0.1671015  57.22   0.00188065    2.248    0.555
       254  -9.1118    177.5789    160.9377   7.8677568079e+01   1.3496531039e+01    0.3471685     0.268398 -81.28 0.0009324552    1.931    0.482
       255  -8.9857    151.5561    161.0947   8.4643551292e+01   1.8704755887e+01    0.3246576    0.2506664 -80.22 0.0008474253    1.742    0.426
       256  -8.7888     60.6583    160.2865   1.0781184508e+02   3.4544365378e+01    0.3622891    0.2118331  76.37  0.001367905    2.178    0.541
       257  -8.0270    242.2778    159.7006   6.5917195469e+01   1.5685042649e+00    0.2065942    0.1545809 -29.38 0.0004388336    1.162    0.140
       258  -8.6278    245.2989    158.7007   6.5204170546e+01   1.2243556656e+00    0.2018235    0.1541649 -28.25 0.0004140039    1.127    0.113
       259  -9.8341    250.1602    157.8450   6.4231235240e+01   5.5701234515e-01    0.3392075    0.1792844 -36.05 0.0008141216    1.636    0.389
       260  -8.8890    246.5585    155.5102   6.4327188557e+01   1.5344852333e+00    0.2405433    0.1742385 -31.50 0.0005320309    1.192    0.161
       261  -8.5357    237.3233    159.1974   6.6651597131e+01   2.4987899196e+00     0.247934    0.1531875 -41.13 0.0008468743    1.537    0.350
       262  -8.6191    227.4987    159.1977   6.8373115923e+01   4.2292926495e+00    0.3124449     0.198934 -53.68  0.001025513    2.022    0.505
       263  -9.7440    106.0086    157.7954   9.5388941410e+01   2.8159262260e+01    0.5778936    0.3895621 -80.18  0.001568552    1.892    0.472
       264  -8.5990    128.1691    158.9166   8.9909152015e+01   2.3799477513e+01     0.297765    0.2252288  85.69 0.0009747061    1.742    0.426
       265  -8.3102    196.7425    158.0076   7.3990897355e+01   1.0254388641e+01    0.2180644    0.1951173 -60.80 0.0006853456    1.315    0.240
       266  -8.0670    188.1236    157.8842   7.5746004521e+01   1.1990716881e+01    0.2181716    0.2020479 -65.76 0.0005336014    1.257    0.204
       267  -9.1513    167.5984    157.3303   8.0106103575e+01   1.6262027344e+01    0.3447392    0.2735728 -88.88  0.001009181    1.776    0.437
       268  -8.1092     79.5288    158.4696   1.0252654989e+02   3.2337522661e+01    0.2319414     0.188872  -7.69  0.001126352    1.672    0.402
       269  -9.5235     81.8339    155.1451   1.0133966561e+02   3.2805453494e+01    0.4999735    0.2983051  69.05  0.001452334    2.304    0.566
       270  -8.3743    218.0204    156.6204   6.9545373175e+01   6.4195005899e+00    0.2682936    0.1803811 -49.86 0.0007166684    1.665    0.399
       271  -8.9824    157.4963    156.0343   8.2147434127e+01   1.8601715596e+01    0.3285623    0.2305614 -58.17 0.0008783673    1.619    0.382
       272  -9.5312    119.4850    155.1808   9.1357520819e+01   2.6323325024e+01    0.4505487     0.302502 -79.45  0.001618635    2.074    0.518
       273  -9.4970     49.8545    155.6264   1.1000474315e+02   3.7040264634e+01    0.4569295    0.2500727  68.88  0.001825038    2.310    0.567
       274  -9.1850     22.9319    156.2961   1.1708547176e+02   3.9683968198e+01    0.3122197     0.156487 -40.85  0.001416414    2.775    0.640
       275  -8.4116    242.8711    155.1200   6.4851974355e+01   2.2239946822e+00     0.195479    0.1686221 -38.19 0.0003923995    1.201    0.167
       276  -7.6844    204.6069    155.5154   7.1867790525e+01   9.1847924757e+00    0.1449033    0.1325718 -23.52 0.0001312988    1.043    0.041
       277  -8.7199    144.4878    154.8351   8.4994707650e+01   2.1509457425e+01    0.2946381    0.2394752  78.17 0.0007464526    1.527    0.345
       278  -9.6331    132.8385    153.0286   8.7492846401e+01   2.4247556127e+01    0.4988859    0.3744924  82.11  0.001468206    1.805    0.446
       279  -9.4631    133.5007    148.0664   8.6241199856e+01   2.5258901006e+01    0.3829155    0.2520985 -48.28  0.001534022    1.515    0.340
       280  -9.6582     68.1829    153.8273   1.0481013633e+02   3.5128367763e+01    0.4856712    0.2925535  78.18  0.001507497    2.230    0.551
       281  -8.3213    232.9326    153.9928   6.6297203783e+01   4.1519031052e+00    0.2088126    0.1667935 -64.77 0.0006614232    1.735    0.424
       282  -9.2635    239.7610    153.0366   6.4927670111e+01   3.1083596260e+00    0.5289498     0.108371 -37.03  0.001528019    4.456    0.776
       283  -8.0710    237.4707    150.4829   6.4764786775e+01   3.9419479676e+00    0.1946004    0.1273949  30.99 1.943301e-05    1.719    0.418
       284  -8.0794    151.6040    152.7862   8.2824392755e+01   2.0516333690e+01    0.2159822    0.1464924 -57.89 0.0006469421    1.656    0.396
       285  -8.7007     20.1925    152.8366   1.1741892702e+02   4.0763143732e+01    0.1935066     0.145124  79.55 0.0005241588    1.216    0.177
       286  -8.7201      9.6073    153.3775   1.2014320835e+02   4.1499119594e+01    0.2463611    0.1271807  14.17  0.001242502    2.800    0.643
       287  -8.1835    182.3261    151.4407   7.5536314438e+01   1.4453087741e+01    0.2500909    0.1823601 -61.62 0.0008866362    1.719    0.418
       288  -8.9512     98.4364    150.9015   9.6066290235e+01   3.1147037696e+01     0.362818    0.2486538  86.80  0.001075364    1.975    0.494
       289  -9.5953     29.2849    150.5820   1.1480430154e+02   4.0483387059e+01    0.4911655    0.2260994  71.23  0.001955838    3.066    0.674
       290  -9.6966    248.7955    149.5851   6.2714708354e+01   2.1265447162e+00    0.3432877    0.1888535 -37.26 0.0008393231    1.573    0.364
       291  -8.8169    189.3825    150.4361   7.3814159724e+01   1.3206339473e+01    0.2879567    0.2401972 -66.85 0.0006285136    1.476    0.323
       292  -8.1683    162.8865    150.9315   7.9754367444e+01   1.8588126546e+01     0.238793    0.1913652 -89.85 0.0009359135    1.695    0.410
       293  -8.5085    243.1275    149.7736   6.3671719583e+01   3.0681085096e+00    0.2486781    0.1591523 -42.04 0.0008931619    1.471    0.320
       294  -7.9291    213.0181    149.9451   6.9010166234e+01   8.5824966520e+00    0.1729935    0.1550378 -22.09 0.0004102648    1.019    0.019
       295  -8.3163    198.8636    149.0802   7.1567176066e+01   1.1545329275e+01    0.2201777    0.1987532 -63.37 0.0005556637    1.290    0.225
       296 -10.0732     89.1283    146.2526   9.7707095691e+01   3.3846733098e+01    0.7367247    0.4011946 -80.47  0.002593363    3.040    0.671
       297  -8.5237     88.3320    138.3238   9.6349576573e+01   3.5937147073e+01    0.3832969    0.2353593  -3.35  0.001298726    3.705    0.730
       298  -8.8200     51.4977    149.4889   1.0868312914e+02   3.8366035137e+01    0.2204869    0.1404739  11.43  0.001034687    2.294    0.564
       299  -9.9236     40.0553    148.0999   1.1160580782e+02   4.0006558725e+01    0.4889932    0.2341948  59.61  0.002051147    2.646    0.622
       300  -8.9410    233.1770    147.6589   6.4881757972e+01   5.1966154976e+00    0.2769528    0.1804007 -29.49  0.000817495    1.408    0.290
       301  -8.7080     77.9253    146.9524   1.0095110716e+02   3.5429267016e+01     0.322211    0.2022721 -78.82 0.0008472477    1.851    0.460
       302 -10.3505     55.0469    144.9748   1.0701063760e+02   3.9059466227e+01    0.8111205     0.403571  69.77  0.002631744    3.462    0.711
       303 -10.1821     56.0547    136.1742   1.0527164584e+02   4.1136580055e+01    0.5858707     0.281236  11.45  0.001969866    4.372    0.771
       304  -8.4496    223.2348    146.8741   6.6449406817e+01   7.1803289463e+00    0.2069069      0.18187 -43.47 0.0004547547    1.183    0.155
       305 -10.3214    148.9395    144.8673   8.1675454605e+01   2.2821285039e+01    0.6058805    0.4128137 -78.95  0.001452507    2.373    0.579
       306 -10.1395    139.0996    144.9667   8.4130723499e+01   2.4834993408e+01    0.5468597    0.3551757 -73.02  0.001265585    2.315    0.568
       307  -9.2020     13.1229    146.2437   1.1855909399e+02   4.2938007489e+01    0.3177573    0.1617385  64.95  0.001168681    2.192    0.544
       308  -7.9024    206.7673    146.3856   6.9401743725e+01   1.0472491760e+01    0.2011239    0.1737876 -36.38 0.0006112594    1.109    0.098
       309  -8.2785    175.2568    146.1831   7.5871530717e+01   1.6999315607e+01    0.2074452    0.1820864 -76.69  0.000643447    1.367    0.269
       310  -9.0175    240.3575    145.2573   6.3154635850e+01   4.3134182685e+00    0.2164333     0.189605 -33.76 0.0004481026    1.104    0.094
       311 -10.0267    242.7094    143.3474   6.2357292557e+01   4.2171968502e+00    0.5333524    0.2115459 -28.65  0.001957874    2.906    0.656
       312  -9.9707    125.1482    142.8913   8.7240521100e+01   2.8125999506e+01    0.5955862    0.4047053 -87.06   0.00175693    2.344    0.573
       313  -9.7695     69.7765    134.1042   1.0088013947e+02   3.9827725077e+01     0.413659     0.276792   0.02  0.001638408    2.376    0.579
       314 -10.8181     69.1303    141.6110   1.0246194630e+02   3.8041627622e+01    0.6946056    0.4887224 -87.40  0.003390182    1.599    0.374
       315 -10.1504      2.8266    141.5016   1.2076939962e+02   4.4817682365e+01    0.6488773    0.2321469 -84.38  0.002668952    2.691    0.628
       316  -8.1495    235.3527    143.2943   6.3558249788e+01   5.5513788618e+00    0.1413805    0.1023366   1.89 0.0002944822    1.684    0.406
       317  -7.5443    193.7354    143.7048   7.1372937627e+01   1.3636459849e+01    0.1469864    0.1144513  -4.02 0.0003042183    1.509    0.337
       318 -10.4094    106.8558    143.8004   9.2332010991e+01   3.1386157432e+01    0.9081444    0.6150306 -75.28  0.002080156    1.840    0.456
       319  -8.4344    182.0981    141.8912   7.3382898746e+01   1.6435840574e+01    0.2343562    0.2041806 -73.09 0.0005666548    1.372    0.271
       320  -8.4745    250.4788    140.9972   6.0620990695e+01   3.2478929852e+00    0.2049721    0.1149368 -36.04 0.0005969361    1.522    0.343
       321  -8.9196    238.4770    140.4980   6.2426717668e+01   5.4603467499e+00    0.1390631    0.1209843 -29.15 6.432938e-05    1.032    0.031
       322  -9.8877     23.3969    138.0956   1.1487754773e+02   4.4081579666e+01    0.5558525    0.2801081  73.89   0.00211261    2.567    0.610
       323  -7.6944    218.6174    138.8050   6.5466380168e+01   9.5241214584e+00    0.2033892    0.1251163 -45.35 0.0004872711    1.594    0.373
       324  -8.5791    172.3986    138.4069   7.4677850108e+01   1.9225273694e+01    0.3177955    0.2288876 -81.77 0.0007148275    2.211    0.548
       325  -8.9564    165.4190    144.1537   7.7613578925e+01   1.9503848738e+01    0.2725499    0.2443979  68.11   0.00057274    1.252    0.201
       326  -8.4320    207.6462    138.1744   6.7351892831e+01   1.1838947884e+01    0.2309806    0.1739064 -52.52 0.0005737139    1.438    0.304
       327  -8.5637    197.5477    137.5154   6.9161513545e+01   1.4050096308e+01    0.3036059    0.2223638 -60.97  0.000883613    1.682    0.405
       328  -8.5705    150.7989    136.1790   7.9176244170e+01   2.4356952290e+01    0.4099281    0.2504033  20.42  0.001496556    2.549    0.608
       329 -10.4361     83.3502    132.8741   9.6657941213e+01   3.8091344237e+01    0.7029437    0.3779177 -60.71  0.001363803    1.822    0.451
       330  -8.7510     84.7652    122.8264   9.4050778498e+01   4.0342249974e+01    0.5298242    0.3303891  -0.51  0.001942267    3.120    0.680
       331  -9.3608     39.2270    136.2292   1.1015086918e+02   4.3042600448e+01    0.3237832    0.2109011  80.61 0.0009135045    1.725    0.420
       332  -8.8182    250.7336    130.2136   5.8258929394e+01   4.9805138624e+00    0.4048841    0.1071715 -34.60  0.001303743    3.596    0.722
       333  -9.2309    248.3927    135.4559   5.9750429125e+01   4.5280406432e+00    0.3170795    0.2078863 -37.97 0.0007584497    1.316    0.240
       334  -8.4487    246.8564    130.5517   5.8919466363e+01   5.6194318881e+00    0.2623813    0.1606786 -45.84 0.0006451733    1.555    0.357
       335  -7.7720    188.1441    136.1017   7.0738366479e+01   1.6315866845e+01     0.209442    0.1767447 -61.70 0.0005072143    1.339    0.253
       336  -8.2127    162.6057    136.3166   7.6403808876e+01   2.1782753724e+01    0.2362568     0.187889 -81.48 0.0007005526    1.660    0.398
       337  -8.1260    237.5506    133.7432   6.1088187216e+01   6.7871642021e+00     0.197471    0.1174765 -45.08 0.0009400146    1.603    0.376
       338  -8.0724    231.5268    133.9445   6.2124661776e+01   7.8877150496e+00    0.2142545    0.1253502 -37.56 0.0004202726    1.519    0.342
       339  -8.5176    179.5964    133.8417   7.2003327536e+01   1.8612618390e+01    0.2856502    0.2215152 -66.88 0.0007781888    1.595    0.373
       340  -9.3895    112.9319    133.0360   8.8273835154e+01   3.2843829320e+01    0.4150618    0.3048883 -67.95  0.001195861    1.528    0.346
       341 -10.1738    132.1739    131.3957   8.2713349046e+01   2.9377133997e+01    0.6266958    0.3859585 -66.89  0.001176946    2.245    0.555
       342 -11.0873    131.5069    119.9375   8.0021131291e+01   3.2136023943e+01    0.9158198    0.5562431 -71.60  0.002782048    2.831    0.647
       343 -10.5964     98.4445    128.8173   9.1386785183e+01   3.6543348691e+01     1.277956    0.3838931 -47.86  0.003912424    3.205    0.688
       344  -8.7328    192.9234    131.1017   6.8563576437e+01   1.6281773876e+01    0.3497687    0.1975943 -49.23 0.0009966284    1.860    0.462
       345  -9.2593    143.0106    131.5858   7.9985019715e+01   2.7048202611e+01    0.3484702    0.2530417 -66.20 0.0008795353    1.668    0.400
       346  -9.2755    153.0186    129.1799   7.6925974272e+01   2.5416635076e+01    0.4597993    0.2710489 -60.63 0.0009595175    2.223    0.550
       347 -10.7098     12.8497    128.4268   1.1665775900e+02   4.7277755307e+01    0.7445772    0.3179465 -77.58  0.003410265    2.072    0.517
       348  -9.0144    247.0020    143.6471   6.1733906653e+01   3.4130912430e+00     0.263773    0.1732334 -35.14 0.0005644307    1.311    0.237
       349  -8.3592    220.5991    129.8632   6.3064763911e+01   1.0750794737e+01    0.2051302    0.1242423 -46.38 0.0007507118    1.618    0.382
       350  -8.1749    211.8237    129.6986   6.4596919659e+01   1.2565621856e+01       0.2843    0.1768633 -58.55  0.001177587    2.098    0.523
       351  -8.1374    204.4239    130.2413   6.6105474617e+01   1.4003915241e+01    0.2156588    0.1321591 -48.74  0.000940219    1.678    0.404
       352  -9.0852    168.3505    129.5304   7.3429979281e+01   2.1968770120e+01    0.3180117    0.2525005 -72.12 0.0007397765    1.569    0.362
       353  -8.4904    161.4859    129.9720   7.5114160048e+01   2.3387413218e+01    0.2226272    0.1364033 -65.44 0.0008091721    2.451    0.592
       354 -10.0868     73.1547    128.8163   9.8831038394e+01   4.0659393410e+01    0.5157601    0.3385047 -75.88  0.001620509    1.724    0.420
       355  -9.5686     71.3011    120.1535   9.7568630146e+01   4.3078171313e+01    0.4272497    0.2898183  85.26   0.00154893    2.078    0.519
       356 -10.4164     60.0287    125.3084   1.0209905558e+02   4.3349101484e+01    0.7392656    0.4303568  80.65  0.002388406    2.872    0.652
       357  -8.4692     25.3993    130.1181   1.1326629656e+02   4.5871686359e+01    0.3071774    0.1665941 -15.30  0.001310249    3.336    0.700
       358 -10.8012     44.9697    123.8011   1.0643076796e+02   4.5526639197e+01     1.098583    0.5673187  77.77  0.003892995    3.737    0.732
       359 -10.0000    118.1485    124.9704   8.4903722944e+01   3.3734355884e+01    0.6693643    0.4783064 -63.86  0.001586453    1.568    0.362
       360  -7.8966    228.5176    125.4992   6.0711471442e+01   9.9539213573e+00    0.1432607    0.1273425 -37.89 0.0008099765    1.047    0.045
       361  -8.9421    179.3474    124.6999   6.9813319732e+01   2.0529338761e+01    0.2883481    0.2463822 -63.49 0.0006780571    1.292    0.226
       362 -10.2186     28.3129    122.4361   1.1129051336e+02   4.7511194635e+01    0.7063832    0.3459115  78.04  0.002695227    3.414    0.707
       363  -9.3886     27.5156    113.8082   1.1017091850e+02   4.9700354794e+01    0.3742813    0.1866729  14.75  0.001731855    2.673    0.626
       364  -7.8508    188.4414    124.2049   6.7792822616e+01   1.8615347098e+01    0.2181066    0.1394279 -50.57 0.0007296537    1.637    0.389
       365  -9.2849    158.7594    121.6534   7.3657454122e+01   2.5771398007e+01    0.3996153    0.3020056 -79.25  0.001171242    1.817    0.450
       366  -7.8622    203.3171    122.1966   6.4387478026e+01   1.5762568297e+01    0.2176107     0.125697 -46.28 0.0004714256    1.698    0.411
       367  -7.8313    195.3326    122.2390   6.5931095550e+01   1.7486650524e+01    0.2166584    0.1314835 -46.42 0.0003500922    1.623    0.384
       368  -8.5011    172.0755    121.6802   7.0632269460e+01   2.2772969517e+01    0.2601382    0.2081328 -54.91 0.0004884917    1.312    0.238
       369  -9.8385    141.4996    118.5532   7.7072611095e+01   3.0282863664e+01    0.4788589     0.300332 -62.29  0.001037992    2.048    0.512
       370 -10.0039      2.9833    117.3902   1.1820576230e+02   5.0581746775e+01    0.5097991    0.2531387  74.82  0.002408934    2.508    0.601
       371  -9.9844    109.2229    113.9791   8.4641670544e+01   3.8072407796e+01    0.6254036    0.3985214 -73.27  0.001490961    2.388    0.581
       372  -8.8832    109.7683    107.4278   8.2746566152e+01   3.9477038889e+01    0.4204912    0.2495591  26.57  0.001648916    2.166    0.538
       373  -8.4612    185.6196    115.8507   6.6280182769e+01   2.0891807933e+01    0.2232691    0.1365545 -49.68 0.0004327957    1.688    0.407
       374  -8.6661     58.9039    115.4539   1.0045745938e+02   4.5938416999e+01    0.3693705    0.2232124 -11.40  0.001425218    2.879    0.653
       375  -9.3677    250.1229    115.1726   5.5061801433e+01   7.5739816409e+00    0.2081421    0.1843319 -37.01 0.0008665273    1.042    0.040
       376  -8.1203    193.0164    115.3144   6.4668669855e+01   1.9335063169e+01    0.2058338    0.1953233 -55.97 0.0004716084    1.068    0.064
       377  -7.8597    153.2873    115.6713   7.3404858204e+01   2.8279613200e+01    0.1595675    0.1262923 -78.84 0.0003402825    1.615    0.381
       378 -10.0993     92.8539    112.7331   8.9182141526e+01   4.1412488785e+01    0.4929029    0.3661723 -77.57  0.001326203    1.690    0.408
       379 -10.0081     78.9291    112.3980   9.3412225235e+01   4.3818900026e+01     0.588383    0.3840401 -82.59  0.001851191    2.277    0.561
       380  -8.6818     79.2110    104.9994   9.1491921578e+01   4.5546747102e+01    0.3315169    0.2265359  -1.88  0.001436061    2.160    0.537
       381  -7.9794    167.2348    114.5799   6.9882061569e+01   2.5333001393e+01    0.2128805    0.1499991  37.76 0.0006834635    1.523    0.343
       382 -10.0019    133.7065    109.3774   7.6642726358e+01   3.4016055997e+01    0.7763236    0.3219625 -51.28  0.002429429    2.697    0.629
       383  -9.7536    122.0226    112.6411   8.0671769104e+01   3.5791385802e+01    0.3167276    0.2688455  82.50 0.0007944863    1.413    0.292
       384  -9.9265     14.4494    111.4513   1.1393103781e+02   5.1284688558e+01    0.4527756     0.223588  71.91  0.001526852    3.098    0.677
       385  -8.5374    174.8187    111.9405   6.7532654943e+01   2.4129409252e+01    0.2799878    0.2067578 -59.29 0.0005654464    1.524    0.344
       386  -8.6352    159.0744    111.7606   7.1002144940e+01   2.7786643340e+01     0.276317    0.2218812 -46.16 0.0006145701    1.229    0.187
       387  -9.9998     66.1963    110.4342   9.7012268011e+01   4.6189381515e+01    0.4318494    0.3199973  88.14  0.001391544    1.739    0.425
       388  -7.5547    149.7014    110.3130   7.2846186451e+01   3.0233246730e+01    0.1590377    0.1267189 -81.34  0.000317113    1.605    0.377
       389 -10.2987    248.5370    107.9476   5.3688936584e+01   9.0596143412e+00    0.4118238    0.2828965 -40.21  0.001589601    1.240    0.193
       390 -10.7134    247.3779    100.9868   5.2299562830e+01   1.0420691835e+01    0.4980474    0.3674492 -86.69  0.002677005    1.802    0.445
       391  -7.9223    231.5574    117.7244   5.8433692959e+01   1.0711866088e+01    0.1999669    0.1190227 -46.64 0.0005548867    1.598    0.374
       392  -8.2591    189.2065    108.1553   6.3601839993e+01   2.1570565881e+01    0.2160211    0.1712617 -57.97 0.0005726549    1.339    0.253
       393  -9.8096    139.8591    104.1001   7.3597815690e+01   3.3785582975e+01    0.5825399    0.3048395 -49.76  0.001538095    2.010    0.503
       394 -10.0297    119.1084    105.8040   7.9631032534e+01   3.7939202038e+01    0.3455133    0.2851233  35.36 0.0009137518    1.255    0.203
       395 -10.6591    109.3257     99.1374   8.0576706356e+01   4.1432513105e+01     0.909018    0.5253724  67.52  0.002138527    3.406    0.706
       396  -9.0878    107.9888     92.7558   7.9125672210e+01   4.3099840404e+01    0.5101719    0.2836842  25.68  0.001880846    2.546    0.607
       397  -9.0322     93.5305    104.9829   8.6965822287e+01   4.3117544196e+01    0.5601338      0.31335  14.27  0.001852892    3.541    0.718
       398 -10.5783     45.4276    102.2140   1.0206602233e+02   5.0778517730e+01    0.7946452    0.4655095  73.63  0.003189818    3.122    0.680
       399  -9.3150     45.5722     92.5945   9.9830816521e+01   5.3053103767e+01    0.4603752    0.2642435   5.69  0.002061133    2.499    0.600
       400 -10.7217     23.0039    102.7792   1.0976461024e+02   5.2748227341e+01    0.7415019    0.4065745  73.87  0.002656277    2.886    0.654
       401  -8.5920    166.8656    104.3782   6.7259034745e+01   2.7488940279e+01    0.2980993    0.2062546 -55.36 0.0006912378    1.582    0.368
       402  -9.5395    150.7004    103.3881   7.0715108868e+01   3.1455709827e+01    0.4674966    0.3159343 -72.04  0.001228569    2.212    0.548
       403  -9.1256     43.0737    109.4715   1.0435669286e+02   4.9270264667e+01    0.3188412    0.1452892  19.45  0.001314769    2.883    0.653
       404  -9.5645    128.3451    102.1759   7.6076864062e+01   3.6759988314e+01     0.362348    0.2781664 -67.66 0.0009216978    1.578    0.366
       405  -9.3461      6.8812    103.0146   1.1512234579e+02   5.3789351270e+01    0.2567489    0.1712437  63.16  0.001367197    1.803    0.445
       406  -7.6386    175.6821    102.3243   6.4815277675e+01   2.5829040421e+01    0.1602111    0.1218116 -74.82  0.000373771    1.672    0.402
       407  -9.4173     82.2255    100.2238   8.9272277555e+01   4.6178283832e+01    0.4224837    0.2641108 -69.44 0.0009345625    2.140    0.533
       408  -8.2760    159.6841    101.0905   6.7975331157e+01   2.9830860585e+01    0.2518499    0.1851102 -53.99 0.0004588038    1.440    0.306
       409  -9.2909     95.0322     97.0477   8.4320823080e+01   4.4662605538e+01    0.3349493    0.2376911 -61.51 0.0007529251    1.590    0.371
       410 -10.1521     63.6214     95.5063   9.4237976754e+01   5.0114110678e+01    0.5970843    0.3661177 -80.25  0.001678737    2.721    0.632
       411  -8.4776     64.8956     87.8322   9.1743143004e+01   5.1702593102e+01    0.4042675    0.2244115 -10.64  0.001366461    3.901    0.744
       412  -8.2642    150.8327     95.7819   6.8554111408e+01   3.2975313143e+01    0.2728547    0.1775697   7.03 0.0009553171    2.890    0.654
       413  -7.7606    188.5796     93.7905   5.9986784382e+01   2.4410064135e+01    0.2198734    0.1346895 -48.40 0.0004598566    1.632    0.387
       414  -8.2692    165.0135     94.0769   6.4845384198e+01   2.9952360662e+01     0.244602    0.1878498 -75.19  0.000486222    1.634    0.388
       415 -10.2337    123.7843     91.5429   7.4245671530e+01   4.0017607968e+01    0.6156347    0.4734048  25.20  0.001310768    1.472    0.320
       416  -8.2739    176.3108     93.0689   6.2192570040e+01   2.7449636290e+01    0.2261187    0.1897687 -48.36 0.0005545033    1.168    0.144
       417  -9.3810    138.9428     91.9365   7.0362486325e+01   3.6519004224e+01    0.4648041    0.2994306 -50.23 0.0007695843    1.636    0.389
       418  -9.3004     22.9633     90.4350   1.0745971988e+02   5.5687140520e+01    0.4019466    0.2599633 -36.53   0.00185245    1.515    0.340
       419  -9.6640      5.3281     92.3207   1.1401865732e+02   5.6398578851e+01     0.302688    0.2018544  65.22  0.001209404    1.891    0.471
       420  -9.2013    248.7420     92.4276   5.0210046883e+01   1.1536643743e+01    0.2329034    0.1351306  65.35 0.0008445057    2.112    0.526
       421  -7.8969    157.8392     91.8401   6.5810087889e+01   3.2095686456e+01    0.2162777     0.182118 -68.88 0.0004150522    1.327    0.247
       422  -9.8458     34.7372     89.8059   1.0307553379e+02   5.4822426694e+01    0.4886667    0.2740616 -79.73  0.001848715    2.446    0.591
       423 -10.1870     86.7523     85.5366   8.3619206697e+01   4.8707958176e+01    0.8043577    0.4858665 -41.01  0.001147019    1.584    0.369
       424  -7.6878    164.2680     87.6328   6.3199386515e+01   3.1358013071e+01    0.1607428    0.1182313 -67.25 0.0006993347    1.659    0.397
       425  -9.8318     48.5187     83.7769   9.6547548478e+01   5.4755094787e+01    0.6605499    0.3889333 -66.80  0.002246117    1.951    0.487
       426  -8.7732    196.9875     85.4354   5.6276226061e+01   2.3927285539e+01    0.2844997     0.210669 -16.98  0.001085085    1.646    0.392
       427 -10.0405    100.8509     84.9819   7.8951355681e+01   4.6184375537e+01    0.2623985    0.2434434 -27.09  0.000282663    1.034    0.033
       428  -9.7202    104.9221     83.4326   7.7227726447e+01   4.5693489012e+01     0.443029     0.356683 -84.39 0.0009352247    1.717    0.417
       429  -7.5179    179.2497     85.6297   5.9579194748e+01   2.8114741459e+01    0.1581741    0.1125672 -63.04 0.0004204853    1.630    0.387
       430  -8.5108    158.0125     84.0551   6.3540376618e+01   3.3535939512e+01    0.2343582    0.2264579 -53.41 0.0004325586    1.028    0.028
       431  -9.1287    140.8763     82.8103   6.7173300185e+01   3.7864945293e+01    0.4224048    0.2067662 -46.99 0.0009545828    2.162    0.537
       432  -8.3895    151.0274     89.2662   6.6641142938e+01   3.4216557344e+01     0.214418    0.2082627  75.63 0.0004811815    1.051    0.048
       433  -9.8854     24.7257     80.6451   1.0471521313e+02   5.7815891987e+01    0.4745564    0.2832722  89.37  0.001607024    2.688    0.628
       434  -9.6526      9.8974     81.0511   1.1039891601e+02   5.8749715349e+01    0.3583102    0.2197741  65.95  0.001454615    2.411    0.585
       435  -9.4798    249.9987     81.6320   4.7654941167e+01   1.2989662650e+01    0.3038915     0.106027 -44.77  0.001200575    2.452    0.592
       436  -8.0352    185.4877     82.5387   5.7559315392e+01   2.7165265560e+01    0.1508044    0.1426607 -65.65 0.0008091609    1.025    0.024
       437  -8.1258     63.9595     82.3172   9.0513102474e+01   5.3072068112e+01    0.1919193    0.1757948 -32.75 0.0004766917    1.031    0.030
       438  -8.3062    150.1627     80.8692   6.4380230804e+01   3.6020431028e+01    0.2413872    0.2086318 -75.95  0.000736591    1.305    0.234
       439  -8.6328     74.6790     80.7089   8.6243943806e+01   5.1794610667e+01    0.2805659    0.2130528 -65.69 0.0008193698    1.602    0.376
       440  -8.2969    166.7207     79.9560   6.0499420038e+01   3.2172371653e+01    0.2151134    0.1890987 -39.04 0.0004508463    1.133    0.117
       441  -7.9369    184.3311     78.2467   5.6606619368e+01   2.8190434157e+01    0.2170832    0.1294195 -44.32 0.0009354948    1.629    0.386
       442  -9.3384    128.0174     75.3598   6.8145343899e+01   4.2270046427e+01    0.3749818     0.271168 -62.13 0.0007475457    1.736    0.424
       443  -8.6459    105.4757     77.0153   7.5034767190e+01   4.6880392477e+01    0.2955008    0.1775872  10.44  0.000878905    3.258    0.693
       444  -8.7895    119.1611     80.3839   7.2127483546e+01   4.3296161666e+01     0.294402    0.2175062 -50.21  0.000711125    1.433    0.302
       445  -8.2912    140.4816     75.5444   6.5058471127e+01   3.9319144250e+01    0.2606947    0.2024724 -74.04 0.0007059205    1.642    0.391
       446 -10.0086     63.1955     73.6411   8.8186509948e+01   5.5061402083e+01    0.4723251    0.2736824 -58.93 0.0009572193    2.016    0.504
       447  -9.6393     82.4891     72.6780   8.1012959503e+01   5.2158060085e+01     0.387799    0.2896467 -68.68 0.0009677933    1.875    0.467
       448  -8.2178    175.2399     72.7643   5.6773763530e+01   3.1341991885e+01    0.1989528    0.1760647  17.97 0.0005221806    1.316    0.240
       449  -8.0701    163.4002     73.2066   5.9234479793e+01   3.4174238047e+01    0.2218239    0.1352786 -47.85 0.0009410458    1.700    0.412
       450  -7.8155    151.5320     73.4907   6.1861879668e+01   3.7027874621e+01    0.1517376    0.1479204 -83.22 0.0003229852    1.037    0.036
       451  -8.4441    115.5929     72.9911   7.0774860751e+01   4.5506160385e+01    0.2800735    0.1790025 -49.72 0.0008301853    1.717    0.418
       452  -9.2995    105.9579     71.8761   7.3217947827e+01   4.7781213759e+01    0.3096643    0.2142155 -51.94 0.0006780762    1.622    0.384
       453  -8.4936     42.5073     73.0125   9.5879165677e+01   5.7836830996e+01    0.2036424    0.1184246 -54.15  0.000591411    1.549    0.354
       454  -9.1939     95.2012     71.2059   7.6326466507e+01   5.0086080183e+01    0.3369453    0.2390513 -57.65 0.0007934407    1.727    0.421
       455  -9.4327     51.3661     69.5828   9.1409358991e+01   5.7525417448e+01    0.4198218    0.2399689 -65.23   0.00140538    2.413    0.586
       456  -9.4566     30.0476     69.8717   9.9958338209e+01   5.9771427162e+01    0.4932982    0.2399991  -8.77  0.001968417    3.510    0.715
       457  -9.1144     16.8184     70.2422   1.0539250301e+02   6.0742416169e+01    0.2605137    0.2027045  78.21 0.0009863911    1.748    0.428
       458  -7.6487    157.2231     69.9838   5.9571801848e+01   3.6246356132e+01    0.1984048    0.1241939 -36.44 0.0003833194    1.611    0.379
       459  -8.7245    147.0616     68.1883   6.1249605810e+01   3.9039556224e+01    0.3129959    0.2094279 -43.79 0.0006415271    1.527    0.345
       460  -8.5880    138.5620     66.2319   6.2610064489e+01   4.1428997640e+01    0.2871497    0.1967061 -56.16 0.0008660792    1.727    0.421
       461  -8.8631    121.4775     65.9627   6.6848027332e+01   4.5475688342e+01    0.3018583    0.2360194 -61.25 0.0008753392    1.553    0.356
       462  -8.4531     83.7644     65.0606   7.8021038851e+01   5.3428205762e+01    0.3780615    0.1838055  19.16  0.001095761    4.876    0.795
       463  -8.7623     64.7840     63.3437   8.4240055250e+01   5.6933384822e+01    0.5150726    0.2880885  -2.94  0.001853899    3.601    0.722
       464  -9.0066     37.3344     64.5823   9.5487218476e+01   6.0198592577e+01    0.2461465    0.2087575  79.71 0.0009722229    1.699    0.412
       465  -8.7723    110.1685     63.8859   6.9301426759e+01   4.8358644716e+01    0.2606683    0.2335688 -61.05 0.0007539027    1.291    0.226
       466  -7.9710    158.2592     61.9863   5.6957133705e+01   3.7318878106e+01    0.2039259    0.1870107 -44.54 0.0003429631    1.106    0.096
       467  -9.6704     73.3102     59.5312   7.9761746113e+01   5.6302793563e+01    0.4196168    0.2340488 -50.26  0.001023996    2.010    0.503
       468  -9.5961     97.7269     60.4199   7.1839263959e+01   5.1591436487e+01    0.3865739    0.3236777 -18.78  0.001652745    1.183    0.155
       469  -8.2008     88.9754     59.9386   7.4480029913e+01   5.3407160943e+01    0.2131345    0.1807332 -81.55 0.0007091551    1.686    0.407
       470  -8.3675    147.1134     59.1459   5.8424449102e+01   4.0525303062e+01     0.208685    0.1715513 -60.26 0.0006293849    1.338    0.253
       471  -9.8505     23.5287     56.6457   9.8950655179e+01   6.3145634732e+01     0.427617    0.2852086 -87.93  0.001980353    2.769    0.639
       472  -7.9520    130.7739     57.8172   6.1766160268e+01   4.4690917982e+01     0.201966    0.1721848 -66.43 0.0005526597    1.363    0.266
       473  -9.5930      7.4841     57.2782   1.0613371773e+02   6.4129308213e+01    0.2750487    0.2087643  87.36  0.001028047    1.807    0.447
       474  -9.1667    119.0685     55.2681   6.3885192497e+01   4.7834050164e+01    0.4644618    0.2101126 -44.76  0.001505794    2.481    0.597
       475  -8.2700    139.8649     56.1433   5.9078144868e+01   4.2772407055e+01    0.2222117    0.1973041 -67.53 0.0005280725    1.241    0.194
       476  -9.2942     54.1306     55.0376   8.5491068148e+01   6.0088839066e+01    0.3300524    0.2167181 -58.94 0.0009660214    1.991    0.498
       477  -8.9313     44.0404     54.9217   8.9592866953e+01   6.1412344455e+01    0.4032506    0.1683196 -53.10  0.001513889    2.498    0.600
       478  -8.5104    105.9041     53.4148   6.6887603846e+01   5.1067377682e+01    0.2619954    0.1969472 -51.09 0.0007437861    1.561    0.360
       479  -9.4909     92.3175     50.6824   7.0031830151e+01   5.4347986194e+01    0.3731303    0.2337748 -46.92  0.001025808    1.837    0.456
       480  -8.2747     74.9145     51.6165   7.6292902781e+01   5.7460209470e+01    0.2808149    0.1652956  21.37  0.001262971    2.058    0.514
       481  -8.1720    158.5170     49.4948   5.3119840729e+01   3.9166747554e+01    0.1453285     0.137914  81.33 0.0008103309    1.022    0.021
       482  -8.1013    144.7192     49.1636   5.5770494360e+01   4.2642295656e+01    0.2286109    0.1752759 -52.05 0.0005212594    1.421    0.296
       483  -8.2545    129.9052     49.2666   5.9117832371e+01   4.6227802660e+01    0.2013389    0.1847281  46.24  0.000444403    1.037    0.036
       484  -8.7795    120.8834     47.4703   6.0712075073e+01   4.8623748521e+01    0.2574632    0.2064078 -16.52 0.0004963087    1.335    0.251
       485  -8.4334    112.1763     46.7664   6.2742311934e+01   5.0722894973e+01    0.2336119    0.1894961 -42.57 0.0006082351    1.342    0.255
       486  -8.9220     82.0456     46.6333   7.1895679929e+01   5.7004741822e+01    0.2606921    0.2162145 -50.80 0.0007179187    1.476    0.323
       487  -8.5331     45.0569     44.6943   8.5456308401e+01   6.3208836311e+01    0.2097976    0.1612446 -43.62 0.0005716301    1.338    0.253
       488  -9.0663     16.7607     44.8748   9.8357235027e+01   6.6049092420e+01    0.2038054    0.1564531 -65.42 0.0006673306    1.571    0.364
       489  -9.0005    132.7899     43.5715   5.6528326297e+01   4.6357597290e+01    0.2659403    0.2247311 -59.38 0.0006665546    1.340    0.254
       490  -8.7544     92.9015     43.1793   6.7018291437e+01   5.5412240783e+01    0.2809288     0.178271   0.07  0.001249211    2.153    0.535
       491  -9.0077     58.1540     42.6553   7.9206556350e+01   6.1733793468e+01    0.3096869    0.2032693 -56.20  0.001224742    2.232    0.552
       492  -9.2986     69.5102     41.4390   7.4326489690e+01   6.0095537140e+01    0.3691935    0.2366499 -50.80  0.001327411    2.057    0.514
       493 -10.0578      5.0314     41.2033   1.0281285290e+02   6.7545883930e+01    0.5354752     0.196967 -63.98  0.002335961    3.036    0.671
       494  -8.8817    105.9516     41.6291   6.2576442738e+01   5.2863432555e+01    0.2568843    0.2014405 -38.39 0.0005945867    1.374    0.272
       495  -7.6731    140.3068     41.6362   5.4253497288e+01   4.4791293404e+01    0.1500638    0.1085852 -67.52 0.0007038327    1.742    0.426
       496  -8.7809     36.7476     40.9006   8.7668473833e+01   6.4895764833e+01      0.21356    0.1659561 -51.61 0.0006709847    1.512    0.339
       497  -7.6569    155.7065     39.3168   5.0516948503e+01   4.1277544112e+01    0.1454391    0.1060058 -68.67  0.000268286    1.602    0.376
       498  -8.8007     95.5567     38.1741   6.4275737093e+01   5.5593161746e+01    0.2368326    0.2149995 -74.57 0.0007482791    1.442    0.307
       499  -7.9051     80.5753     36.7583   6.8499909420e+01   5.8802485206e+01    0.1751875    0.1241503 -39.74 0.0003617106    1.551    0.355
       500  -9.5527     26.2219     35.6412   9.0546222009e+01   6.6955291936e+01    0.2675579    0.2121024 -55.09 0.0008826031    1.571    0.363
       501  -7.4470    133.4856     36.4656   5.3971971754e+01   4.7144588797e+01    0.1409709     0.132576  61.51 0.0001460094    1.046    0.044
       502  -8.0631    125.9747     35.6677   5.5356838442e+01   4.9058426718e+01    0.1949715    0.1659591  53.01 0.0003041846    1.096    0.088
       503  -8.6546    111.8535     34.6106   5.8390257037e+01   5.2497228925e+01    0.2652165    0.1724703 -47.38 0.0007358869    1.851    0.460
       504  -7.7474     88.5487     34.5193   6.4990944287e+01   5.7549122119e+01    0.1352014    0.1231102  15.48 0.0001281864    1.050    0.048
       505  -9.0197     48.5098     33.4263   7.9427550958e+01   6.4658303469e+01    0.2250738    0.2081141 -29.74 0.0006433852    1.349    0.259
       506  -9.0959     60.4134     32.4057   7.4074731468e+01   6.3009321159e+01    0.2668829    0.2066506 -44.69 0.0009923415    1.588    0.370
       507  -9.0631     72.0081     31.2850   6.9223152176e+01   6.1178147840e+01    0.2717043     0.176816 -45.57 0.0008747797    1.929    0.482
       508  -7.6184    160.6841     31.6662   4.7320487775e+01   4.0999688478e+01    0.1450683    0.1019752  33.52 0.0003660002    1.690    0.408
       509  -7.7780    139.4590     31.5101   5.1083396224e+01   4.6302148052e+01    0.1402395    0.1294453  55.83 0.0001024907    1.006    0.006
       510  -8.9782     12.9029     30.1312   9.5067698759e+01   6.9102967538e+01    0.2944953    0.1576953 -59.55  0.001241109    2.309    0.567
       511  -8.5618    119.1588     33.1805   5.6061301945e+01   5.0989026479e+01    0.2087282    0.1805072  26.75 0.0004803093    1.135    0.119
       512  -8.5528    101.6322     29.3465   5.9098430543e+01   5.5455017868e+01    0.1944128    0.1623203 -70.79 0.0007960908    1.625    0.384
       513  -8.8355     81.3893     27.6374   6.4464521192e+01   5.9893950835e+01     0.248115     0.213194 -70.23 0.0006877662    1.730    0.422
       514  -8.9839      3.6432     27.5659   9.8977833622e+01   7.0200804384e+01    0.2094404    0.1789173 -61.19 0.0008583507    1.512    0.339
       515  -8.9564    128.5230     26.4444   5.1579070699e+01   4.9565897211e+01    0.2728515    0.2287198 -85.15  0.001305834    1.374    0.272
       516  -9.0156     91.6978     26.1222   6.0634996631e+01   5.7985738032e+01    0.3057347    0.1983208 -49.42  0.001046666    2.097    0.523
       517  -8.2419    104.4214     23.1920   5.5964173928e+01   5.5561293878e+01    0.1769593    0.1232041 -38.11 0.0003516808    1.620    0.383
       518  -8.1595     34.6425     23.3008   8.1262875866e+01   6.8062109030e+01    0.1557013    0.1498383 -75.73 0.0007898571    1.750    0.429
       519  -8.9255     63.6139     21.1598   6.7867866405e+01   6.4018899643e+01    0.2974204    0.1907369 -39.54  0.001154408    1.829    0.453
       520  -8.9514     48.2618     21.8663   7.4396115820e+01   6.6413677211e+01    0.2023969     0.168131  -2.99 0.0004374917    1.062    0.058
       521  -8.2385     19.4661     21.2851   8.7980104286e+01   7.0040229696e+01    0.1495604    0.1020257 -46.15 0.0009387363    1.594    0.372
       522  -8.9668     74.0674     19.4400   6.3360695285e+01   6.2316361562e+01    0.2668978    0.1875034 -46.75 0.0008287664    1.943    0.485
       523  -8.3556     87.7326     17.3867   5.8173081723e+01   5.9812518541e+01    0.2208622    0.1506219 -34.28  0.000706759    1.644    0.392
       524  -8.4157    249.2369    248.9044   8.1377648481e+01  -1.2105205515e+01    0.2122625    0.1208697 -22.81  0.001339558    1.636    0.389
       525  -8.8653    234.1470     16.8357   3.4944371275e+01   2.5225485255e+01    0.1916094      0.13687 -66.12 0.0002520219    1.187    0.157
       526  -8.0657    112.6164     16.8073   5.1544126221e+01   5.4367526252e+01    0.1693657    0.1220464 -35.96 0.0002305066    1.557    0.358
       527  -8.0392     30.0037     16.0119   8.0096048554e+01   6.9698182383e+01    0.1522284    0.1449662 -29.22 0.0005626291    1.603    0.376
       528  -8.2551      7.8349     15.7889   9.1890875103e+01   7.1931411428e+01    0.1379589    0.1248098 -14.99  0.000857778    1.388    0.279
       529  -8.2941     96.8956     15.1292   5.4705984217e+01   5.8085160441e+01    0.1843375    0.1775257 -50.83 0.0006454478    1.268    0.212
       530  -7.8363     17.4542     14.4550   8.5903648709e+01   7.1297513966e+01    0.1156622   0.08900688 -14.76 0.0001280054    1.046    0.044
       531  -7.8105    119.7586     11.3741   4.8013811805e+01   5.3210676290e+01    0.1276133   0.09652073 -57.40 0.0006930883    1.623    0.384
       532  -9.3422    242.3945    247.3812   8.2305673260e+01  -1.1066734420e+01    0.4317992    0.2095977 -12.32  0.002177787    2.592    0.614
       533  -8.5779    232.7538    247.6315   8.4033978370e+01  -9.8427638382e+00    0.2070837    0.1787225 -48.59 0.0009878288    1.972    0.493
       534  -9.0471    175.5998    247.7592   9.4700878539e+01  -1.6263618592e+00    0.2774153    0.2320352  88.89  0.001135343    1.936    0.483
       535  -9.0335    156.3365    247.7120   9.8460893020e+01   1.3556508233e+00    0.3103571    0.2035969 -34.12   0.00161863    1.887    0.470
       536  -8.7778    132.3954    248.2333   1.0326051237e+02   4.9870462337e+00    0.2535572    0.1682935  66.23  0.000698826    1.916    0.478
       537  -8.2220    113.4052    248.7880   1.0707584396e+02   7.7875110491e+00    0.1994398    0.1199064 -70.28  0.001069589    2.132    0.531
       538  -9.2988    103.7664    246.8498   1.0876249802e+02   9.5639195915e+00    0.4138925    0.2294296 -83.83  0.002034263    2.760    0.638
       539 -10.0296    223.9594    244.2930   8.5069530015e+01  -8.2361186970e+00    0.4425534    0.2325507 -44.96  0.002349813    2.665    0.625
       540  -8.8400    218.4894    247.2332   8.6532255463e+01  -7.8553547194e+00    0.2794497    0.1098761 -36.23  0.001366072    2.747    0.636
       541  -8.5037    168.7934    247.4472   9.5980774629e+01  -5.3394781410e-01    0.2484324    0.1001003  40.28  0.001145942    2.078    0.519
       542  -9.3520    120.1535    245.3156   1.0534241052e+02   7.3647860854e+00    0.3799048    0.2347724  78.10  0.001806555    2.523    0.604
       543  -8.4727     67.5198    245.0216   1.1562624214e+02   1.4998380578e+01    0.1633283    0.1083761 -77.76 0.0009925968    1.576    0.366
