#   1 NUMBER                 Running object number                                     
#   2 MAG_AUTO               Kron-like elliptical aperture magnitude                    [mag]
#   3 X_IMAGE                Object position along x                                    [pixel]
#   4 Y_IMAGE                Object position along y                                    [pixel]
#   5 X_WORLD                Barycenter position along world x axis                     [deg]
#   6 Y_WORLD                Barycenter position along world y axis                     [deg]
#   7 A_WORLD                Profile RMS along major axis (world units)                 [deg]
#   8 B_WORLD                Profile RMS along minor axis (world units)                 [deg]
#   9 THETA_WORLD            Position angle (CCW/world-x)                               [deg]
#  10 FWHM_WORLD             FWHM assuming a gaussian core                              [deg]
#  11 ELONGATION             A_IMAGE/B_IMAGE                                           
#  12 ELLIPTICITY            1 - B_IMAGE/A_IMAGE                                       
         1  -9.8472     31.4552     17.0940   8.5061434973e+01   6.9263185120e+01    0.2095154    0.1533729  42.67  0.001316348    1.958    0.489
         2  -9.7343     40.8060     12.8016   7.8566394626e+01   6.8703903603e+01    0.2159383     0.150506 -24.25  0.001371054    1.255    0.203
         3  -9.6986     98.4340     16.1180   5.9647743329e+01   5.7958592313e+01    0.2539298    0.1791799  75.82  0.001244068    1.930    0.482
         4  -9.7912     71.5054      6.5045   6.3356057070e+01   6.4427631913e+01    0.2123074    0.1222771  62.49  0.001036981    2.399    0.583
         5  -9.7743     57.0167     10.0182   7.0313295203e+01   6.6611303059e+01     0.170224     0.156996 -55.56  0.001135031    1.674    0.403
         6 -10.4042    161.4993      2.5028   4.2674974948e+01   4.4054304094e+01    0.1342961    0.1190788  75.68 0.0001439575    1.007    0.007
         7  -9.7828    139.0081      2.2554   4.5822359210e+01   4.9702119057e+01    0.1835356    0.1034725  66.28 0.0008901477    1.570    0.363
         8 -10.6979    162.7753    226.0698   9.8808189929e+01   4.5840231350e+00    0.4511238    0.2572976  32.32  0.002336393    1.638    0.389
         9 -11.1175    126.1511    220.9243   1.0540252951e+02   1.1577953220e+01    0.2688876    0.2060604  72.31 0.0008387939    1.420    0.296
        10  -8.8641    171.2703    225.6729   9.7085999172e+01   3.2249684372e+00    0.1180727   0.09630582  67.99 0.0003062775    1.579    0.367
        11 -11.0894     99.1645    226.1466   1.1144027848e+02   1.4872702192e+01    0.3131148    0.2096655  29.61  0.001777833    1.742    0.426
        12  -9.8130    131.3873    214.7195   1.0348576602e+02   1.1848748310e+01     0.167463       0.1235 -43.15 0.0009027405    1.626    0.385
        13  -9.8444     89.1753    199.6545   1.1039668235e+02   2.1652398996e+01    0.1855928    0.1468071  75.80 0.0005771517    1.172    0.147
        14 -10.3565    179.0863    199.0000   9.1115118908e+01   6.2830717870e+00    0.3855511   0.07126323  41.68  0.001050606    4.928    0.797
        15  -9.8687    126.4135    197.5195   1.0201153711e+02   1.6020829085e+01    0.2626168    0.2127542 -32.49  0.001470712    1.543    0.352
        16 -11.1476    173.1991    196.0221   9.1789580523e+01   7.8779950099e+00    0.2903233    0.2468751  41.26 0.0009757293    1.114    0.103
        17  -9.8300    174.1543    192.1093   9.0882743977e+01   8.4052951765e+00    0.2026977    0.1899033  72.62 0.0005354318    1.251    0.200
        18  -9.5221     67.3682    195.6979   1.1462572033e+02   2.5629733204e+01    0.1395908    0.0806647  66.12 0.0007033541    1.742    0.426
        19  -9.5454     44.5104    194.4734   1.1934216528e+02   2.8788258763e+01    0.1260283   0.09636761  75.57 0.0003481808    1.064    0.060
        20  -9.7554    139.4908    190.4947   9.8020522407e+01   1.5110061608e+01    0.1406583    0.1276086  54.99 0.0003327341    1.043    0.041
        21 -10.0170    156.7122    188.0634   9.3843173168e+01   1.2412459042e+01    0.1934282      0.18725  18.96 0.0008137141    1.060    0.057
        22 -11.2164     96.5950    187.8654   1.0719838147e+02   2.3026841876e+01     0.496745    0.1929748  47.35  0.001848837    2.430    0.588
        23  -9.4076    121.0000    187.0751   1.0157123371e+02   1.9114649444e+01    0.2197963   0.07931378 -54.91 0.0008018956    2.939    0.660
        24 -10.2322    109.8267    186.5444   1.0401187289e+02   2.1146237774e+01    0.2721325    0.1680725  76.05  0.001200384    2.244    0.554
        25  -9.3735     34.3522    187.6634   1.2086730568e+02   3.1419562616e+01    0.1346666   0.07150484  67.53 0.0007044819    1.793    0.442
        26 -10.9960     12.8685    184.3348   1.2505961206e+02   3.4285112262e+01    0.2309219    0.2152133 -30.62  0.001702038    1.625    0.385
        27  -9.9618    212.2475    182.5951   8.1429797678e+01   3.0365354879e+00    0.1955426    0.1191511  29.82  0.000947501    1.644    0.392
        28  -9.5055    197.6506    181.7044   8.4099499571e+01   5.8694101549e+00    0.1458025    0.1028999   8.41 0.0007033118    1.679    0.404
        29  -9.3489    148.0040    181.4832   9.4557113175e+01   1.5349724911e+01    0.2100618    0.1155655  60.56 0.0008099095    2.552    0.608
        30 -10.5516     77.7547    176.4267   1.0993690088e+02   2.8455519372e+01    0.4928334     0.166838  51.89  0.001725629    3.428    0.708
        31  -9.8313     61.1666    177.8111   1.1395584733e+02   3.0428982755e+01    0.2790132   0.06991251  40.93  0.001010616    3.429    0.708
        32 -10.0025     13.3925    177.1765   1.2444055045e+02   3.5802028626e+01    0.1726931   0.08714397  88.46 0.0007003698    1.706    0.414
        33  -9.6374    204.4926    176.0246   8.1602516824e+01   5.5707353080e+00    0.2148144    0.1336764 -34.80  0.001036866    1.611    0.379
        34  -9.9495    107.1903    176.3959   1.0302377725e+02   2.3813273135e+01    0.2093626    0.1198908  50.29 0.0009530667    1.703    0.413
        35  -9.4432    135.6461    172.3307   9.5670519399e+01   1.9588712016e+01    0.1538737    0.1115257  75.54 0.0007045895    1.781    0.438
        36  -9.6927    208.3493    170.3207   7.9671492196e+01   5.8285912985e+00    0.1496979    0.1042447   5.73 0.0007048653    1.741    0.426
        37 -10.0724    122.8547    170.4581   9.8317548981e+01   2.2370857250e+01    0.3622263    0.1617938  54.80  0.001291668    2.812    0.644
        38  -9.8941     55.7990    170.2137   1.1428749275e+02   3.2862951310e+01    0.2358929     0.112079  68.46 0.0009552063    2.817    0.645
        39  -9.8713    140.4456    166.1679   9.3379973178e+01   1.9992681864e+01    0.2928632    0.1909459  73.04   0.00119925    2.333    0.571
        40  -9.7055    100.5258    166.7668   1.0302898937e+02   2.7115041882e+01    0.3147112   0.07971526  47.52 0.0008871993    4.422    0.774
        41 -10.0051     80.2249    164.4615   1.0762203309e+02   3.0862060441e+01    0.3534147    0.1865276  77.89   0.00130328    3.207    0.688
        42  -9.8002     38.2174    164.8020   1.1779888344e+02   3.6170395149e+01     0.220317    0.1003556  67.29 0.0009366009    2.711    0.631
        43 -10.2720     10.0950    161.7572   1.2397131714e+02   3.9532910076e+01    0.2538278     0.133171  65.52  0.001412267    1.824    0.452
        44  -9.7824     93.8730    161.2934   1.0374300766e+02   2.9480687028e+01    0.2392752    0.1663564  60.96  0.001185192    1.503    0.335
        45  -9.6271     23.9948    160.4968   1.2068487244e+02   3.8601908108e+01    0.1797349   0.07233541  54.32  0.000810664    2.594    0.614
        46 -10.1233    107.0870    158.8481   1.0002890340e+02   2.7821940270e+01    0.4643486    0.2045141  56.52  0.001577562    3.188    0.686
        47 -10.0975     82.9284    155.6604   1.0555129645e+02   3.2535207233e+01    0.3924193    0.2011296  61.48  0.001550498    2.602    0.616
        48  -9.8602    213.2558    155.6217   7.5571812193e+01   7.4498243757e+00    0.1990434    0.1287224  32.58 0.0006172935    1.620    0.383
        49  -9.9963     69.0563    154.7714   1.0893715574e+02   3.4764074140e+01    0.2942674    0.1639513  49.75  0.001135415    1.837    0.455
        50 -10.0411    134.1041    153.8663   9.2406133704e+01   2.3925733784e+01     0.332063    0.2230109  80.12  0.001347089    2.322    0.569
        51  -9.9760    219.0327    155.9774   7.4565310900e+01   6.2642010073e+00     0.211518    0.1940051  -9.50 0.0003709938    1.033    0.032
        52  -9.8203     29.2964    150.7199   1.1840277571e+02   4.0383214431e+01    0.3230923    0.1277855  67.01  0.001155256    4.047    0.753
        53 -10.5092     40.3681    148.3612   1.1534831332e+02   3.9819300484e+01    0.4642986    0.1946771  55.84  0.001931602    2.880    0.653
        54 -10.9494    108.9236    146.4388   9.7182714081e+01   3.0394268548e+01    0.6835136     0.342503  63.53    0.0022124    3.613    0.723
        55 -10.8933     57.1871    146.6989   1.1077950524e+02   3.8269540156e+01    0.5922469    0.2643323  60.09  0.002242521    3.199    0.687
        56 -10.7990    150.4060    146.1542   8.6833938750e+01   2.2317753878e+01    0.5243551    0.3177763  72.82  0.001816596    3.141    0.682
        57 -10.4413     50.5168    155.6525   1.1373299438e+02   3.6932915561e+01    0.3478429    0.1742756  61.22  0.001553927    2.342    0.573
        58  -9.9172     14.0377    146.6556   1.2172187582e+02   4.2684836546e+01    0.2128378   0.09159515  38.25  0.001085034    2.418    0.586
        59 -10.0290    196.8014    144.4412   7.6268472065e+01   1.2835860077e+01     0.361019    0.2204235  -3.58  0.001293915    3.042    0.671
        60 -10.3924    126.5412    144.2936   9.2245389675e+01   2.7573877725e+01    0.4906327    0.2964872  74.75  0.001723739    3.075    0.675
        61 -10.2428     88.8517    144.6710   1.0208490406e+02   3.4239886554e+01    0.3293683    0.2029879  62.20  0.001457545    1.955    0.488
        62  -9.3512    215.6419    140.3313   7.1675850922e+01   9.6858641252e+00     0.146545    0.1164618 -74.36 0.0007042654    1.794    0.443
        63 -10.5631     24.3152    139.0314   1.1832971054e+02   4.3614312670e+01    0.4160193    0.1989065  62.78  0.001866099    2.512    0.602
        64 -10.0671     39.3712    136.3205   1.1400400143e+02   4.2820794300e+01     0.295201    0.1510567  63.32  0.001229657    2.474    0.596
        65  -9.9906    114.5391    134.6654   9.3224495890e+01   3.2121892652e+01    0.3443286    0.2138704  71.08  0.001314546    2.521    0.603
        66 -11.0086    133.7704    133.0097   8.7875779521e+01   2.8689272547e+01    0.4939762    0.3140126  63.92  0.001998264    2.070    0.517
        67 -10.8671     84.7609    132.6916   1.0087848970e+02   3.7785141669e+01    0.5765563    0.2986732  58.42  0.002223021    2.649    0.623
        68 -10.2210    144.1043    132.2407   8.5122701366e+01   2.6693708920e+01    0.3019213    0.2192713  64.90  0.001189246    1.650    0.394
        69 -10.7403     74.5024    130.4356   1.0329948735e+02   3.9890042684e+01    0.3895071    0.2151244  54.70  0.001681962    2.162    0.538
        70 -10.4812     13.7860    130.0826   1.2006216564e+02   4.6596627564e+01      0.44771    0.2012398  60.99   0.00206423    2.744    0.636
        71 -10.0241    170.1094    130.6706   7.8649731636e+01   2.1350471025e+01    0.3174873    0.1430668  54.05  0.001089589    2.594    0.615
        72  -9.8893    153.8143    130.2245   8.2292284821e+01   2.5038109575e+01    0.2680482    0.1781406 -89.30 0.0009575944    2.841    0.648
        73 -10.8020    100.5473    129.1912   9.5778799434e+01   3.5985141918e+01    0.6149775    0.3534803  64.29  0.002341414    2.608    0.617
        74  -9.3035      2.6267    130.3217   1.2300181229e+02   4.7318213684e+01    0.1267326   0.07219164  68.33 0.0007031158    1.810    0.448
        75 -10.5321    120.1292    127.0041   8.9983774744e+01   3.2824619817e+01    0.6359842    0.2890976  58.47  0.001933185    3.706    0.730
        76 -11.2288     60.7680    125.4616   1.0627147771e+02   4.2987397524e+01    0.6340891    0.3509858  69.24  0.002556336    2.816    0.645
        77 -11.3117     45.1436    124.0420   1.1052579158e+02   4.5187575894e+01    0.7571949     0.394706  68.79  0.003103075    2.947    0.661
        78 -11.3011     29.3543    123.2506   1.1491839714e+02   4.6947021928e+01    0.7315583    0.3264137  72.02  0.002582837    4.268    0.766
        79 -10.2769    181.1678    125.6277   7.4993502928e+01   1.9902911443e+01    0.4461086    0.1501733  54.83  0.001254838    3.980    0.749
        80 -10.2028    160.2168    122.8107   7.8940968646e+01   2.5201039466e+01    0.3119927    0.1870518  61.46    0.0012072    2.118    0.528
        81 -11.2032    143.3270    120.4183   8.2388107823e+01   2.9466213794e+01    0.5238013     0.343587  63.49  0.002030347    1.923    0.480
        82 -10.0747     71.7210    120.7809   1.0217378776e+02   4.2642201082e+01    0.3506152    0.2238573  71.00  0.001550141    2.182    0.542
        83 -10.5052    132.4443    119.8795   8.5007268574e+01   3.1928005191e+01    0.5434398    0.2816924  62.37  0.001774242    3.164    0.684
        84 -10.7143      3.9339    118.2514   1.2140688371e+02   5.0051099952e+01    0.3890679    0.1896402  67.82  0.001903119    2.485    0.598
        85 -10.8365    111.0818    116.0888   8.9778424292e+01   3.7127001258e+01    0.5283363    0.3470109  82.14  0.002004688    2.664    0.625
        86 -11.0516     80.6097    114.0658   9.8087317182e+01   4.2938213488e+01    0.6528204     0.371758  63.76  0.002529173    2.788    0.641
        87 -11.1534     95.0300    113.7041   9.3754425816e+01   4.0640700619e+01    0.7527105    0.3029592  47.41  0.002647524    2.849    0.649
        88 -10.2216    123.7791    113.5244   8.5655652823e+01   3.5173547200e+01    0.4906238    0.1887377  51.03    0.0015534    3.095    0.677
        89 -10.6261     67.8967    111.9966   1.0145716740e+02   4.5308471901e+01    0.4532643    0.2594779  60.41  0.001902703    2.496    0.599
        90 -10.7893     14.6366    111.1452   1.1747395113e+02   5.1019075663e+01    0.3585932    0.2224664  79.60  0.001993656    1.764    0.433
        91 -10.0880    134.9391    110.5087   8.1921394780e+01   3.3473267193e+01    0.3566901    0.2240048  62.12  0.001421658    2.028    0.507
        92 -11.5993     45.7064    102.2993   1.0634816061e+02   5.0381052476e+01    0.7014995    0.3891428  69.81  0.002823804    3.219    0.689
        93 -11.4957     23.9126    103.5556   1.1350756685e+02   5.2123758018e+01    0.7414059    0.3569783  68.49  0.002913216    3.746    0.733
        94 -10.8442    141.8068    105.8738   7.8915662384e+01   3.2956068793e+01    0.5662685    0.2800194  59.81  0.001901335    2.823    0.646
        95 -10.9097    151.7931    104.5530   7.6101648751e+01   3.0956202425e+01     0.495905     0.322942  72.45   0.00191994    2.265    0.558
        96 -11.0711    131.0077    103.3727   8.1001908190e+01   3.5887599196e+01    0.6021233     0.260039  50.77  0.002079131    2.535    0.606
        97 -10.6245      7.8067    103.6429   1.1849083952e+02   5.3233119186e+01    0.2931157    0.1706122  50.59   0.00166144    2.057    0.514
        98 -11.4545    111.9387    100.8605   8.5529008319e+01   4.0433196075e+01    0.9578632    0.4685185  61.11  0.002934591    3.873    0.742
        99 -10.2135     83.2927    101.0514   9.4116858442e+01   4.5594274744e+01    0.4793767    0.2727813  66.06  0.001699087    3.410    0.707
       100 -11.2453     65.4566     97.3843   9.8853575059e+01   4.9126041639e+01    0.6280302    0.3489233  56.24   0.00262538    2.625    0.619
       101 -10.6781     97.0724     97.8764   8.9059059314e+01   4.3948720847e+01    0.5947479    0.2470178  41.06  0.002185355    2.542    0.607
       102  -9.5541    165.9748     95.0000   7.0172173235e+01   2.9533047820e+01    0.2654705   0.09027188  51.53 0.0001670652    2.996    0.666
       103 -10.6003    140.8855     93.7431   7.5719853079e+01   3.5708310407e+01    0.4173999    0.2567087  65.81  0.001614559    2.197    0.545
       104 -10.9110    127.3925     92.3585   7.8818061779e+01   3.9032186346e+01    0.7105107     0.336792  54.76  0.002521195    2.517    0.603
       105 -10.7396      7.5864     92.9191   1.1701197879e+02   5.5741259473e+01    0.5073416    0.1657061  32.44  0.002307572    3.447    0.710
       106  -9.1785    159.3614     92.6930   7.0997127619e+01   3.1570957571e+01    0.1642419    0.1253936 -80.94  0.000546317    1.736    0.424
       107 -11.1382     35.7453     90.7645   1.0723020393e+02   5.4115312505e+01    0.4392699    0.3009861  74.64  0.002205647    1.988    0.497
       108 -11.1555     88.7480     88.1579   8.8888732324e+01   4.7611304811e+01     0.710452    0.3599576  55.86  0.002588508    3.038    0.671
       109 -11.1030     50.5845     86.2340   1.0108174542e+02   5.3603633612e+01     0.619416    0.3257186  57.10  0.002471689    3.329    0.700
       110 -11.1080    107.6012     85.0275   8.2191285691e+01   4.4748174277e+01    0.8141206    0.3971496  56.22  0.002882081    2.867    0.651
       111  -9.7296    160.1815     84.3818   6.8402629556e+01   3.2971453794e+01    0.2279373    0.1510053  64.80 0.0009556347    1.731    0.422
       112 -10.3569    143.0545     84.2000   7.2354117759e+01   3.7115973745e+01    0.4616056    0.2100784  56.10  0.001611373    2.485    0.598
       113 -10.8024     25.9576     81.8397   1.0872975603e+02   5.7032995375e+01    0.4814022    0.2644257  50.58  0.002383534    2.541    0.606
       114  -9.7392    121.1591     81.9435   7.7370364043e+01   4.2543651042e+01    0.2867038    0.2061183  63.90  0.001283106    1.701    0.412
       115 -10.3034     75.7968     81.8875   9.1274807609e+01   5.1138635778e+01    0.3112867     0.235033  72.72  0.001519066    1.937    0.484
       116 -10.6586     10.4916     81.7432   1.1417393859e+02   5.8136599766e+01    0.4456209    0.1462874  36.38  0.001946103    3.668    0.727
       117  -9.9276    151.9749     81.4084   6.9383088674e+01   3.5523414322e+01    0.3561982    0.1527613  52.71  0.001245533    2.370    0.578
       118 -10.1111     61.9928     77.2921   9.4679093993e+01   5.4172732117e+01    0.2807073    0.1767506 -77.75   0.00117565    2.723    0.633
       119  -9.3561    158.7744     77.3919   6.6638284941e+01   3.4611536263e+01     0.224086    0.1428886  44.30 0.0008227924    1.619    0.382
       120 -10.6808    130.2898     76.8718   7.3326734794e+01   4.1504367724e+01    0.5220717    0.2825763  60.00  0.001979922    2.291    0.563
       121  -9.8554    142.5380     76.3100   7.0063570330e+01   3.8747600695e+01    0.3923591    0.1920057  54.21    0.0014715    2.126    0.530
       122 -10.8274     84.0903     74.0759   8.6123943304e+01   5.1445827659e+01    0.6075327     0.369871  63.86  0.002391015    2.963    0.663
       123  -9.8536      8.1248     73.4697   1.1347149021e+02   6.0139011795e+01    0.3069939    0.1505194  49.82  0.001494112    3.051    0.672
       124 -10.0287    107.5862     73.0528   7.8420314494e+01   4.7197597443e+01    0.4256399    0.2103473  56.58  0.001548925    2.731    0.634
       125 -10.1868     96.1481     72.4266   8.1703130901e+01   4.9592179980e+01    0.3520105    0.2605984 -72.47  0.001621607    1.966    0.491
       126  -9.6564     43.5181     73.5208   1.0030793868e+02   5.7259398554e+01    0.2144641    0.1144485  41.14 0.0009597678    2.295    0.564
       127 -10.7380     52.7861     70.8796   9.6129459629e+01   5.6764437994e+01    0.5027179    0.3695437  71.46  0.002572819    2.167    0.539
       128 -10.7505     17.6089     70.7833   1.0937031471e+02   6.0146455445e+01    0.2873826    0.1980275  52.24  0.001699499    1.961    0.490
       129 -10.0160    140.0956     67.4000   6.7836523635e+01   4.0954944502e+01    0.3036149    0.2004877  68.62  0.001286712    1.871    0.465
       130  -9.8834    122.9768     67.1442   7.2117970698e+01   4.4994461322e+01    0.3567162    0.2129064  73.96  0.001251201    3.139    0.681
       131 -10.4628     39.1460     65.4906   9.9723857732e+01   5.9465234554e+01    0.4424237    0.2339856  47.77  0.002042562    2.802    0.643
       132 -10.5900    148.2431     69.0070   6.6429786231e+01   3.8697647163e+01    0.4456417     0.214875  62.45   0.00158289    2.527    0.604
       133 -10.2718    112.6194     65.1523   7.4323135424e+01   4.7645130593e+01    0.5081697    0.2121759  53.37  0.001787811    2.767    0.639
       134 -10.1801    101.6166     61.7184   7.6390999159e+01   5.0579267784e+01    0.3578193    0.2568741  79.93   0.00155234    2.383    0.580
       135 -10.8101     75.7633     60.7637   8.4536780575e+01   5.5531294454e+01    0.6112705    0.2720845  47.97  0.002398892    2.858    0.650
       136 -10.2661     26.7298     60.3759   1.0319312393e+02   6.1714600688e+01    0.3805302    0.1683619  41.35  0.001734726    3.130    0.681
       137  -9.2870     90.0424     60.5291   7.9622589810e+01   5.3059013245e+01    0.1958392    0.1289837  67.53   0.00080982    2.611    0.617
       138  -9.8025    132.4495     58.8700   6.6900514266e+01   4.4252687362e+01    0.3036066    0.1830594  61.38  0.001280445    1.856    0.461
       139 -10.9533      8.8822     58.2522   1.0990288104e+02   6.3422968964e+01    0.4097846    0.2527235  48.48  0.002358039    2.345    0.574
       140 -10.1446    120.9512     57.3152   6.9326800677e+01   4.7187878269e+01    0.3802231    0.2364507  67.22  0.001579608    2.170    0.539
       141  -9.9093    141.5211     57.3330   6.4218018191e+01   4.2323365351e+01    0.2817692    0.1383582  54.87  0.001096396    2.008    0.502
       142 -10.4485     55.2254     55.3451   9.0238322694e+01   5.9658092155e+01    0.3833608    0.2852591 -84.32  0.001901489    2.460    0.594
       143 -10.3258     45.3256     56.6351   9.4568825223e+01   6.0635654314e+01    0.3487372    0.2250866  51.18  0.001781424    2.308    0.567
       144 -10.2431     63.7484     55.5124   8.7048691721e+01   5.8426898391e+01    0.3103195    0.2785631  82.03   0.00160789    1.578    0.366
       145  -9.7525    107.7590     55.0015   7.2186789205e+01   5.0493241586e+01     0.292624    0.1918615  75.22  0.001175784    2.677    0.626
       146 -10.5822     32.8655     52.7070   9.8386799417e+01   6.2753661421e+01    0.4657405    0.2588268  48.83  0.002229774    2.933    0.659
       147 -10.2111     21.9505     53.5295   1.0322433691e+02   6.3536570666e+01    0.3415335    0.1898951  37.73  0.001859238    2.321    0.569
       148 -10.6667     94.5361     52.1281   7.5148654324e+01   5.3706723250e+01     0.489145    0.2906001  58.72  0.002117095    2.272    0.560
       149  -9.4378    130.9954     49.5169   6.4064039630e+01   4.6109013054e+01    0.2074712    0.1339389  84.37 0.0008098789    2.552    0.608
       150  -9.4434    114.4917     48.2963   6.7870075589e+01   5.0124041305e+01     0.271673    0.1284926  51.43   0.00108482    2.096    0.523
       151 -10.3654     83.4906     47.8274   7.7144459631e+01   5.6549134518e+01    0.3894386    0.2291495  53.71  0.001771165    2.159    0.537
       152  -9.7968    123.9888     46.9939   6.4909768832e+01   4.8152639444e+01    0.2362181    0.1834061 -74.18  0.001137025    1.752    0.429
       153 -10.2987     46.2341     45.6383   9.0374622985e+01   6.2670723116e+01    0.2923612    0.1864701  41.37  0.001586879    1.955    0.488
       154 -10.4294     18.5038     45.8028   1.0239909115e+02   6.5371838659e+01    0.4006828    0.1842305  30.11  0.002095371    2.568    0.611
       155  -9.1198    134.6286     44.3054   6.1400433601e+01   4.6017015486e+01    0.1518405    0.1148073 -75.14 0.0007032841    1.759    0.431
       156 -10.4525     71.4373     42.9272   7.9475608779e+01   5.9494690460e+01    0.4669636    0.2834603  56.98  0.002120173    2.585    0.613
       157 -10.2304     59.1595     43.3918   8.4305433684e+01   6.1340054437e+01    0.3557372    0.2788823  87.94  0.001815543    2.541    0.606
       158 -10.7722      6.2058     42.6816   1.0699282030e+02   6.6800054296e+01     0.382576    0.2725047  86.34  0.002320752    2.197    0.545
       159 -10.0564    107.8612     42.6127   6.7603182817e+01   5.2469366213e+01    0.3244598    0.2264588  71.88  0.001508451    2.004    0.501
       160 -10.1047     37.9759     41.4968   9.2340344197e+01   6.4405513178e+01    0.2695948    0.2131908  57.13  0.001406162    2.010    0.503
       161 -10.0897     96.7631     39.1354   6.9506886238e+01   5.5350767163e+01    0.3111734    0.2094686  66.02  0.001461612    2.066    0.516
       162  -9.7391     82.4934     37.9827   7.3610929940e+01   5.8334947992e+01    0.3226506    0.2407015 -87.90  0.001489133    2.737    0.635
       163 -10.2877     27.3597     36.8345   9.5341469277e+01   6.6355518465e+01    0.2207497    0.1905488  56.02  0.001349479    1.776    0.437
       164 -10.1856    113.5078     35.8592   6.3517221941e+01   5.2186104848e+01    0.3708564    0.2360756  84.33  0.001481658    2.914    0.657
       165 -10.4247     62.3591     33.7366   7.9136672650e+01   6.2472901594e+01    0.3693356    0.2208257  51.10  0.001818201    2.299    0.565
       166 -10.4799     51.2737     33.7816   8.3609718515e+01   6.4108206256e+01    0.3034755    0.2008873  47.84  0.001644074    2.080    0.519
       167 -10.2847     13.9974     31.3042   9.9635726810e+01   6.8498141388e+01    0.2449287    0.2078161  68.90  0.001664184    1.956    0.489
       168  -9.6912    102.8701     30.3018   6.4232587128e+01   5.5298163487e+01     0.215258    0.1792239  72.64  0.001185991    1.494    0.331
       169 -10.2167     74.4939     32.4043   7.4069147029e+01   6.0640085190e+01    0.3935296    0.1985964  53.21  0.001714506    2.605    0.616
       170 -10.1262     83.1409     28.6935   6.9544854833e+01   5.9567017539e+01    0.3561895    0.2480829  74.99  0.001664059    2.634    0.620
       171 -10.2459      4.7026     28.2686   1.0317321032e+02   6.9675445699e+01    0.2377002    0.1961436  64.58  0.001604432    1.998    0.500
       172 -10.1646     93.4320     27.7964   6.5942702677e+01   5.7629353368e+01    0.3867111    0.2465226  71.56  0.001733838    2.537    0.606
       173  -9.4172     39.9848     25.4699   8.4918157242e+01   6.6941883247e+01    0.1472788    0.1066835  54.93 0.0008086432    2.456    0.593
       174  -9.3423    106.0397     23.5403   6.0674180873e+01   5.5445736746e+01    0.1842688    0.1231323  86.34  0.000809006    2.528    0.604
       175 -10.5031     50.8525     22.3929   7.8778685450e+01   6.5942635189e+01    0.4014712    0.1945146  44.48  0.001949877    2.472    0.595
       176 -10.2846     65.1616     21.6559   7.2748541340e+01   6.3784456609e+01    0.3436973     0.218941  54.07  0.001799419    2.090    0.522
       177  -9.4132     20.4821     21.9839   9.2720025121e+01   6.9613915974e+01    0.1446631    0.1006896 -65.87 0.0007042477    2.482    0.597
       178 -10.2861     75.9219     20.4618   6.8364892635e+01   6.2018675540e+01    0.4379833    0.2092913  54.66  0.001939225    2.536    0.606
       179  -9.1172     12.4781     21.5309   9.6631372279e+01   7.0361854649e+01    0.1167744   0.08731663 -28.70 0.0008094676    1.003    0.003
       180  -9.9073     89.4732     17.9870   6.2970201052e+01   5.9648959506e+01    0.3035279    0.1701366  58.35  0.001454012    1.981    0.495
       181 -10.8082    165.8561    248.8660   1.0141509510e+02   6.2105772041e-01    0.1874386    0.1451991  24.69  0.001244054    1.209    0.173
       182  -8.9029    107.6604    248.6692   1.1219998350e+02   9.6344726583e+00    0.1083095    0.0898625  11.33  0.000705174    1.742    0.426
       183  -9.4108     85.0116     11.5137   6.1442175659e+01   6.1268597030e+01    0.1688653    0.1176551  84.19 0.0008104515    2.572    0.611
       184  -9.9768    246.2890    247.5475   8.6902690460e+01  -1.1080229771e+01    0.2086384   0.09136855  38.50  0.001142583    2.093    0.522
       185 -10.5787    173.5100    243.9424   9.9322959468e+01   1.1816108176e-01    0.1595068    0.1218227 -41.57  0.001036683    1.604    0.376
       186 -10.0851    237.3497    240.0525   8.7216488046e+01  -9.0195799962e+00    0.2138192    0.1266489  22.86 0.0007650162    1.420    0.296
       187  -9.4321     73.6708    229.3149   1.1670461656e+02   1.7952362001e+01    0.1284672   0.07234582  65.15 0.0007044935    1.676    0.403
