#   1 NUMBER                 Running object number                                     
#   2 MAG_AUTO               Kron-like elliptical aperture magnitude                    [mag]
#   3 X_IMAGE                Object position along x                                    [pixel]
#   4 Y_IMAGE                Object position along y                                    [pixel]
#   5 X_WORLD                Barycenter position along world x axis                     [deg]
#   6 Y_WORLD                Barycenter position along world y axis                     [deg]
#   7 A_WORLD                Profile RMS along major axis (world units)                 [deg]
#   8 B_WORLD                Profile RMS along minor axis (world units)                 [deg]
#   9 THETA_WORLD            Position angle (CCW/world-x)                               [deg]
#  10 FWHM_WORLD             FWHM assuming a gaussian core                              [deg]
#  11 ELONGATION             A_IMAGE/B_IMAGE                                           
#  12 ELLIPTICITY            1 - B_IMAGE/A_IMAGE                                       
         1 -14.5542    100.5767     49.4577   4.4193453403e+01   5.1671368369e+01     1.293425    0.9125178  35.01   0.00569297    1.554    0.356
         2 -14.8908      6.3840     70.8285   8.9883029419e+01   6.2894814758e+01     1.125128    0.7643735 -38.36  0.005049443    1.279    0.218
         3 -13.0948    120.4063     25.8636   3.2690877967e+01   5.0141954954e+01    0.8755767    0.5601367  39.72   0.00478114    1.872    0.466
         4 -14.0662    122.1998     36.5759   3.5499975143e+01   4.8503420259e+01     1.021041    0.5310034  40.05  0.003326795    2.500    0.600
         5 -15.5748    218.1064     16.7039   2.0130373595e+01   3.0844902630e+01     1.717149     1.209064 -43.37   0.01286445    1.447    0.309
         6 -14.5902    188.4279     24.1390   2.3812824705e+01   3.5640501440e+01     1.334115    0.5862424 -61.17  0.006920102    2.241    0.554
         7 -13.2875     43.3250     35.9994   5.8972768226e+01   6.5124027999e+01     1.035228    0.6634122 -15.76  0.005446577    1.893    0.472
         8 -13.5573    242.2532     35.6702   2.1885496873e+01   2.4569925999e+01    0.7215025    0.3778878 -75.88  0.003666179    1.838    0.456
         9 -13.9516     57.2023     64.0523   6.3456352411e+01   5.8043253222e+01     2.276966     1.290176  18.20  0.009568291    2.337    0.572
        10 -12.8251      7.7030      2.6598   6.2576145960e+01   7.4958486742e+01    0.6129987    0.3051938  40.91  0.003396265    2.089    0.521
        11 -15.8475     10.9919     24.1984   7.1448104716e+01   7.1561006830e+01     1.801237     1.069284 -17.05  0.009980632    1.753    0.430
        12 -14.6228    147.9818     29.6869   2.9520142259e+01   4.3529092859e+01     1.203253    0.6489636  69.20  0.004866793    1.639    0.390
        13 -13.4894     57.9357     26.6020   4.9004719547e+01   6.3698833211e+01      1.09347     0.338902  45.38  0.003676886    2.672    0.626
        14 -13.4833     87.5120     15.1978   3.5809134710e+01   5.8647311272e+01    0.8228496    0.5236452 -75.05  0.004273373    2.270    0.560
        15 -15.3049     98.9430     11.3839   3.2084394196e+01   5.6433766202e+01      1.43485    0.7412319  62.70  0.005833879    1.558    0.358
        16 -11.6952     70.9702     16.3240   4.0524310367e+01   6.2148540779e+01    0.2427816     0.208469 -11.46 0.0007541205    1.372    0.271
        17 -12.3250     60.1843     15.1132   4.3390146400e+01   6.4524971070e+01    0.5356621    0.2456372  39.78  0.002280614    2.019    0.505
        18 -14.6619    212.5268     40.7738   2.5035851640e+01   2.9074182067e+01     1.873854    0.5947928  76.01  0.007906025    3.984    0.749
        19 -14.1672    187.8955     11.0339   2.1150628980e+01   3.7135433062e+01    0.8347829    0.4399681 -59.95  0.005146154    1.640    0.390
        20 -11.7491     46.8119     12.8134   4.7253013055e+01   6.7410939753e+01    0.2881852    0.2107678  47.58  0.001364187    1.193    0.162
        21 -10.4217     40.5184     12.5257   4.9742614950e+01   6.8619832506e+01    0.1745622    0.1567389 -22.85 0.0006187396    1.362    0.266
        22 -13.8095     42.0786      3.9427   4.4919354743e+01   6.9173307979e+01     0.646932    0.4206113  38.60  0.003120216    1.235    0.190
        23 -11.7510    123.3267     10.5682   2.7792161086e+01   5.0994836328e+01    0.3161931    0.1852275 -78.00   0.00154915    1.910    0.477
        24 -12.2384    152.7798      8.7549   2.3749372716e+01   4.4642641765e+01    0.2498022      0.22526  84.01  0.001677111    1.207    0.172
        25 -11.9143     75.3963      8.4758   3.6242072688e+01   6.1919215268e+01    0.3026393    0.2297902 -13.80  0.001732034    1.628    0.386
        26 -13.2037    140.5474     21.5109   2.8408395474e+01   4.6069232002e+01    0.9171093     0.284999  67.61  0.002666464    2.744    0.636
        27 -10.8995     80.3143      7.3024   3.4594660212e+01   6.0941982153e+01    0.1753726    0.1540457 -10.98 0.0009222199    1.395    0.283
        28 -14.5375     27.2476     11.4499   5.5585754446e+01   7.1038595720e+01     0.891273    0.5495967  16.64   0.00515373    1.663    0.399
        29 -12.1459    119.0998      2.5329   2.6064908823e+01   5.2630039812e+01    0.4094552    0.1898631 -89.79  0.001913355    2.504    0.601
        30 -11.9734     77.3707      2.2415   3.3360753299e+01   6.1992821932e+01    0.7673715   0.07243893  56.84   0.00251739    4.231    0.764
        31 -10.9719     67.3959      3.1139   3.6191814015e+01   6.4086940733e+01    0.2575347    0.1144397  43.97  0.001289979    1.973    0.493
        32 -11.2201     61.3214      1.4509   3.7186836899e+01   6.5505293305e+01    0.3307227   0.09599908  59.87  0.001360776    2.745    0.636
        33 -14.7389    166.6689     28.4662   2.6927422717e+01   3.9624545658e+01    0.9838833    0.7503752  78.99  0.004531614    1.165    0.142
        34 -10.5525     61.0389    152.0003   8.4035514594e+01   3.6541427540e+01    0.1823354    0.1734094 -50.36 0.0009630692    1.037    0.036
        35 -12.7465     51.6472    248.6765   9.8788557532e+01   1.3524552662e+01    0.4248545    0.3638693  28.30  0.002681923    1.070    0.065
        36 -12.2094      2.9027    249.5608   1.1024937715e+02   1.8056827481e+01    0.4131074    0.2725013  47.19  0.001791067    1.259    0.206
        37 -13.9149      9.8297    245.8513   1.0849930314e+02   1.8262079085e+01     1.012376    0.4475484  46.07  0.004173981    1.885    0.469
        38 -11.6068    103.3779    149.8385   7.0269769487e+01   3.0497431122e+01    0.3946643    0.2639694 -32.25  0.001419321    1.683    0.406
        39 -11.8766      8.1166    149.6223   1.0182130220e+02   4.2604222529e+01    0.3024246    0.2109109  25.64   0.00154894    1.513    0.339
        40 -12.1269     60.9040    147.1232   8.3195894914e+01   3.7862203886e+01    0.4276931    0.3025147 -23.28  0.001909844    1.650    0.394
        41 -12.7206    211.1209    154.7453   4.7308130078e+01   1.1362689238e+01    0.3530264    0.3126018 -16.23  0.002363866    1.168    0.144
        42 -11.7954     43.0060    139.0253   8.7999459723e+01   4.2303858824e+01    0.2443332    0.2284309 -38.17  0.001323759    1.033    0.032
        43 -12.6692    246.6511    133.3147   3.8448198222e+01   1.0067870937e+01    0.3745332    0.2644593 -53.09  0.002557358    1.263    0.208
        44 -14.1815    230.9619    128.1166   3.9491412662e+01   1.3070979625e+01     1.045725    0.8260603 -58.01   0.00715198    1.222    0.182
        45 -12.1623    136.1284    132.2780   5.7566052906e+01   2.8603232755e+01    0.5008371    0.2902676  40.16  0.002174433    1.791    0.442
        46 -12.3104    134.5445    126.8905   5.6715569824e+01   3.0078379065e+01    0.4671065    0.4005794 -50.65  0.002471157    1.142    0.125
        47 -14.3976    105.4732    120.7709   6.3053429327e+01   3.7071084609e+01     1.766502     1.246278  31.44  0.008151594    1.475    0.322
        48 -14.8807    106.1719    105.2695   5.8929374292e+01   4.0382420585e+01     1.465102     1.208255  49.60  0.006336916    1.220    0.181
        49 -10.9873      1.5335    119.4834   1.0071448283e+02   5.1098888400e+01     0.224758    0.1658178 -50.25 0.0007408278    1.207    0.172
        50 -11.8492     87.8160    109.1083   6.5580749292e+01   4.3075247190e+01    0.5038404    0.2876763 -57.56  0.002056264    1.971    0.493
        51 -12.6581     78.6307    109.9399   6.8875618466e+01   4.4536959533e+01    0.5513074    0.3872902 -71.86  0.002430734    1.861    0.463
        52 -11.8486     86.6693    114.6998   6.7379110372e+01   4.1986643697e+01    0.4596491    0.3268943   8.10  0.001186386    1.803    0.445
        53 -12.6450     82.0182    115.2918   6.9070302507e+01   4.2675538851e+01    0.6093094     0.397224 -23.78   0.00252098    2.015    0.504
        54 -12.4955     50.4795     98.5028   7.6475873883e+01   5.1742275815e+01    0.8236707    0.4834376   6.97  0.003293872    2.224    0.550
        55 -12.2815     49.1020     93.2498   7.5666021949e+01   5.3172799129e+01    0.4904776    0.3293124  44.90  0.002142034    1.662    0.398
        56 -12.6819     42.2901     90.4102   7.7786174473e+01   5.4766095886e+01     0.335159    0.3049267 -52.94 0.0003565754    1.179    0.152
        57 -14.6851     15.1658    106.6183   9.3156410828e+01   5.3578566873e+01     1.588791     1.111184  68.71  0.007769993    1.856    0.461
        58 -14.3253     24.6587     92.8798   8.6193971569e+01   5.6199311764e+01     1.348943      1.09081   4.52  0.006598793    1.218    0.179
        59 -12.0374     19.1030     86.2855   8.7234305425e+01   5.8303127874e+01    0.3026999      0.22178 -21.34 0.0006669859    1.311    0.237
        60 -13.4068      2.2675     96.9974   9.7126484098e+01   5.6866352054e+01    0.8631936     0.288999 -71.04  0.003167985    2.911    0.656
        61 -12.6228    121.7258    111.9538   5.6364623704e+01   3.5823803384e+01    0.2846816    0.2224717  48.88 0.0007830445    1.296    0.228
        62 -11.6738     63.5891    110.9040   7.4502049517e+01   4.6799237111e+01    0.4529113    0.2799332  45.23  0.001957084    1.760    0.432
        63 -12.0998    177.9510    109.9660   4.3836453406e+01   2.5058291336e+01    0.3291799    0.3065448   7.03  0.002038044    1.297    0.229
        64 -10.8613     46.0579    110.2234   8.1090142955e+01   4.9471857021e+01    0.3282282    0.1483642 -37.55  0.001172128    2.573    0.611
        65 -12.1815     36.6973     92.8477   8.0838772121e+01   5.4896875096e+01    0.4993149    0.2904905   8.51   0.00159934    1.966    0.491
        66 -11.0227     42.7609    106.5678   8.1580232754e+01   5.0806589221e+01    0.2695633    0.1457789  17.60 0.0009227692    2.002    0.501
        67 -12.4987    136.3385    102.5972   5.0438463942e+01   3.4743340447e+01    0.6226421    0.2879511  48.65  0.002020108    2.191    0.544
        68 -13.5503    136.9814     94.9520   4.8374350330e+01   3.6079699835e+01    0.5988334    0.5056434 -81.23  0.002320773    1.290    0.225
        69 -11.8665    129.4763     96.0267   5.0380665379e+01   3.7456083394e+01    0.2970727    0.2152862  58.79  0.001471008    1.433    0.302
        70 -11.1642    125.7241     92.5764   5.0384707469e+01   3.8911590435e+01    0.2786697    0.2105234 -74.98  0.001363146    1.629    0.386
        71 -13.7284    119.2318    102.0346   5.4493601332e+01   3.8401320725e+01    0.5774917    0.4021205  31.27  0.002698373    1.635    0.388
        72 -12.3042     61.2958     97.6734   7.1978419817e+01   5.0306608401e+01    0.5353434    0.3965491  70.64  0.002042671    1.958    0.489
        73 -13.0349    249.3051     96.5069   3.1765450459e+01   1.5337051556e+01    0.6387101    0.1286716 -45.41  0.002509611    3.578    0.721
        74 -11.6345    163.0783     96.9235   4.3558930758e+01   3.0317430285e+01    0.3107045    0.2512111 -86.68  0.001075707    1.353    0.261
        75 -11.8689    181.0511    120.4920   4.5557238488e+01   2.2548159676e+01    0.1900782    0.1350868  50.20 0.0007633854    1.565    0.361
        76 -11.0914     81.4599     93.2156   6.3407700642e+01   4.7788593684e+01    0.3258296    0.2293403  -2.11  0.001421052    2.005    0.501
        77 -11.7097      5.6926    119.3193   9.9052007469e+01   5.0905498554e+01    0.4005806    0.2445669 -14.82  0.001906017    1.811    0.448
        78 -11.3054     35.3851     86.4974   7.9784599787e+01   5.6545634083e+01    0.2737696    0.2234847 -23.29  0.000679852    1.164    0.141
        79 -13.3916    188.7206     81.4298   3.5970904391e+01   2.7855197926e+01     1.288682    0.8667275  87.58  0.007150803    1.741    0.426
        80 -13.6940    199.5351     69.5435   3.2079980555e+01   2.7605119384e+01    0.7375282    0.5559851  49.99  0.003957348    1.668    0.401
        81 -12.4746    199.7110     61.5390   3.0416802960e+01   2.8719723788e+01    0.3942915    0.3452808  83.70  0.002036509    1.205    0.170
        82 -13.0097    212.7019     77.8310   3.2211764397e+01   2.3981591364e+01    0.8638007    0.5040634 -85.58  0.004594172    2.287    0.563
        83 -12.9861    216.1583     72.4881   3.0791497989e+01   2.4157372538e+01    0.5851454      0.35343 -77.72  0.003365486    1.905    0.475
        84 -14.1114    163.8588     71.4733   3.7443077243e+01   3.4426636263e+01     1.238415    0.8607165  60.69  0.006942875    1.438    0.304
        85 -13.3133    160.9805     80.4018   4.0045491475e+01   3.3595314268e+01    0.7077738    0.5063532  13.97  0.003337675    2.599    0.615
        86 -14.2361    169.2678     76.9296   3.7858313746e+01   3.2442696008e+01    0.8123119    0.5975046  35.60  0.003091417    1.853    0.460
        87 -13.4043    239.6648     81.4089   3.0059269044e+01   1.8978872418e+01     0.601359    0.3429038 -83.80  0.003434209    2.411    0.585
        88 -11.5661    127.1868     83.3877   4.7598847761e+01   4.0303188965e+01    0.3971561    0.2087698  38.47  0.001373595    2.287    0.563
        89 -10.9967     97.8350     84.1861   5.5576344676e+01   4.6396853602e+01    0.2084464    0.1730839  15.68  0.001075335    1.374    0.272
        90 -11.9836    109.7148    249.2881   8.4810193054e+01   6.6179184229e+00    0.3632066     0.157478  30.22  0.001621118    1.962    0.490
        91 -12.6527     54.7981     81.3665   6.9955232019e+01   5.4971203561e+01    0.5508063    0.4929771 -50.67  0.003101775    1.225    0.184
        92 -14.0245     61.2483     75.4341   6.5535632928e+01   5.5137162047e+01    0.8111311    0.6050283 -14.64   0.00277264    1.542    0.351
        93 -13.7878     87.0217     65.6980   5.3265615170e+01   5.2027564760e+01     1.178705    0.7378943  17.77  0.003737692    2.517    0.603
        94 -13.2031     71.1144     75.1044   6.1674152456e+01   5.3435502891e+01    0.6360228    0.4500351   3.20  0.001632159    1.866    0.464
        95 -12.0045     77.1540     73.2775   5.8941985523e+01   5.2639367257e+01    0.5121431    0.2909118 -35.31  0.001566963    1.982    0.495
        96 -12.1024    114.0559     79.9359   4.9861936914e+01   4.3762901258e+01    0.4422501    0.3356006 -57.14  0.001597164    1.435    0.303
        97 -12.7130    135.4702     79.2169   4.4648218094e+01   3.9242710158e+01    0.6987816    0.3564664  54.69  0.002731928    1.921    0.480
        98 -11.3610     42.5142     79.4742   7.4646197117e+01   5.7203995491e+01    0.2601782    0.1841417 -48.70 0.0009146419    1.430    0.301
        99 -11.2687     41.8288     76.1312   7.3963119415e+01   5.8022471084e+01    0.2786167    0.2315384  51.99  0.001245302    1.469    0.319
       100 -13.5677     28.3685    245.9778   1.0417062277e+02   1.6514227597e+01    0.5029562    0.3932396  69.77  0.002674168    1.253    0.202
       101 -14.1900      3.9910     63.2046   8.9269043027e+01   6.4753819326e+01    0.8069469    0.5827221  -9.91  0.001098536    1.267    0.211
       102 -11.3058     97.4885     78.5300   5.4024114227e+01   4.7544265937e+01    0.1440908    0.1364732  47.15 2.174824e-05    1.014    0.014
       103 -11.3759     26.7186     74.7362   8.0626147258e+01   6.0207349768e+01    0.4592922    0.2725668 -79.54  0.001881737    3.015    0.668
       104 -12.3693    241.8533     70.9071   2.8002178873e+01   2.0112783399e+01    0.3532789    0.2008143 -68.75  0.002196975    1.795    0.443
       105 -11.3347    118.0172     72.2150   4.6693944528e+01   4.4254343650e+01    0.2300618    0.2048564 -45.36 0.0005302245    1.183    0.154
       106 -13.2896    133.7046     65.7004   4.1419266167e+01   4.1853692756e+01    0.7836418    0.6558127  10.76  0.003503021    1.629    0.386
       107 -12.0175    100.0198     64.1487   4.8951267501e+01   4.9531938067e+01    0.3992031     0.336581 -25.51  0.002244056    1.343    0.255
       108 -13.3445     66.2243     49.1981   5.4706708400e+01   5.8929790154e+01     0.747434    0.6578038 -34.27   0.00453731    1.266    0.210
       109 -13.0806     79.0970     60.2832   5.4060135145e+01   5.4573904944e+01    0.6192709    0.4918531 -36.39  0.002985493    1.369    0.269
       110 -13.8214    177.9448     56.1708   3.1881456618e+01   3.3760421602e+01    0.8882345     0.498191 -50.69  0.003961864    1.637    0.389
       111 -11.8488     38.9782     59.8888   7.0070045103e+01   6.1729842650e+01    0.3457529    0.2255379  62.13  0.001500438    2.873    0.652
       112 -11.7293     34.8850     59.6583   7.1958794292e+01   6.2347966773e+01    0.6101506    0.1764007 -44.44  0.002153872    3.403    0.706
       113 -12.0289     37.1590     53.0363   6.8527560898e+01   6.3276674056e+01    0.4237835    0.2052393 -32.14  0.001829589    2.416    0.586
       114 -11.7615     24.8439     59.0597   7.6820707543e+01   6.3731114371e+01    0.4037403    0.2278006 -47.38  0.002014919    1.741    0.426
       115 -14.6211    119.8417     54.1438   4.1086912526e+01   4.6692787848e+01     1.020334    0.6425517  50.98  0.005242253    1.494    0.331
       116 -13.4223    170.6844    243.1709   7.0259745104e+01   5.0600009064e-01    0.3802145    0.2888626   2.24  0.002397132    1.110    0.099
       117 -12.1322    135.1804     39.0800   3.3916805671e+01   4.5264102437e+01     0.468343     0.248044  73.67  0.001349431    1.904    0.475
       118 -12.4552    109.9689     41.9116   3.9586212942e+01   5.0600407403e+01    0.4692737    0.1701735  56.40 0.0006990746    2.374    0.579
       119 -14.1035     97.0005    239.1667   8.6631360071e+01   1.0243996513e+01    0.6724951    0.5020677  41.30  0.003686326    1.335    0.251
       120 -12.5966    113.4992     37.7890   3.7568858452e+01   5.0326411548e+01    0.3698005      0.27859  60.42  0.001383927    1.167    0.143
       121 -13.1006    131.6714     33.1453   3.2868140174e+01   4.6771033133e+01    0.4993449    0.4068591  11.79   0.00197004    1.753    0.430
       122 -12.6858    247.8892     54.2300   2.4635165131e+01   2.1382834223e+01    0.4440182    0.2397872 -53.99   0.00298665    1.386    0.278
       123 -12.2428    248.8757     48.8020   2.3648385979e+01   2.1915396793e+01    0.2824265    0.2366639 -81.37   0.00181984    1.276    0.216
       124 -11.4741     17.6813     55.5167   7.9487939477e+01   6.5222244794e+01    0.3030066    0.1974257 -52.94  0.001640528    1.617    0.382
       125 -11.7078    230.7343     54.9490   2.6122010441e+01   2.4068567569e+01    0.3045441    0.1588281  74.95  0.001856887    2.095    0.523
       126 -12.1387    135.4748     50.0281   3.6839956614e+01   4.3764986580e+01    0.4660938    0.2634074  40.32  0.001869749    2.294    0.564
       127 -10.4970     23.6313     50.0790   7.4395126507e+01   6.5621368777e+01    0.1762719     0.106713 -34.25 0.0004822885    1.616    0.381
       128 -13.3548    157.4877     43.3897   3.1630826775e+01   3.9788348639e+01     0.748216    0.5320422  38.55  0.004245599    1.935    0.483
       129 -11.0239     38.9576     46.0012   6.5027541892e+01   6.4244323757e+01    0.2009621    0.1745258  11.23  0.000484522    1.032    0.031
       130 -10.9700    147.3383    238.6889   7.4639188991e+01   4.0595789654e+00    0.1246457    0.1001625  49.79 0.0005124687    1.689    0.408
       131 -12.4746     23.9652    216.4428   1.0314073950e+02   2.3783379197e+01     0.827057    0.3499416  40.62  0.003594589    2.084    0.520
       132 -11.0158     25.6166     44.3263   7.1195913577e+01   6.6426681684e+01    0.1848187    0.1577697  54.51  0.001115358    1.655    0.396
       133 -10.7883     35.0455     34.7380   6.2404091314e+01   6.6664903148e+01    0.2307033    0.1637215  28.06 0.0006948475    1.216    0.178
       134 -13.9001     26.4525    226.3490   1.0325227392e+02   2.1167871635e+01     0.909361    0.4166577 -48.83  0.003953585    2.569    0.611
       135 -12.5280     75.8579     36.9652   4.6927663456e+01   5.8735296750e+01    0.4678092     0.289119  46.49  0.001317474    1.398    0.284
       136 -11.7983     70.7724     36.0125   4.8217123090e+01   5.9918550451e+01    0.3035385    0.2538601 -42.46 0.0009801215    1.408    0.290
       137 -13.8483     20.5113    224.0737   1.0459630168e+02   2.2266908858e+01    0.7672845    0.5484818  26.97  0.004344367    1.348    0.258
       138 -12.3462    245.5013     29.9547   2.0721914441e+01   2.4714051642e+01    0.3181809    0.1491914 -45.61   0.00209244    1.646    0.393
       139 -13.8526     66.4558    223.0992   9.2530076326e+01   1.7592331081e+01    0.8765091    0.7534026  11.83  0.005032593    1.160    0.138
       140 -12.5459     94.1875    218.1760   8.4606344400e+01   1.5226187240e+01     0.317742     0.222546  31.14  0.001345733    1.320    0.242
       141 -13.9384     64.8558    214.4046   9.1955031343e+01   1.9858560526e+01    0.6319559    0.4337195  47.06  0.002901177    1.451    0.311
       142 -10.9271    136.6083    210.8219   7.2792630787e+01   1.1035270416e+01    0.1893271    0.1365682 -61.59 0.0009488157    1.700    0.412
       143 -13.0185     59.4818    212.5268   9.3200186273e+01   2.0960327331e+01    0.5311853    0.3009732 -42.74  0.001431162    2.005    0.501
       144 -10.4480     88.0658     28.0522   4.0234512222e+01   5.7188750199e+01    0.1674694    0.1433657 -89.17 0.0006024605    1.312    0.238
       145 -10.6255     98.0207     27.2065   3.7546778934e+01   5.5065081923e+01     0.185142   0.08909236  60.04   0.00087508    1.765    0.433
       146 -12.1224     30.9680     25.2706   6.0323770895e+01   6.8682687120e+01    0.4128348    0.1858182  28.00  0.001759613    2.254    0.556
       147 -12.1343     36.2617     23.5573   5.6885131010e+01   6.8054620851e+01    0.3415121    0.2443317 -18.32  0.002079908    1.507    0.336
       148 -12.4687     32.9880     40.3907   6.5773926723e+01   6.6081066586e+01    0.3462805    0.2483504  17.72 0.0006330825    1.251    0.201
       149 -12.2016     41.2375    206.0818   9.7537599025e+01   2.4624193111e+01    0.2753451    0.1887123  73.57  0.001354387    1.619    0.382
       150 -12.1717     57.5086    202.2599   9.2539780723e+01   2.3749181580e+01    0.7259412    0.3056055 -73.24  0.002648592    2.837    0.647
       151 -11.7065     51.5230     20.3455   4.8782296954e+01   6.5686564577e+01    0.3047086    0.1086726  53.17  0.001240669    2.714    0.632
       152 -11.8565    181.6540     38.0790   2.7444860123e+01   3.5372513498e+01    0.2566604    0.1972755 -45.63  0.001519639    1.326    0.246
       153 -12.2844     17.0755    195.3953   1.0333064757e+02   2.9696112960e+01    0.4311126    0.2284197 -66.06  0.001998232    1.789    0.441
       154 -12.2158     40.3339    194.8533   9.6609644081e+01   2.7593425059e+01    0.4599007    0.2672681 -83.66   0.00203222    1.927    0.481
       155 -11.7804     36.5268    194.4910   9.7674424200e+01   2.8087365420e+01    0.3403757    0.2594904  84.61    0.0014651    1.373    0.272
       156 -13.2852     22.2198    180.7264   1.0049713469e+02   3.3094240958e+01    0.9751199    0.3974221 -58.71  0.003887064    2.243    0.554
       157 -14.8364      8.4965    183.1964   1.0480099307e+02   3.3570944275e+01     1.348269     1.270307  39.95   0.00829795    1.107    0.097
       158 -14.2541     15.6614    174.8831   1.0192533272e+02   3.5214421492e+01     2.070689    0.5967989  39.44  0.007110537    3.209    0.688
       159 -11.0420    201.1266    191.3359   5.5697643631e+01   6.1060418512e+00    0.2023149    0.1485997  -3.73  0.001195322    1.418    0.295
       160 -12.8235    198.2206    180.8875   5.4356792511e+01   8.4015175305e+00    0.3915346    0.2980292 -72.92   0.00213064    2.101    0.524
       161  -9.9733     55.3616     11.2692   4.3370939481e+01   6.5883404895e+01    0.1308603   0.07537831  34.63 0.0006995357    1.649    0.394
       162 -11.4311     48.9493    181.3604   9.2424656153e+01   3.0182505120e+01    0.3105555    0.2137936 -55.85  0.001481983    1.431    0.301
       163 -13.2020     30.0285    169.2437   9.6815818761e+01   3.5456540685e+01    0.8793114    0.5114562 -35.93  0.003743868    1.982    0.495
       164 -12.5185    124.6077    167.7821   6.8061308174e+01   2.2560448164e+01    0.5913408    0.2405671 -53.28  0.002104529    2.500    0.600
       165 -11.5212     22.2923    165.9866   9.8918709776e+01   3.7053045272e+01    0.2063063    0.1831771 -71.12 0.0007532272    1.070    0.066
       166 -11.3938    163.6599    194.3320   6.3732804190e+01   1.0632962332e+01    0.1311779    0.1125222  76.90 0.0007051592    1.746    0.427
       167 -11.3985    112.4941    157.0182   6.9163909311e+01   2.7177559128e+01    0.2400058     0.150589 -52.52  0.001031915    1.588    0.370
       168 -12.1006     77.0617    156.7470   7.9687883794e+01   3.2994865193e+01    0.4588094    0.3300692  17.21  0.001135842    1.484    0.326
       169 -12.9293     73.5162    153.2027   8.0156423514e+01   3.4452377958e+01    0.7356587    0.5351614  12.88  0.002450937    1.510    0.338
       170 -11.9181     11.7213     43.4668   7.8780921647e+01   6.8156650729e+01    0.4652253    0.2358038   4.66  0.001981148    2.168    0.539
       171 -12.6433      3.6187     42.8017   8.3482432384e+01   6.8993088045e+01    0.5387748    0.3438329   2.32  0.003106162    1.424    0.298
       172 -11.4010     86.2598    152.2177   7.5922384689e+01   3.2744952129e+01    0.4806601    0.2332522 -37.02  0.001674305    2.562    0.610
