#   1 NUMBER                 Running object number                                     
#   2 MAG_AUTO               Kron-like elliptical aperture magnitude                    [mag]
#   3 X_IMAGE                Object position along x                                    [pixel]
#   4 Y_IMAGE                Object position along y                                    [pixel]
#   5 X_WORLD                Barycenter position along world x axis                     [deg]
#   6 Y_WORLD                Barycenter position along world y axis                     [deg]
#   7 A_WORLD                Profile RMS along major axis (world units)                 [deg]
#   8 B_WORLD                Profile RMS along minor axis (world units)                 [deg]
#   9 THETA_WORLD            Position angle (CCW/world-x)                               [deg]
#  10 FWHM_WORLD             FWHM assuming a gaussian core                              [deg]
#  11 ELONGATION             A_IMAGE/B_IMAGE                                           
#  12 ELLIPTICITY            1 - B_IMAGE/A_IMAGE                                       
         1 -12.0087    200.8819     34.8041   4.2131051929e+01   3.1424539865e+01    0.7948685    0.6868233  58.38  0.001944483    1.236    0.191
         2 -12.1877    223.0538      9.0987   3.3765865952e+01   2.9292900446e+01    0.8357403    0.7001632 -69.78  0.004506681    1.043    0.042
         3 -10.4845     74.1426     13.0036   6.0422988568e+01   6.3359553614e+01    0.3281007     0.212331  61.55  0.001746363    1.974    0.493
         4 -11.0644     59.0114      4.6933   6.1832600500e+01   6.6992270317e+01    0.3808958    0.2393668 -14.21   0.00225669    1.568    0.362
         5 -10.0274    149.4834    229.5304   9.6773242809e+01   6.1518830143e+00    0.2380528    0.1746399   0.02  0.001303482    1.735    0.424
         6 -10.4692    140.4594    248.8017   1.0123118933e+02   4.2829048512e+00    0.2683492    0.2322445  58.66  0.001751445    1.257    0.204
         7 -19.4561      9.0949    145.8343   1.1956972972e+02   4.3402232227e+01     19.37834     3.044109 -76.12   0.05154305    6.371    0.843
         8 -10.3100    107.5974    203.7520   1.0224617348e+02   1.7912936517e+01    0.2881501    0.2053806 -79.68  0.001141036    1.640    0.390
         9  -8.9850     73.4934    238.9085   1.1359731501e+02   1.5700612138e+01    0.3539147    0.1121304 -66.02  0.001516731    3.380    0.704
        10 -10.2319    114.1797    195.0007   9.9420379134e+01   1.8737711818e+01    0.3042521    0.1954281 -40.91  0.001457988    1.839    0.456
        11 -10.6978    121.5101    197.0611   9.8025995139e+01   1.7078136771e+01    0.4741311     0.288254 -78.02  0.001263458    2.471    0.595
        12  -9.7831    192.9860    194.2311   8.1670329301e+01   5.1545210375e+00     0.392976     0.241241 -71.35  0.001245054    5.526    0.819
        13  -9.3161     82.1539    194.8466   1.0695656387e+02   2.3720735938e+01    0.3010742    0.1767897 -50.37  0.001467526    1.887    0.470
        14  -9.4295    147.7054    188.3059   9.0451179734e+01   1.4364940818e+01    0.2984606    0.1826029 -85.17 0.0009730732    4.332    0.769
        15  -9.3754     75.5733    248.3241   1.1401768897e+02   1.3662957354e+01     0.358029    0.1702285 -53.67  0.001872977    2.635    0.620
        16  -8.3862     92.0062    183.9729   1.0307923306e+02   2.4747521832e+01    0.2099478    0.1710421 -19.27 0.0005542194    1.636    0.389
        17  -9.2957     99.4492    180.9886   1.0078633119e+02   2.4275801281e+01    0.2441416    0.2015799  15.93  0.000572672    1.440    0.306
        18 -10.3365     71.9263    245.2585   1.1446054514e+02   1.4706926882e+01    0.3457835    0.2813819 -69.33  0.002000367    1.407    0.289
        19  -9.7458    186.9222    175.2993   7.9192390436e+01   9.7396848113e+00    0.3352409    0.3071474 -52.16  0.001048647    1.261    0.207
        20  -8.6220    148.5092    175.4788   8.7846826766e+01   1.6918669212e+01    0.2144139    0.1458165 -61.45 0.0009728206    1.759    0.431
        21  -9.5398     84.0136    174.2470   1.0361576754e+02   2.8235891894e+01    0.2660081    0.1957438 -54.10 0.0005645416    1.380    0.275
        22 -11.8565     52.7556    172.5432   1.1129143103e+02   3.2816957549e+01     0.788359    0.3115245 -61.49  0.001600682    2.250    0.555
        23 -11.2091    105.1601    171.7933   9.7831171372e+01   2.5489556116e+01    0.6757038    0.2690724  46.74  0.002449326    2.630    0.620
        24 -10.6554     72.3125    162.9192   1.0492417841e+02   3.2649370639e+01    0.3573061    0.2503833 -76.84  0.001822342    1.424    0.298
        25 -10.9484     67.4400    160.5153   1.0585427586e+02   3.3899277540e+01    0.3251318    0.2262088 -73.46  0.001295009    1.379    0.275
        26  -9.8301     87.2308    157.5729   1.0005399238e+02   3.1781729410e+01    0.2553408    0.2530217 -48.31 0.0006018706    1.100    0.091
        27 -11.0668     47.7692    172.9485   1.1258313070e+02   3.3298870713e+01    0.4264463    0.2734015 -44.29   0.00169627    1.882    0.469
        28  -9.8869     58.4865    159.0783   1.0803405164e+02   3.5401561610e+01    0.2140904    0.1240042 -66.00 0.0006553277    1.574    0.364
        29 -10.7662     93.5313    151.2862   9.7193608379e+01   3.2326656604e+01    0.6232036    0.4448497 -24.09  0.002859315    1.896    0.473
        30 -10.1601    134.0528    146.4266   8.5346043842e+01   2.6169915365e+01    0.9532468    0.2522592 -54.29  0.002305034    5.285    0.811
        31  -9.0138    112.9719    150.9918   9.1861259631e+01   2.9074386498e+01    0.2381294    0.1845391  79.04 0.0006355478    1.601    0.375
        32 -10.1939    105.7881    137.4035   9.0946495404e+01   3.3627309951e+01    0.5483477    0.2948693 -31.04  0.001935968    2.829    0.647
        33  -9.7339    105.9670    130.8344   8.9421813255e+01   3.5178771297e+01    0.3727487    0.3323555 -74.99  0.001391279    1.184    0.155
        34 -10.5948     93.7842    136.9859   9.4268037769e+01   3.5793326866e+01    0.3000208    0.2588797 -38.45  0.000405207    1.195    0.163
        35  -9.6137     77.9459    134.3909   9.8354689942e+01   3.8915459170e+01    0.3032748    0.1730383  52.53  0.001283166    2.080    0.519
        36 -10.7871    113.9983    128.6550   8.6639187871e+01   3.4211579903e+01    0.5566698    0.3178085 -41.34    0.0021904    1.804    0.446
        37  -9.3501    101.1584    124.6458   8.9372299587e+01   3.7528430427e+01     0.281123    0.2233018 -33.39 0.0004641264    1.328    0.247
        38 -10.2009     66.2809    124.9186   9.9987636030e+01   4.2911099168e+01    0.3533704    0.1990319  31.25  0.001595177    1.938    0.484
        39  -8.4051    109.3520    118.0478   8.5370918662e+01   3.7591522503e+01    0.2172555    0.1871534 -46.19 0.0003846317    1.123    0.109
        40  -8.8165    231.4811    113.8145   5.7058912212e+01   1.2426164524e+01    0.2372933    0.2008249  50.78  0.001040151    1.332    0.249
        41 -11.0265    117.8484    109.5975   8.0725991375e+01   3.7875408088e+01    0.6232211    0.4459879  70.60  0.002661347    1.975    0.494
        42  -8.5088    205.4408    110.1581   6.0588674348e+01   1.8472971105e+01    0.2348284    0.1789126  59.37 0.0007572448    1.462    0.316
        43  -9.9037    144.9657    227.0116   9.7356487281e+01   7.3220435134e+00    0.2412945    0.1368083  16.35  0.001034163    2.621    0.618
        44  -9.1800     89.5995    211.7661   1.0736658906e+02   1.8941862792e+01    0.2495697    0.2005374  81.01 0.0008340576    1.245    0.197
        45 -10.4872    133.9111    211.6087   9.7461055630e+01   1.2026135831e+01    0.2566358    0.2135317 -69.37  0.001482675    1.393    0.282
        46  -9.4733     71.1687    210.8296   1.1133493767e+02   2.1718226457e+01    0.2753463    0.1578723  66.76   0.00124973    1.891    0.471
        47  -8.3885    184.3152     77.3142   5.5951917196e+01   2.9126511069e+01    0.1484591    0.1168591  17.39  0.000703508    1.643    0.391
        48 -11.6487    180.0432     53.8550   5.0221729434e+01   3.3864799895e+01    0.5748814    0.4540909 -24.43  0.001942992    1.396    0.284
        49 -12.7788    194.9766     41.1704   4.4538090667e+01   3.2011098698e+01     1.253644    0.9224449  33.89  0.005337189    1.748    0.428
        50  -9.3445     83.4916    244.9812   1.1217509644e+02   1.3218775121e+01      0.16428    0.1145467 -71.86  0.001030302    1.583    0.368
        51  -8.8414     66.0527    241.8081   1.1531160215e+02   1.6113876990e+01    0.1753158    0.1240208  60.72 0.0003304202    1.178    0.151
        52 -10.9228    110.9623    203.2674   1.0140445373e+02   1.7481330468e+01    0.4160109    0.2709199  83.46  0.001270217    2.190    0.543
