#   1 NUMBER                 Running object number                                     
#   2 MAG_AUTO               Kron-like elliptical aperture magnitude                    [mag]
#   3 X_IMAGE                Object position along x                                    [pixel]
#   4 Y_IMAGE                Object position along y                                    [pixel]
#   5 X_WORLD                Barycenter position along world x axis                     [deg]
#   6 Y_WORLD                Barycenter position along world y axis                     [deg]
#   7 A_WORLD                Profile RMS along major axis (world units)                 [deg]
#   8 B_WORLD                Profile RMS along minor axis (world units)                 [deg]
#   9 THETA_WORLD            Position angle (CCW/world-x)                               [deg]
#  10 FWHM_WORLD             FWHM assuming a gaussian core                              [deg]
#  11 ELONGATION             A_IMAGE/B_IMAGE                                           
#  12 ELLIPTICITY            1 - B_IMAGE/A_IMAGE                                       
         1 -12.3540    202.7023     34.5235   4.6714938058e+01   3.0043093501e+01     1.244308    0.9220458  39.90  0.005442522    1.592    0.372
         2 -12.1384    216.8596     19.8134   4.1250772653e+01   2.8369339392e+01    0.7530524     0.653649 -64.34  0.002921483    1.052    0.050
         3  -9.6949     33.0046     14.1852   8.4133580019e+01   6.9387181139e+01    0.4217852     0.092386 -41.84  0.001486573    4.378    0.772
         4  -9.7368     57.4016      6.3183   6.9294457267e+01   6.6922162689e+01    0.1830007    0.1554319  56.03  0.001065834    1.709    0.415
         5  -8.7286    240.0057      1.4744   3.4965789367e+01   2.5023456601e+01    0.1870746    0.1086601  81.28  0.001036467    1.607    0.378
         6 -10.3978     32.7814    204.1317   1.2321582440e+02   2.7785340886e+01    0.3751923    0.1677794 -76.23  0.002011221    2.002    0.500
         7 -13.2026     87.4103    228.3764   1.1464892989e+02   1.5996950412e+01     1.930892    0.7757025  53.85 0.0008730105    2.366    0.577
         8 -14.1461     69.8361    247.0783   1.1958088808e+02   1.5034808974e+01      5.62167     1.233262  36.49   0.02047544    4.573    0.781
         9  -8.1558     99.7466    180.7928   1.0612962059e+02   2.3873969109e+01    0.1949464     0.148796  69.84 0.0005196923    1.331    0.249
        10 -10.3769     66.2932    178.9255   1.1364510417e+02   2.9245877093e+01    0.4115158    0.2708061 -37.61  0.002076371    2.248    0.555
        11 -10.3611     70.8476    173.5986   1.1190712279e+02   2.9845878456e+01    0.3233772    0.2614457 -48.90  0.001026759    1.436    0.304
        12 -13.1304     10.4220    206.4782   1.2760486037e+02   2.9552345176e+01      0.99746    0.7663358  26.85   0.00416005    1.812    0.448
        13  -9.3419    167.4718    222.5104   9.7875698116e+01   4.2008918841e+00    0.1309033    0.1107713  33.78 0.0001981723    1.017    0.016
        14  -8.3672    164.3170    218.3291   9.7861974661e+01   5.4255943165e+00    0.1322332   0.09674884   7.58 0.0003633158    1.681    0.405
        15 -11.7110     68.9025    144.6843   1.0814276095e+02   3.6973363520e+01    0.7593601    0.5240828  79.86  0.002637384    1.648    0.393
        16 -11.7505     67.4538    160.0580   1.1087204406e+02   3.3475179834e+01    0.4745458    0.3590576 -48.02  0.001097462    1.473    0.321
        17 -11.1879     74.2866    155.0446   1.0839534453e+02   3.3726259365e+01    0.7534895    0.4621339  75.02  0.003440227    2.058    0.514
        18 -10.9478     80.2796    163.9632   1.0826117508e+02   3.0744055887e+01    0.5813888    0.3742214  44.12 0.0008280078    1.536    0.349
        19 -10.6630     85.9460    157.9476   1.0589025693e+02   3.1311458949e+01     0.593777    0.4041625 -32.61   0.00161822    2.046    0.511
        20  -9.9943     74.1660    229.9298   1.1734718948e+02   1.7559082603e+01    0.3588622     0.145643 -71.90  0.001724085    2.768    0.639
        21  -7.9802    126.4185    155.4270   9.5213376524e+01   2.4900046596e+01    0.1474295    0.1416458  74.28            0    1.024    0.023
        22 -13.0496     46.9549    222.8072   1.2189705488e+02   2.2408410892e+01     1.304782     1.182729  24.05  0.001346222    1.611    0.379
        23  -7.9727    134.6703    148.3340   9.1683364094e+01   2.4896069126e+01    0.1585864    0.1209227  81.94 0.0007052048    1.724    0.420
        24  -8.7424     83.0717    143.0142   1.0405602006e+02   3.5333910106e+01    0.2700916    0.1869581 -68.38   0.00123211    1.405    0.288
        25  -9.3133    100.6402    141.9636   9.9141356911e+01   3.2734523319e+01    0.4158716    0.2732355 -29.96  0.001795869    2.093    0.522
        26 -10.4795     88.4230    141.6169   1.0235465332e+02   3.4839328989e+01    0.2941924    0.2573822 -38.40   0.00161683    1.261    0.207
        27  -8.9181     33.4678    139.6527   1.1681506887e+02   4.2297030024e+01    0.3012097    0.1347552 -63.95  0.001435471    1.826    0.452
        28 -11.6053     58.7166    132.7358   1.0893730812e+02   4.1213304176e+01      1.01117    0.3252774 -69.14  0.003250823    3.682    0.728
        29  -8.6944    106.0035    130.5618   9.5275599418e+01   3.4510439584e+01    0.3100557    0.2154374 -72.55  0.001385903    1.704    0.413
        30  -9.3304     97.9137    127.7283   9.6893436006e+01   3.6619825628e+01    0.2967165    0.2500056 -11.64 0.0007488468    1.460    0.315
        31  -8.0292    107.4869    119.9965   9.2412847690e+01   3.6743587554e+01    0.2230169    0.1462659 -50.72 0.0003258215    1.465    0.317
        32  -9.0625    110.7859    131.6581   9.4215051263e+01   3.3372850679e+01    0.2308239    0.1940645  14.86  0.001149945    1.406    0.289
        33 -11.9383     10.3227    188.4544   1.2655185750e+02   3.3296124728e+01    0.5336156    0.4045773  61.52 0.0007472059    1.212    0.175
        34  -8.7496     33.0000    108.9898   1.1246563003e+02   4.9742067280e+01    0.2246419   0.06301025 -65.73 0.0006666459    2.946    0.661
        35  -8.1399    205.5287    110.4624   6.6560318550e+01   1.7147143610e+01    0.1520029    0.1438503 -30.34 0.0008087247    1.016    0.016
        36 -10.3446     94.7429    221.2913   1.1245147413e+02   1.6263138376e+01    0.2866638    0.2155742  62.78 0.0008590271    1.167    0.143
        37  -8.4963     41.4392     91.8053   1.0642690676e+02   5.3047537413e+01    0.1955314    0.1012505 -50.83 0.0005445962    1.604    0.377
        38  -7.9733     70.4499     81.5521   9.3826178520e+01   5.1858044128e+01    0.1430424    0.1267712 -35.73 0.0001019259    1.012    0.012
        39  -9.9760     56.8608    224.6933   1.2018239965e+02   2.0826425799e+01    0.2083972      0.14313  87.53 0.0004826619    1.326    0.246
        40 -11.8134     40.1744    206.9900   1.2198554552e+02   2.6373112666e+01    0.5724386    0.4725916 -45.98  0.001175504    1.751    0.429
        41 -10.6250     13.2791     60.2181   1.0962945312e+02   6.2436169428e+01    0.2967914    0.1792437 -67.63 0.0009836532    1.550    0.355
        42 -13.7544     49.0180    196.8554   1.1933798198e+02   2.7470423360e+01     2.480372     1.215455  59.86   0.01233064    1.960    0.490
        43  -8.2462    142.5108     47.9902   6.1279584467e+01   4.3475933380e+01    0.2126794    0.1178368 -53.72 0.0008086005    2.424    0.588
        44 -10.8396    193.4850     41.4666   4.9903033308e+01   3.1438850118e+01    0.3514566    0.3309486  69.92  0.001083756    1.070    0.065
        45 -14.5828      2.8052    181.9952   1.2764305716e+02   3.5311723086e+01     14.68608    0.5713036 -76.39   0.03151352   12.586    0.921
        46 -10.7130    211.5231     25.9746   4.3388939717e+01   2.8933454481e+01    0.3972279    0.3395042  21.16  0.001052703    1.500    0.333
        47 -10.0947    121.6713    224.4022   1.0738672672e+02   1.1499979498e+01    0.2703964    0.2373931  40.33   0.00177461    1.131    0.116
        48  -9.2453     33.0000     26.5144   8.9758753984e+01   6.7435544959e+01    0.2693749   0.05938913 -45.55 0.0009389151    3.968    0.748
        49  -8.8959    124.2300    219.8525   1.0627837086e+02   1.1914343829e+01    0.2332028    0.1591422 -54.45  0.001107337    1.687    0.407
        50 -11.6298    134.7589    232.6243   1.0582184426e+02   7.9541566124e+00    0.6133638    0.4118531 -44.98   0.00359561    1.839    0.456
        51  -7.8312    145.2184     41.9729   5.8651612014e+01   4.3676391170e+01    0.1884563    0.1211162 -29.84 0.0003635731    1.616    0.381
        52 -14.7992      8.5823    241.0291   1.2960764328e+02   2.3156919112e+01     3.248686     1.510993 -71.89  0.007689363    2.106    0.525
        53 -11.8580    126.5773    230.0352   1.0711317765e+02   9.7135529803e+00    0.5490839    0.4444662  59.11  0.003541138    1.158    0.136
