#   1 NUMBER                 Running object number                                     
#   2 MAG_AUTO               Kron-like elliptical aperture magnitude                    [mag]
#   3 X_IMAGE                Object position along x                                    [pixel]
#   4 Y_IMAGE                Object position along y                                    [pixel]
#   5 X_WORLD                Barycenter position along world x axis                     [deg]
#   6 Y_WORLD                Barycenter position along world y axis                     [deg]
#   7 A_WORLD                Profile RMS along major axis (world units)                 [deg]
#   8 B_WORLD                Profile RMS along minor axis (world units)                 [deg]
#   9 THETA_WORLD            Position angle (CCW/world-x)                               [deg]
#  10 FWHM_WORLD             FWHM assuming a gaussian core                              [deg]
#  11 ELONGATION             A_IMAGE/B_IMAGE                                           
#  12 ELLIPTICITY            1 - B_IMAGE/A_IMAGE                                       
         1 -14.7599    158.6496     44.0732   8.4464226801e+01   3.9916396921e+01     1.340181     1.027717 -30.93   0.00413546    1.272    0.214
         2 -14.7413    171.0813     11.4210   7.0911519553e+01   4.0783465612e+01     1.343483     1.110105  38.97   0.00452936    1.220    0.180
         3 -12.9731    189.1489     13.6397   6.9226778045e+01   3.5735286891e+01    0.6861093     0.324162 -45.28  0.002684804    2.242    0.554
         4 -10.6304     12.7769    242.8998   1.4597892431e+02   2.7256783682e+01    0.1050091    0.0896095  64.48  0.001078634    1.548    0.354
         5 -19.7948     93.5322    231.3470   1.3339066847e+02   1.9913118085e+01     6.982164     4.256299  55.96   0.04879413    1.203    0.169
         6 -10.7628     28.5742    239.8827   1.4364421609e+02   2.6156995045e+01    0.1179959   0.07255229  70.67 0.0003762467    1.175    0.149
         7 -11.7957     21.8267    237.9362   1.4453533819e+02   2.7094596655e+01    0.1290351   0.09074555  76.18 0.0008148186    1.209    0.173
         8 -11.1695     18.1912    221.6573   1.4445123629e+02   2.9823899563e+01    0.1151166   0.08303054  84.19 0.0003275388    1.284    0.221
         9 -13.9429    206.4516    177.5938   1.0806976378e+02   9.4680138229e+00    0.5354754    0.4707058  38.19  0.003172039    1.144    0.126
        10 -11.9922    123.4455    184.9321   1.2371591114e+02   2.2519016648e+01    0.2852383    0.1831308  65.58 0.0006641957    1.604    0.377
        11 -12.2077    127.0586    249.6084   1.2976031703e+02   1.3165940201e+01    0.1445848    0.1242913  65.26 0.0005092048    1.270    0.212
        12 -11.2317    200.0243    179.6981   1.0948305969e+02   1.0335380996e+01     0.173978    0.1340802  37.91 0.0004718346    1.079    0.073
        13 -13.8282    195.2286    169.9494   1.0864290596e+02   1.2418530155e+01    0.6663386    0.3995079 -49.16  0.002559177    2.230    0.552
        14 -11.9029    203.8610    171.2844   1.0741760175e+02   1.0697919827e+01    0.4232657    0.2460048  32.24  0.001866371    1.638    0.389
        15 -13.6855    177.7893    171.4362   1.1192254578e+02   1.5354849869e+01    0.5057024    0.3930204 -41.54  0.003246517    1.505    0.336
        16 -19.1853     75.9856     96.0718   1.1999978568e+02   4.6802699423e+01     17.54025    0.7484545 -56.73   0.02595347   19.465    0.949
        17 -11.8404    201.0546    164.5686   1.0670216185e+02   1.2058569650e+01    0.3542866    0.2749157 -49.20  0.001764779    1.653    0.395
        18 -13.2344     11.8049    205.9494   1.4481781019e+02   3.2859400656e+01    0.4107562    0.1997752  35.90  0.002930707    2.206    0.547
        19 -11.0455    222.3514    161.4995   1.0261595507e+02   8.5567532413e+00    0.2549714    0.1893255 -57.23  0.001052156    2.144    0.533
        20 -11.7531    139.4773    201.4570   1.2291840714e+02   1.7547373903e+01    0.2663566    0.2494776  15.67 0.0008186536    1.359    0.264
        21 -12.7543    164.0446    157.9970   1.1213222312e+02   1.9830192363e+01    0.3684627    0.1791075  48.27  0.001054727    1.839    0.456
        22 -10.3655      3.9956    157.9505   1.4400546852e+02   4.1843089215e+01    0.1397729    0.1023701 -63.29 0.0008568517    1.675    0.403
        23 -14.1665    134.0394    146.4012   1.1596538938e+02   2.7218147921e+01     1.246674    0.3443964 -55.93  0.003731126    5.780    0.827
        24 -11.0944     29.0174    156.4622   1.3900908025e+02   3.9899659049e+01    0.1970714     0.128584 -87.21 0.0004460066    1.258    0.205
        25 -11.8962    136.6526    197.3396   1.2290488792e+02   1.8575588906e+01    0.3361228    0.2045747  60.75  0.002043223    1.639    0.390
        26 -11.3636     17.7286    153.4554   1.4105372819e+02   4.1527134407e+01    0.2918992    0.2082997 -34.86  0.001978557    2.594    0.615
        27 -11.2625     18.2941    148.7260   1.4061706383e+02   4.2384929796e+01    0.2156881    0.1901443  80.43  0.001222463    1.288    0.224
        28 -11.5363    170.5065    185.4781   1.1540617212e+02   1.4693682854e+01    0.2344549    0.1736925  53.77 0.0006514475    1.258    0.205
        29 -12.6472    174.2024    148.9174   1.0858830175e+02   1.9316662421e+01    0.3032795    0.2989256 -69.49   0.00139067    1.145    0.127
        30 -14.9174    143.4152    143.4859   1.1354765781e+02   2.6026676052e+01     1.025305    0.6225181 -73.54  0.004622672    2.704    0.630
        31 -12.8347    134.5643    109.1910   1.0843531587e+02   3.3974855306e+01     1.324251    0.1356958 -45.07  0.002615619    9.927    0.899
        32 -13.7921    135.8347    127.6914   1.1210914972e+02   3.0267938056e+01    0.9769245    0.2408735 -48.97  0.003089556    4.372    0.771
        33 -11.9110    139.2083    148.8638   1.1534813230e+02   2.5862385373e+01    0.1979824    0.1666377  73.47 0.0006889227    1.214    0.176
        34 -11.6477    160.0138    247.7976   1.2470870007e+02   8.8186952253e+00    0.3154671    0.1352191  39.15  0.001417443    1.840    0.457
        35 -11.8060     27.2941    145.8035   1.3853121760e+02   4.2126303747e+01    0.2519101    0.2096693  80.89 0.0007012764    1.152    0.132
        36 -13.8105    152.0173    144.5586   1.1202750875e+02   2.4240014285e+01    0.4949762    0.3576152 -83.39  0.002599526    1.966    0.491
        37 -13.3026    180.5798    193.4568   1.1487151218e+02   1.1948804001e+01    0.4456166    0.3054925  36.11  0.002790878    1.253    0.202
        38 -10.3279     25.8217    139.1644   1.3829605196e+02   4.3578212361e+01    0.1325076       0.1142 -78.67 0.0005381936    1.294    0.227
        39 -12.2924    169.8399    195.3601   1.1694972871e+02   1.3490953741e+01      0.29088     0.194816  43.80  0.001031846    1.205    0.170
        40 -12.0445    175.1579    141.8730   1.0704964603e+02   2.0218217394e+01    0.1991619    0.1776774  70.33   0.00063624    1.242    0.195
        41 -13.1455    160.4494    128.1431   1.0710520208e+02   2.5378301739e+01      0.40088     0.356848 -64.10  0.001974543    1.238    0.192
        42 -12.9632     49.9724    125.5085   1.3139707339e+02   4.3878088052e+01    0.3252398    0.1787846 -75.28  0.001304839    1.627    0.386
        43 -12.7926     46.3055    129.5483   1.3274329216e+02   4.3452082991e+01    0.2600761    0.2192754  51.94  0.001882751    1.299    0.230
        44 -12.1027     38.8464    123.6310   1.3380562428e+02   4.5472201031e+01    0.2242032    0.1966844 -64.34  0.001133573    1.331    0.248
        45 -13.5214    119.6525    110.2703   1.1208464080e+02   3.6623539526e+01    0.5075092    0.3465457  87.44  0.002408563    2.072    0.517
        46 -10.7368    205.4037    110.1187   9.4589782847e+01   1.8733327905e+01    0.2414753    0.1805805  36.72 0.0006518058    1.296    0.228
        47 -14.3254    165.9295    188.8312   1.1668936946e+02   1.5012437297e+01    0.8615723     0.338136  48.97  0.004122403    2.210    0.548
        48 -11.9705     25.9888    106.3144   1.3496728176e+02   5.0358383450e+01    0.3033851    0.2124128  10.10  0.001515384    2.264    0.558
        49 -12.2627     40.5312     94.2482   1.2939636657e+02   5.1571514394e+01     0.420077    0.3537109 -31.46  0.002291915    1.576    0.366
        50 -12.0339     49.5801     91.9519   1.2647615116e+02   5.1093338448e+01    0.3096553    0.1936867  16.77   0.00156233    2.535    0.605
        51 -11.5933      6.0599     89.1014   1.3835682455e+02   5.5581347392e+01    0.4061322    0.2164381 -12.81  0.002043217    4.143    0.759
        52 -10.1497    104.8807     82.1419   1.0899406343e+02   4.4996579126e+01    0.1743442    0.1605817 -16.72            0    1.246    0.197
        53 -10.7461    142.8063     80.7956   9.9335021898e+01   3.7558483893e+01    0.2179065    0.1997848   2.96 0.0005589634    1.193    0.161
        54 -14.4674    148.0173     59.3922   9.1725146179e+01   4.0110075961e+01     1.470928     1.088208  -4.89  0.004674905    1.675    0.403
        55 -12.5035    167.6925    245.7267   1.2336175224e+02   7.9472457683e+00    0.1843376    0.1593593 -13.68 0.0009778669    1.613    0.380
        56 -13.2328    162.3881     35.2994   8.0750261140e+01   4.0205839219e+01    0.4943484    0.4163881 -12.81 0.0009557584    1.203    0.169
        57 -10.8959     13.3777     59.8608   1.3197119553e+02   6.1405774390e+01     0.168662    0.1427768  78.40 0.0004461238    1.262    0.208
        58 -14.6582    175.3878    186.1398   1.1466471865e+02   1.3772266416e+01     1.089083    0.4142004 -44.28  0.005148519    3.210    0.688
