#   1 NUMBER                 Running object number                                     
#   2 MAG_AUTO               Kron-like elliptical aperture magnitude                    [mag]
#   3 X_IMAGE                Object position along x                                    [pixel]
#   4 Y_IMAGE                Object position along y                                    [pixel]
#   5 X_WORLD                Barycenter position along world x axis                     [deg]
#   6 Y_WORLD                Barycenter position along world y axis                     [deg]
#   7 A_WORLD                Profile RMS along major axis (world units)                 [deg]
#   8 B_WORLD                Profile RMS along minor axis (world units)                 [deg]
#   9 THETA_WORLD            Position angle (CCW/world-x)                               [deg]
#  10 FWHM_WORLD             FWHM assuming a gaussian core                              [deg]
#  11 ELONGATION             A_IMAGE/B_IMAGE                                           
#  12 ELLIPTICITY            1 - B_IMAGE/A_IMAGE                                       
         1 -16.9465    233.7413    185.0827   1.0255865302e+02   3.4710696163e+00     2.071601     1.122376 -23.00  0.009613276    1.792    0.442
         2 -15.7138      4.2888     68.2593   1.4704609523e+02   6.2054240119e+01     1.462566    0.6041565  82.68  0.006389104    2.542    0.607
         3 -14.4299     48.1979     14.1986   1.0580963398e+02   7.0747391577e+01      1.10045     0.428804 -42.16  0.004463649    2.476    0.596
         4 -14.0312    153.3729     15.5467   7.2368976065e+01   4.5036466022e+01    0.4782616    0.3944736   5.98  0.001311769    1.367    0.269
         5 -13.4552     93.0923     10.4257   8.3576781613e+01   6.1898816562e+01    0.3531808    0.2780051 -81.74  0.001753135    1.705    0.414
         6 -13.7166     56.2219      2.5562   9.3887553876e+01   7.1149368430e+01    0.6883893    0.2408929  45.62  0.002672708    2.694    0.629
         7 -13.5522    190.4623    240.0305   1.1864469512e+02   3.4299240022e+00    0.7559487    0.2443179  39.36  0.003669235    2.490    0.598
         8 -12.3532    141.1258    250.0535   1.2887778338e+02   8.8725339200e+00    0.4137636    0.1053889  41.44  0.001810541    2.944    0.660
         9 -17.1495    177.9641    204.6618   1.1607987574e+02   9.5158176819e+00     3.065571     1.632058  -0.44   0.01257861    3.764    0.734
        10 -17.8743    170.8945    177.6376   1.1315418946e+02   1.4583044003e+01     3.896219     2.433112 -36.84   0.02091569    1.826    0.452
        11 -12.6066    204.6062    199.6181   1.1019325407e+02   6.0975966328e+00    0.3219696    0.1730767  39.87  0.001329161    1.714    0.416
        12 -13.3136    203.5395    193.6569   1.0940704987e+02   7.0024388115e+00     0.475749     0.304478  46.91  0.002162862    1.905    0.475
        13 -14.6009     41.6272    186.2765   1.4443162518e+02   3.1889169830e+01    0.7631287     0.256335 -65.99  0.003566216    3.073    0.675
        14 -11.8150     24.3065    193.3106   1.4873044438e+02   3.2180964834e+01   0.09564219   0.08471851 -40.46 0.0003334723    1.616    0.381
        15 -12.8015    244.8332    246.7963   1.1040601014e+02  -4.0301493455e+00    0.3840939    0.1571414  17.62  0.002158793    2.337    0.572
        16 -15.1432    202.7217    171.3074   1.0560449757e+02   1.0085014116e+01     0.873346    0.6468003  32.10  0.003958278    1.217    0.178
        17 -13.5048    210.2082    166.2936   1.0324793286e+02   9.5079587787e+00    0.3700083    0.3491082  11.30  0.001757644    1.359    0.264
        18 -12.6646      1.6761    168.3542   1.5301858555e+02   3.8973853915e+01    0.3441896    0.1206131 -84.81  0.001713728    2.585    0.613
        19 -16.6081      7.5851    232.1873   1.5325060726e+02   2.6734313540e+01     2.214684    0.7396833 -89.78   0.01266386    3.061    0.673
        20 -12.7157    150.4648    221.2041   1.2384568157e+02   1.1374130874e+01    0.2187344    0.1610815  28.82 0.0004178162    1.045    0.043
        21 -20.3464    108.8971    175.1288   1.2698455616e+02   2.5375036630e+01     14.23705     4.726495 -55.93   0.05552596    3.442    0.709
        22 -14.3803    219.6075    203.6726   1.0815207024e+02   3.4149368730e+00    0.6588822    0.5067841  33.53  0.004546591    1.431    0.301
        23 -13.7027     37.3959    148.5897   1.4282108873e+02   4.0366138400e+01    0.3807555    0.2607073 -21.89   0.00154756    2.227    0.551
        24 -15.6545    244.0175    192.1495   1.0209708608e+02   1.2331916301e+00    0.9683874    0.6365069  -5.83  0.005104703    1.292    0.226
        25 -14.7392     16.0379    121.4123   1.4704137567e+02   4.8471535271e+01    0.5507837    0.4050952  68.90  0.002728189    1.206    0.171
        26 -14.1502     42.6802    118.5374   1.3819381982e+02   4.6958616706e+01    0.4714401    0.3308649  76.61  0.002138891    1.422    0.297
        27 -15.9384     34.4510    110.0322   1.3993636884e+02   4.9825511980e+01       1.5267    0.8380419 -59.54  0.007234892    1.719    0.418
        28 -14.8309    217.2205    116.9823   9.1474805850e+01   1.5143535041e+01    0.5424066    0.4271123  29.15  0.003078284    1.223    0.183
        29 -14.3159      2.3466    113.9553   1.5090214062e+02   5.1030721887e+01    0.7697333    0.2247994 -77.55  0.003223421    2.807    0.644
        30 -15.1000     10.2073    110.4851   1.4817153632e+02   5.1449018059e+01    0.7442266    0.5161008  -5.52  0.004369377    1.872    0.466
        31 -14.3121    222.5799    195.6796   1.0630886320e+02   3.8946840044e+00    0.6313264    0.3725242  22.40   0.00256728    1.391    0.281
        32 -13.4326    207.3992     97.1290   8.8329564426e+01   2.0069173001e+01    0.7104106     0.400855 -18.16  0.003082045    1.979    0.495
        33 -12.6332    231.9750    227.3585   1.0970882872e+02  -7.2873308811e-01    0.2850882    0.1914073   8.37  0.001446612    1.137    0.120
        34 -15.3596      4.3063     82.6939   1.4829811286e+02   5.8502623628e+01    0.8954535    0.5703276 -89.37  0.005194869    1.360    0.265
        35 -14.4826    221.5304    245.8891   1.1404627911e+02  -1.1641256914e+00    0.6375536    0.4410786  31.72  0.004843506    1.437    0.304
        36 -12.3508    249.6972    226.1053   1.0666252550e+02  -2.8170461387e+00    0.2288146    0.1616119 -12.30  0.001767419    1.421    0.296
        37 -13.9344     71.1382     53.2259   1.1209944138e+02   5.9144911825e+01    0.7160302    0.4484952 -36.62  0.003254946    1.642    0.391
        38 -14.8206     79.4862     68.3189   1.1380369452e+02   5.4305743994e+01    0.8231421    0.4455991 -51.55  0.003268404    1.839    0.456
        39 -14.8060     72.2527     71.5630   1.1770149599e+02   5.4774486110e+01     1.218174    0.5781978 -49.31  0.004890806    2.020    0.505
        40 -18.9808     70.2102    146.8905   1.3337973099e+02   3.7004119241e+01     4.976541     2.882506 -68.43   0.02475774    1.800    0.444
        41 -14.2943     68.8018     62.1030   1.1619388411e+02   5.7534642942e+01    0.6118172    0.5040697 -50.29  0.002286299    1.180    0.153
        42 -14.2652    221.8255     53.5222   7.4753990500e+01   2.2808418783e+01     1.280434    0.3260826 -32.92  0.004350685    3.130    0.681
        43 -14.6561    247.2506     58.2728   7.3072844382e+01   1.6749438894e+01    0.6779574    0.4854285 -25.03  0.003937726    1.231    0.188
        44 -15.0868     16.7228     50.8629   1.3854060213e+02   6.5824199144e+01    0.8156383    0.6493171 -81.07  0.005021696    1.210    0.173
        45 -14.9593    191.2406    230.1768   1.1720544954e+02   4.4164327621e+00    0.7129214    0.5355322  33.29  0.003172459    1.300    0.231
        46 -13.2868     35.0672     20.9940   1.1777706334e+02   7.1243697930e+01    0.4268942    0.2527008  39.76  0.002149671    1.990    0.498
        47 -11.8106    250.2307    206.2825   1.0347140244e+02  -1.0303667969e+00    0.2607855    0.1195747 -11.30  0.001400729    2.396    0.583
        48 -14.5073    231.2085    238.3553   1.1141722382e+02  -1.6660873030e+00    0.7322311    0.5006799 -16.64    0.0049536    1.563    0.360
        49 -14.7433    216.0459    232.1274   1.1308348735e+02   8.6224645728e-01    0.9583219    0.3622093  29.97  0.004134869    2.034    0.508
        50 -14.0716    204.8911    231.9361   1.1499776061e+02   2.3621173859e+00     1.340227    0.6060719 -13.71  0.006193204    3.861    0.741
