#   1 NUMBER                 Running object number                                     
#   2 MAG_AUTO               Kron-like elliptical aperture magnitude                    [mag]
#   3 X_IMAGE                Object position along x                                    [pixel]
#   4 Y_IMAGE                Object position along y                                    [pixel]
#   5 X_WORLD                Barycenter position along world x axis                     [deg]
#   6 Y_WORLD                Barycenter position along world y axis                     [deg]
#   7 A_WORLD                Profile RMS along major axis (world units)                 [deg]
#   8 B_WORLD                Profile RMS along minor axis (world units)                 [deg]
#   9 THETA_WORLD            Position angle (CCW/world-x)                               [deg]
#  10 FWHM_WORLD             FWHM assuming a gaussian core                              [deg]
#  11 ELONGATION             A_IMAGE/B_IMAGE                                           
#  12 ELLIPTICITY            1 - B_IMAGE/A_IMAGE                                       
         1 -10.6192     33.3393     63.4269   1.0475371702e+02   6.0343560941e+01     1.572453    0.5405762 -35.03  0.005320975    4.481    0.777
         2 -10.7311     37.1764      9.8798   8.2595975658e+01   6.9619821531e+01    0.8009955      0.33972 -40.72  0.002195027    2.358    0.576
         3 -10.1866      4.4286     42.1838   1.1073924535e+02   6.6837889809e+01    0.7408012    0.2508999 -59.87  0.003619098    2.211    0.548
         4 -10.1475     27.3206     11.1216   8.7953361472e+01   7.0602027711e+01    0.6703292    0.3683857  28.09  0.004021803    1.941    0.485
         5 -10.3109     18.3555      5.3387   8.9633475588e+01   7.2373402797e+01    0.5869179    0.4849572 -43.17  0.003164886    1.592    0.372
         6  -9.5852      2.2344     13.9895   1.0240054270e+02   7.2249771463e+01    0.6006389    0.1919616 -58.32  0.002559252    3.683    0.728
         7 -10.2745      6.1650      5.2041   9.6291873017e+01   7.3434731407e+01     0.387858    0.2573839 -20.72  0.001645299    1.206    0.171
         8  -9.9427      2.5100      3.1658   9.7403701959e+01   7.4015194297e+01    0.2532548    0.1357833 -36.19  0.001005895    1.370    0.270
         9 -11.1684     24.0670     31.9347   9.8555815003e+01   6.7448532137e+01     1.698227    0.4388284 -39.71  0.003504815    3.462    0.711
        10 -10.3580     10.0551     19.0019   1.0031555063e+02   7.0869003430e+01     1.282938    0.4223215 -26.21  0.004202757    6.200    0.839
        11 -10.4805     73.4808     16.2379   7.1135083924e+01   6.3156891800e+01     1.465144    0.3547765 -28.86  0.004870085    4.206    0.762
        12  -9.6119     77.9605      4.1545   6.3921071491e+01   6.3648393479e+01    0.4986052    0.3271022  -6.47  0.001357211    1.498    0.333
        13  -9.9918     69.6678     40.6893   8.3118386812e+01   6.0198246240e+01     1.002709    0.3921386 -38.12   0.00254199    2.360    0.576
        14  -9.8825     79.3702     24.0017   7.2655054278e+01   6.1066637484e+01    0.6344615    0.2931051  28.83  0.001702242    2.810    0.644
        15  -9.3877    101.0949     32.0089   6.9280441606e+01   5.5629086968e+01    0.5310875    0.2137718 -33.78  0.001283704    2.430    0.589
        16  -9.2789    102.8701     21.6350   6.4523987726e+01   5.6594233268e+01    0.4460331    0.2312125 -27.11  0.001320428    1.940    0.485
        17  -8.1647     64.2863      8.9927   7.0911258887e+01   6.5652566731e+01    0.1982284    0.1430772   9.32 0.0002073458    1.266    0.210
        18  -8.7091     58.2881      6.9982   7.2153907127e+01   6.6894522018e+01    0.2513435    0.2404263 -38.42 0.0009116313    1.505    0.336
        19 -10.0915     63.0325      3.0810   6.8381881914e+01   6.6518112030e+01    0.4115637    0.3323079  37.59  0.002106932    1.283    0.220
        20  -9.7661     63.1288     21.1326   7.7164595925e+01   6.4297446900e+01    0.5426667    0.2644647 -44.58  0.002056314    2.544    0.607
        21  -9.7665     64.6082     13.4206   7.2962752342e+01   6.5068182126e+01    0.3165191    0.2711721  33.64 0.0001931438    1.278    0.218
        22  -8.8981     46.9694     19.7341   8.3048124004e+01   6.6918375892e+01    0.3991104    0.1997976 -19.51  0.001877726    2.358    0.576
        23  -9.7386     52.5769     13.3730   7.7629195938e+01   6.7006801146e+01    0.5505794     0.310895  10.61  0.002705918    2.225    0.551
        24 -10.1077     46.2911     29.7509   8.7810111858e+01   6.5428580337e+01    0.4251054    0.2893523 -47.61 0.0009918598    1.602    0.376
        25  -9.5222    154.8298     26.4180   5.4849492615e+01   4.3453819014e+01    0.4052621    0.2274932  69.08  0.001760307    1.804    0.446
        26  -9.2039    128.5500     25.0238   5.9576298812e+01   5.0237809166e+01    0.4712428    0.2784271 -23.92  0.001645556    1.779    0.438
        27  -9.6287    118.8898     20.1340   5.9889105487e+01   5.3122047507e+01    0.6039097    0.2893724 -17.99   0.00149486    2.387    0.581
        28  -8.7546    102.5077      8.3755   5.9011706836e+01   5.8108311766e+01    0.3651052    0.2520229 -49.17  0.001263531    1.891    0.471
        29  -8.7610    112.4011     15.5974   5.9608466039e+01   5.5134456853e+01    0.2888655    0.2187293 -39.29 0.0005694417    1.485    0.326
        30  -9.3190    113.9349     10.1832   5.7053866512e+01   5.5329184734e+01    0.4931149    0.2063364  43.68 0.0003691499    2.210    0.548
        31  -8.9878    110.0748      5.2188   5.5888368129e+01   5.6685155659e+01    0.5949546    0.2103511 -34.39  0.002351379    3.001    0.667
        32  -8.2339    104.7924      1.9285   5.5707499451e+01   5.8175798470e+01     0.324193    0.1781537  44.85  0.001623233    1.583    0.368
        33  -7.9443    120.6687      5.6978   5.3815508411e+01   5.4151805145e+01    0.2265158    0.1208065  56.61 0.0007458184    1.638    0.390
        34  -9.4742    133.6217     12.3642   5.3805351011e+01   5.0368902778e+01    0.4030694    0.2259952 -36.07  0.001806849    1.911    0.477
        35  -8.4182    125.2015     13.0038   5.5726029569e+01   5.2371385039e+01    0.2654119    0.2103101 -47.08 0.0006460123    1.455    0.313
        36  -8.1200    126.7625      9.3647   5.4013401931e+01   5.2345069164e+01    0.2673956    0.1444454  39.47 0.0006385985    1.828    0.453
        37  -8.9516    125.6650      5.2237   5.2641470790e+01   5.2987677391e+01    0.4503578    0.2539213  18.11  0.001832569    2.221    0.550
        38  -9.2942     96.2310     15.0181   6.3531994193e+01   5.8791158577e+01    0.5452781    0.2397568 -16.20  0.002221936    2.698    0.629
        39  -8.8928     89.1063      2.6996   5.9987526504e+01   6.1529557867e+01    0.4982931    0.3216057  18.88  0.002043396    1.547    0.354
        40  -9.8502     85.2310     12.7457   6.5714691578e+01   6.1317700983e+01    0.6800871    0.2964406 -36.59  0.001992922    2.491    0.599
        41  -8.2046     80.5534     12.3432   6.6981842276e+01   6.2285425282e+01    0.2524663    0.1561641 -39.80  0.001314568    1.903    0.474
        42  -8.2391    141.4402     12.2403   5.2318052195e+01   4.8422535668e+01    0.2808582    0.2175159  -4.04  0.001212011    1.442    0.307
        43  -7.5021    169.3578     11.1785   4.7583096173e+01   4.1338761296e+01    0.1808939    0.1226118 -39.62            0    1.536    0.349
        44  -8.7850    136.7601      8.5960   5.1839435600e+01   4.9946883195e+01    0.2650486    0.2441049  47.00 0.0009453153    1.024    0.024
        45  -8.4647     68.0472      9.0507   6.9590994831e+01   6.4985981365e+01    0.1713955    0.1531831 -53.33 0.0003874038    1.618    0.382
        46  -7.7800    155.5022      7.4671   4.8372593018e+01   4.5285328556e+01    0.1393829    0.1256525  63.16 0.0001842141    1.013    0.013
        47  -8.7587    131.4191      5.9003   5.1814539705e+01   5.1518145206e+01    0.4175238    0.2044985  41.02  0.001834338    2.019    0.505
        48  -8.2418     97.7707      5.9486   5.9155838284e+01   5.9381007711e+01    0.2538474    0.1665045   3.57 0.0009569766    1.625    0.385
        49  -8.6271     95.8367      2.8428   5.8276409648e+01   6.0082223948e+01    0.2930696    0.1984442  48.21 0.0003076728    1.315    0.239
        50  -8.8073    115.4558      4.1039   5.4259793106e+01   5.5528705097e+01    0.3156835    0.2025757 -37.42  0.001356293    1.763    0.433
        51  -7.5443    150.5394      1.4915   4.7099821329e+01   4.7084300483e+01    0.1364896    0.1229809  65.80 7.149417e-05    1.011    0.011
        52  -8.0904    136.1376      1.5897   4.9395622265e+01   5.0713757882e+01    0.3058872    0.1211766  66.89  0.001167601    2.297    0.565
        53  -9.7900     98.4837    128.5279   9.9771048858e+01   3.6595276741e+01    0.6403169    0.3795883  74.24  0.002123192    2.840    0.648
        54 -10.2044    200.4745    248.1797   9.8627358555e+01  -3.9883830578e+00    0.3884694     0.259328  34.93  0.002547966    1.162    0.140
        55  -8.1299    160.5837    128.1856   8.4149410579e+01   2.4038667928e+01    0.2237166    0.1484605 -31.23 0.0009493428    1.695    0.410
        56  -9.9607     27.3335    122.9582   1.1822552423e+02   4.7249880017e+01    0.5153813    0.2632094  73.24  0.001927999    2.533    0.605
        57 -10.7189    139.6229    103.5581   8.2774808109e+01   3.3979781804e+01    0.8640526    0.4324974 -44.33  0.001880585    1.965    0.491
        58 -11.0986    133.5771    108.9957   8.5781004816e+01   3.4149506023e+01     1.172446    0.4502841 -45.62  0.003946186    2.557    0.609
        59  -8.0055    158.2459    122.2190   8.3204184893e+01   2.5811308962e+01    0.2156365    0.1838525 -88.41 0.0004918461    1.374    0.272
        60  -7.6289    152.3952    121.7514   8.4455470295e+01   2.7229683624e+01    0.2209134    0.1485468 -33.53 0.0007620982    1.622    0.383
        61  -8.4247      1.5490    116.6372   1.2436909105e+02   5.0633509336e+01    0.3435036    0.1127975 -82.37  0.001200623    2.889    0.654
        62  -9.7329     41.3958    121.9454   1.1422896318e+02   4.6130964317e+01    0.5765057    0.2519535 -81.88  0.002254402    2.984    0.665
        63  -8.5762    152.3806    115.0782   8.2748183569e+01   2.8644692457e+01    0.2296872    0.2001375 -48.70  0.001137433    1.143    0.125
        64 -10.1419     91.9337    113.0579   9.8119754238e+01   4.1353748990e+01    0.5664748     0.383876 -86.03  0.001773466    2.044    0.511
        65  -8.6025     92.0888    104.1052   9.5901485866e+01   4.3408804398e+01    0.4609444    0.3221247 -18.34  0.001416649    2.095    0.523
        66  -7.7423     96.9955    102.0000   9.3933933171e+01   4.3030013246e+01    0.2807663    0.1866379  29.21  0.001279852    1.795    0.443
        67 -10.2044     78.1410    113.0184   1.0206624692e+02   4.3578162320e+01    0.5381399    0.3362339 -81.83  0.001799515    2.154    0.536
        68  -7.4423    167.6366    114.3030   7.9031965305e+01   2.5275768550e+01    0.1631672     0.125938 -85.74 0.0007036605    1.731    0.422
        69  -9.1847     63.7598     85.4419   9.9887727124e+01   5.2041542401e+01    0.7040141    0.4890089 -40.01  0.003391121    1.376    0.273
        70  -9.6510     59.3253    109.5319   1.0684914293e+02   4.7019524546e+01    0.6000583    0.3019248 -62.39  0.002163294    1.767    0.434
        71  -8.9062     64.1827    101.8402   1.0373753988e+02   4.8204465538e+01    0.2997781    0.2274122 -41.51 0.0009016633    1.323    0.244
        72 -10.5115     63.0739     95.8096   1.0269119178e+02   4.9759196330e+01    0.8476377    0.4840198 -89.43  0.001606803    3.676    0.728
        73  -8.8510     44.1134     54.1057   9.7802902775e+01   6.1183245511e+01    0.3453767    0.1897238 -32.31 0.0008392947    1.837    0.456
        74 -10.8004     21.1697    101.6606   1.1689065539e+02   5.2737005479e+01     1.234146    0.5346007  83.14  0.003139442    5.112    0.804
        75 -10.6044     25.7065     77.9587   1.1106099621e+02   5.7808841546e+01    0.8230098    0.4241531 -82.98  0.003671697    2.779    0.640
        76  -7.3089    126.2637    129.6675   9.2789729607e+01   3.1087740848e+01    0.1526574    0.1180792 -86.31 0.0002889058    1.577    0.366
        77 -10.2679     50.0570     54.4288   9.5600561756e+01   6.0422892521e+01    0.7319365    0.3548667 -53.25  0.002506222    1.969    0.492
        78  -9.5983     56.4194     43.3082   8.9150685813e+01   6.1721048331e+01    0.8356812    0.4419196  -5.69  0.002878939    4.591    0.782
        79 -10.2474     34.5422     90.5954   1.1071597356e+02   5.4171421554e+01    0.5707068    0.2807878 -79.21  0.001827413    2.623    0.619
        80 -10.1131     36.6677     81.3155   1.0801043584e+02   5.6092138206e+01    0.8232249    0.4019392 -20.05  0.003049969    4.381    0.772
        81  -9.8997     14.1976    111.2976   1.2029797816e+02   5.1021142463e+01    0.4659417    0.2394548  77.89  0.001998363    2.368    0.578
        82  -8.6143     14.0850    105.0039   1.1948311896e+02   5.2483491463e+01    0.2073369    0.1422069 -41.56 0.0008619326    1.597    0.374
        83  -8.4151    159.0035    111.7775   8.0327510774e+01   2.7807512542e+01    0.2728851    0.2211685 -44.32  0.000467226    1.224    0.183
        84  -9.8893    117.2902    125.5137   9.4129854282e+01   3.3816815641e+01    0.8777763    0.5550065 -87.87  0.002360324    2.800    0.643
        85  -9.4558     35.4989    110.9357   1.1413756444e+02   4.9327449946e+01    0.1890105    0.1457117 -70.42  0.000624209    1.067    0.063
        86  -9.2622    241.5023    110.7561   6.4239291253e+01   9.0485242455e+00    0.2833229    0.1946499 -53.40  0.001382431    1.634    0.388
        87  -9.7559    211.3479    109.5871   6.8995780938e+01   1.5906165747e+01    0.2678761     0.253149 -14.30 0.0002517091    1.044    0.042
        88  -8.1545    149.6163    109.7494   8.2001051535e+01   3.0398621387e+01    0.2951772    0.1507025 -38.85 0.0006396655    2.007    0.502
        89  -9.9479     19.5993     87.9106   1.1507734309e+02   5.6021032755e+01     1.020341    0.1942407 -61.51  0.003747329    3.258    0.693
        90 -10.9292     45.0850    102.6260   1.0977374910e+02   5.0315109869e+01    0.8237546    0.4333079  73.35  0.003136633    3.721    0.731
        91  -7.9842    216.4072    105.8643   6.7154865382e+01   1.5396495467e+01    0.2978537    0.1810192  36.63 0.0009416314    1.933    0.483
        92  -7.9021    158.7440    106.9020   7.9080098883e+01   2.8869728201e+01    0.3120247     0.219028  83.77   0.00125014    2.132    0.531
        93  -9.5222      6.3097    103.7600   1.2157067467e+02   5.3279374693e+01    0.3907553    0.2149047  80.57  0.001434347    1.999    0.500
        94  -8.5809    165.9319    103.9632   7.6645104458e+01   2.7758337408e+01    0.3508127    0.2177249 -47.85 0.0006047815    1.650    0.394
        95  -9.9634    149.4817    103.0726   8.0216801361e+01   3.1824614935e+01    0.6541056    0.3132908 -48.66  0.001191579    2.190    0.543
        96  -8.6576    150.4913     96.5040   7.8129968153e+01   3.2935939337e+01    0.4006051    0.2630089 -48.72  0.001714543    1.556    0.357
        97  -9.6390     81.6055     99.5908   9.7883418070e+01   4.6184792232e+01    0.7704685    0.2864656 -54.23  0.001923016    2.492    0.599
        98  -8.7880    159.0694    101.3299   7.7475584789e+01   2.9924573170e+01     0.279111    0.2221564 -51.54 0.0004567245    1.286    0.222
        99  -9.3858     40.2032    106.7837   1.1203262193e+02   4.9843835197e+01     0.317522    0.1515642 -72.96 0.0007462941    2.067    0.516
       100  -9.4424     94.3938     97.2778   9.3451728233e+01   4.4566687229e+01    0.3380395    0.2760182 -77.68 0.0007397257    1.399    0.285
       101  -8.8367     96.1140     90.9870   9.1211385773e+01   4.5666298949e+01    0.5138884    0.3046843 -20.44  0.001878808    2.990    0.666
       102  -8.8546    126.3103     83.6933   8.0458605723e+01   4.1102340432e+01    0.5536481     0.346528  10.62  0.001903733    3.202    0.688
       103  -9.7702    123.0077     97.0304   8.5273383789e+01   3.9023289961e+01    0.6457998    0.4025678  74.20  0.002342722    2.842    0.648
       104 -10.2998    123.7944     91.0817   8.3347756576e+01   4.0123414906e+01    0.5690146    0.4814473  51.39 0.0009470321    1.228    0.185
       105  -8.2605    239.3152     96.7122   6.1171073941e+01   1.1787232913e+01    0.2208517    0.1409461  38.44 0.0001611555    1.853    0.460
       106  -9.6314    238.5430     93.5340   6.0505198263e+01   1.2467619688e+01    0.4274186    0.2753725  71.11  0.001986489    1.970    0.492
       107 -10.2214      4.4352     89.4627   1.2018386621e+02   5.6638752992e+01    0.9691327    0.3632847 -83.61  0.002639394    3.209    0.688
       108  -9.2901      5.8523     79.4990   1.1816480903e+02   5.8797388895e+01    0.5169212      0.15917 -43.27  0.002213797    3.202    0.688
       109  -8.8610    164.4918     94.5301   7.4335923596e+01   2.9967510757e+01     0.322071    0.2665758 -66.44 0.0006590377    1.356    0.263
       110  -9.5476    138.7378     92.7999   7.9949159949e+01   3.6431714018e+01    0.3752182    0.2996866 -80.97  0.000849382    1.578    0.366
       111  -8.1788    157.5383     91.5072   7.5041248640e+01   3.2247310429e+01    0.2852319    0.1878274 -48.56 0.0006332647    1.563    0.360
       112  -8.4331    157.4478     87.4731   7.3884610136e+01   3.3054265529e+01    0.3085088    0.2515638  78.05 0.0008217331    1.426    0.299
       113  -8.7276    157.6023     83.7537   7.2748030382e+01   3.3728481610e+01    0.3846316    0.2067146 -39.66 0.0006405486    1.830    0.454
       114  -9.3957    110.8300     90.1455   8.6669346182e+01   4.3030961189e+01    0.7775897    0.3467384  30.42    0.0024227    3.720    0.731
       115  -8.8747    113.3263     87.6910   8.5238762924e+01   4.3047960123e+01    0.3600689    0.2607177 -70.39  0.001460502    1.805    0.446
       116  -8.1256     73.9096    102.9054   1.0101836234e+02   4.6590379443e+01     0.251916    0.1732692 -62.30 0.0005053657    1.368    0.269
       117  -8.2560    150.7491     89.1414   7.5935742442e+01   3.4348758867e+01    0.2390207    0.2099244 -63.69 0.0006205734    1.217    0.178
       118 -10.0233     81.5644     72.3367   9.0214637626e+01   5.2216424796e+01    0.5051892    0.3459615 -61.11  0.000907602    1.697    0.411
       119  -9.0488     83.5739     64.4225   8.6974062068e+01   5.3487660158e+01    0.5341632      0.34143 -12.72  0.002321533    2.271    0.560
       120 -10.3199     85.2787     86.5585   9.3273970425e+01   4.8536493974e+01    0.5258708    0.3862267  71.10 0.0009093851    1.903    0.474
       121  -9.6219     87.2563     78.7522   9.0361777660e+01   4.9897150149e+01     0.540765    0.3788357   9.44  0.001519721    1.983    0.496
       122  -8.3386    163.5069     87.4904   7.2527384538e+01   3.1565401942e+01    0.2709907    0.1411412 -48.17 0.0006108146    2.049    0.512
       123 -10.4618     48.2155     83.2492   1.0452777317e+02   5.4457706383e+01    0.9292818    0.4127521 -56.94  0.002389184    1.892    0.471
       124 -10.3426    103.9550     82.6688   8.6438830305e+01   4.5989279390e+01    0.5385706    0.3153656 -55.23 0.0008681982    1.881    0.468
       125  -9.6024    105.0226     71.9051   8.2731564327e+01   4.7986995656e+01     0.805487    0.4183209 -29.71  0.002800942    2.320    0.569
       126  -9.6171    140.5703     82.1757   7.6316580521e+01   3.8138916308e+01    0.8759053    0.3802095 -36.31  0.001541343    2.370    0.578
       127  -8.9444    139.9583     75.5485   7.4410710917e+01   3.9558568581e+01    0.4868445     0.244262 -40.06  0.001720565    1.960    0.490
       128  -8.5616    135.0204     83.5248   7.8128437852e+01   3.9165948266e+01    0.3535402    0.1891729 -56.43  0.001268206    2.468    0.595
       129  -7.7348    170.4057     83.2336   6.9793277090e+01   3.0649579998e+01     0.229969    0.1409984 -48.00  0.000903168    1.696    0.410
       130  -8.7755    149.9324     80.4643   7.3528812457e+01   3.6227499588e+01    0.4503854    0.2123956 -44.07  0.001439104    2.137    0.532
       131  -8.8385    118.9573     80.4609   8.1461938574e+01   4.3365346986e+01    0.3416709    0.2678939 -74.22 0.0007900744    1.641    0.391
       132  -8.2602    119.9720     76.0638   7.9796290745e+01   4.4026482817e+01    0.2835362    0.2212302 -17.22 0.0007185532    1.452    0.311
       133  -9.0215     74.0756     79.4395   9.4828422812e+01   5.1892545623e+01    0.5565482    0.2395128 -54.90  0.001560405    2.316    0.568
       134 -10.1609     65.8032    110.4136   1.0511285822e+02   4.5963492856e+01    0.7445167    0.4173338 -72.51  0.001896632    1.990    0.498
       135  -8.2288    240.3723     79.3075   5.6729452296e+01   1.4308869061e+01    0.1446723     0.109138  19.03 0.0001565169    1.767    0.434
       136  -8.0982    166.4778     78.5101   6.9229502285e+01   3.2496887515e+01    0.2616402    0.1403598 -46.47 0.0001525125    1.939    0.484
       137  -8.0208    184.2359     78.1711   6.5543384381e+01   2.8075523495e+01    0.2347257    0.2101646  12.72 0.0006008715    1.253    0.202
       138  -8.5150    156.9846     76.7553   7.0774584969e+01   3.5187842722e+01     0.333336    0.2295589 -29.75 0.0004411371    1.519    0.342
       139  -8.6390    156.6727     70.0173   6.8762034880e+01   3.6479051497e+01    0.3644078    0.1894906 -45.23  0.001398487    1.996    0.499
       140  -9.5836    127.4202     75.2749   7.7532354039e+01   4.2524921542e+01    0.5352521    0.2866502 -51.02  0.001064486    2.117    0.528
       141  -8.6168    129.7981     68.3977   7.4680472031e+01   4.3281525157e+01    0.4245693    0.2626295  31.33  0.001746895    1.972    0.493
       142  -8.6629    130.4865     64.9874   7.3374040346e+01   4.3743007660e+01    0.4627485    0.2361841 -43.12  0.001822902    1.984    0.496
       143  -8.0213    162.8445     73.2868   6.8428645576e+01   3.4349017019e+01    0.2645368    0.2047823 -51.98 0.0006470294    1.353    0.261
       144  -9.0393    115.2315     72.9831   8.0126606607e+01   4.5656446047e+01    0.3463684     0.241868 -48.64 0.0006400557    1.467    0.318
       145  -9.0994    114.6950     69.6880   7.9198495075e+01   4.6411086025e+01    0.4051532    0.2627972  25.28  0.001166384    1.975    0.494
       146  -9.9621     63.1360     60.7808   9.2831593334e+01   5.7426421108e+01    0.6433792     0.248461  33.43  0.002335514    2.954    0.661
       147 -10.5215     55.2834     70.9751   9.8806373655e+01   5.6338414603e+01    0.5660716    0.3657366  58.96   0.00125387    2.364    0.577
       148  -9.6544     54.9345     63.1662   9.6586888657e+01   5.8036115019e+01    0.4002687    0.2815966  -8.80  0.001651043    1.745    0.427
       149 -10.2373    191.9891    247.2866   9.9986902787e+01  -2.5483060017e+00    0.4977307    0.3174323 -18.93  0.002997823    2.114    0.527
       150  -9.8105     16.0535     70.2749   1.1285189943e+02   6.0224064026e+01    0.4327272    0.1967082 -69.46   0.00141606    2.007    0.502
       151  -9.9926     16.9356     61.1389   1.1045241782e+02   6.2147818053e+01    0.6431329    0.4347197 -47.51  0.004112351    1.179    0.152
       152 -10.3366    182.6839    247.0068   1.0159155211e+02  -1.0352363573e+00    0.3405062    0.1386362  36.38  0.001663644    2.068    0.516
       153  -9.6434    169.3191    248.3153   1.0413972095e+02   9.2918160420e-01     0.192947    0.1288476  40.56 0.0007511242    1.165    0.142
       154  -8.3187     86.8619    246.9023   1.1861577678e+02   1.3864212698e+01    0.1619146    0.1029669  65.66 0.0004861902    1.338    0.252
       155 -10.7853     22.1007     53.7511   1.0649314111e+02   6.3331866522e+01    0.7324238    0.4108593 -85.56  0.002771946    3.809    0.737
       156 -10.1302     12.3587     45.6556   1.0827325681e+02   6.5676051049e+01    0.6782941    0.3425767  -6.11  0.002925775    2.724    0.633
       157 -10.1884    159.9843    248.2453   1.0579482198e+02   2.4344373018e+00    0.3173724    0.2069403  29.83  0.001952178    1.499    0.333
       158  -9.4153      6.9011     32.5140   1.0676125262e+02   6.8599148475e+01    0.2423675    0.1818188 -13.45 0.0006592867    1.371    0.271
       159 -10.0086      7.3098     28.2795   1.0515799099e+02   6.9375156841e+01    0.2854452     0.250236  72.51  0.001059435    1.755    0.430
       160  -9.2427    155.7498    243.6427   1.0597798228e+02   3.7700527084e+00    0.2890112    0.1108005  53.23  0.001199185    3.050    0.672
       161 -10.1184    122.9132    242.0382   1.1174314759e+02   9.2691264827e+00     0.194569    0.1735225  73.73 0.0003290308    1.195    0.163
       162  -7.8207    175.4607     72.5153   6.5595852250e+01   3.1285198247e+01    0.1559533    0.1498498 -67.59 0.0008088311    1.041    0.039
       163  -9.5248    188.1756    233.9630   9.8752903265e+01  -1.9187439046e-01    0.2499577    0.2009505 -67.33  0.001360201    1.895    0.472
       164  -8.3453    169.4878     70.9810   6.6336328445e+01   3.3071445421e+01    0.2338082    0.1522157 -36.38 0.0005623304    1.522    0.343
       165  -9.2837    147.0365     69.2799   7.0719181261e+01   3.9001269728e+01    0.4047731    0.2676484 -56.57 0.0007957192    1.807    0.447
       166  -7.8409     94.6969     54.2453   7.9802453164e+01   5.3373369483e+01    0.3355584    0.1507985 -50.17  0.001232045    2.805    0.644
       167  -9.7911     94.8155     68.3416   8.4669390162e+01   5.0681593303e+01     0.473289    0.2625141 -49.19 0.0008329154    1.839    0.456
       168  -9.2479     97.4845     58.4769   8.0452201827e+01   5.2060249371e+01    0.6974061    0.3874071 -12.54   0.00236834    3.591    0.722
       169  -9.0024    138.8680     57.0116   6.8620461008e+01   4.3122103023e+01    0.4278114    0.2916778 -52.31 0.0004224707    1.671    0.402
       170  -8.9030    138.1054     66.3120   7.1899685883e+01   4.1700924995e+01    0.3044501    0.2945409 -11.88 0.0004821034    1.027    0.026
       171  -8.6899    138.7374     62.2518   7.0406593363e+01   4.2263721045e+01    0.3963792    0.1784948  39.06  0.001359931    2.687    0.628
       172  -9.0378    121.0591     65.9107   7.6173977265e+01   4.5729959129e+01    0.3674259    0.2528295 -50.55  0.001016686    1.581    0.367
       173  -8.1891    122.0383     61.2220   7.4318356585e+01   4.6360736795e+01    0.3698179    0.2039296  39.91  0.001239729    1.925    0.480
       174  -7.3188    238.9882    232.9590   8.9658950219e+01  -8.0950919364e+00    0.1422147    0.1078886  18.03 0.0004684084    1.011    0.011
       175  -8.0502    170.6969     64.9843   6.4268416530e+01   3.3781134780e+01    0.2210534    0.1926629 -38.87 0.0004321525    1.144    0.126
       176  -9.3164    109.7949     63.8118   7.8623503009e+01   4.8565810115e+01    0.3818865    0.2627369 -54.10 0.0007228583    1.677    0.404
       177  -8.9076    110.8000     58.2514   7.6402669448e+01   4.9367207927e+01    0.3876351    0.2918913  -3.44 0.0008752951    1.585    0.369
       178  -9.0547    211.0296     61.3631   5.6261845502e+01   2.4062588808e+01    0.3942808    0.2383079 -27.99  0.000729602    1.713    0.416
       179  -8.3199    157.6917     62.9079   6.6300953533e+01   3.7447517371e+01    0.2791084    0.1981454 -49.39  0.000662072    1.490    0.329
       180  -8.6578     87.6644     58.5429   8.3600354636e+01   5.3902296318e+01     0.395953    0.2331423 -47.76  0.001359759    1.735    0.424
       181 -10.1193     73.5800     57.1073   8.7860337876e+01   5.6581059343e+01      1.11336    0.3883452 -38.27  0.002921453    2.877    0.652
       182 -10.3986     89.8488     38.3287   7.5253237815e+01   5.6985966505e+01    0.8658266    0.3494983  33.98  0.003095442    3.232    0.691
       183 -10.3725     85.1475     48.0042   8.0570209391e+01   5.6274184437e+01    0.5980096    0.4191351 -73.15  0.001010272    2.740    0.635
       184  -9.0544     79.9659     46.3317   8.1681147420e+01   5.7492194653e+01    0.3371957      0.20237 -31.60 0.0006521916    1.589    0.371
       185  -7.9735    164.3786     60.1353   6.4031949554e+01   3.6201114863e+01    0.2213521    0.1930076 -43.08  0.001122173    1.153    0.132
       186  -7.7046    152.5837     59.8635   6.6430924998e+01   3.9246151577e+01    0.2285781    0.1366738 -45.90  0.000944972    1.761    0.432
       187  -9.8114    147.2139     56.2150   6.6425097397e+01   4.1192590765e+01    0.8237224    0.3105483 -24.27   0.00237948    3.987    0.749
       188  -9.1876    129.8445     56.3490   7.0606938613e+01   4.5399009976e+01    0.7043328    0.2309034 -40.17  0.001964178    3.016    0.668
       189  -9.6824    130.6497     46.3163   6.6888754451e+01   4.6821190771e+01    0.8347429    0.3364536 -22.74  0.001598355    3.483    0.713
       190  -9.2236    139.1981     40.2337   6.2749145864e+01   4.5627995463e+01    0.4946479    0.3756489  84.11  0.001734967    1.616    0.381
       191  -8.7383    133.1056     35.9104   6.2570658923e+01   4.7732168830e+01    0.3246115    0.2182866 -41.05 0.0006745155    1.577    0.366
       192 -10.8610    134.0322     31.0681   6.0604536278e+01   4.8145425794e+01    0.3724722    0.2853008  10.37  0.001886695    1.479    0.324
       193  -9.1674    118.1688     55.4474   7.3353667368e+01   4.8241588942e+01    0.4018611    0.3066453 -64.33 0.0008670317    1.702    0.413
       194  -9.3320    120.6703     48.0399   7.0029600661e+01   4.8897943011e+01     0.567651    0.3226778 -17.59  0.001875996    2.244    0.554
       195  -8.1914    168.3980     55.3353   6.1732339178e+01   3.5931399767e+01    0.2440714     0.184395  22.79  0.001121829    1.623    0.384
       196  -8.6983    162.8404     53.9640   6.2387691638e+01   3.7579875050e+01    0.3749268    0.1887744 -33.37 0.0009666238    1.990    0.498
       197  -8.9805    105.2607     52.5869   7.5980525537e+01   5.1533522641e+01    0.4724537    0.2285986 -42.06  0.001409153    2.078    0.519
       198  -8.7610    157.7511     48.9850   6.1799707302e+01   3.9651584654e+01    0.3944193    0.1949552 -45.83  0.001375946    2.208    0.547
       199  -9.1294    141.0542     49.6034   6.5588608937e+01   4.3775947462e+01    0.5962626    0.3607685  16.01   0.00129528    2.709    0.631
       200  -7.8978    172.5019     50.1919   5.9357733802e+01   3.5651934589e+01    0.2875962      0.13988 -36.60 0.0009718834    2.014    0.504
       201  -9.1520    149.8428     47.6272   6.2984505815e+01   4.1874610401e+01    0.4075351    0.1887362 -40.73 0.0009327933    2.205    0.546
       202  -8.5962    111.9735     47.0387   7.2014216203e+01   5.1014995170e+01    0.2378689    0.2252043 -11.82 0.0004346484    1.046    0.044
       203  -8.7130    113.3387     42.3422   6.9882600826e+01   5.1447975865e+01    0.3232571    0.2203137  17.97  0.001371132    1.786    0.440
       204  -7.4556    162.5071     46.4320   6.0035212972e+01   3.8803368968e+01     0.149953    0.1436933  86.25 0.0001894106    1.046    0.044
       205  -8.8467     40.0529     35.0000   9.2625052616e+01   6.5278804771e+01    0.3417625    0.2039035  27.22  0.001940483    1.852    0.460
       206 -10.0836     37.4832     41.9497   9.6338087087e+01   6.4282691601e+01    0.4157985    0.3066788 -80.58   0.00166497    2.382    0.580
       207 -10.1441     35.8977     38.0046   9.5566710803e+01   6.5188600420e+01    0.3453705    0.2003416 -40.48 0.0003663561    1.409    0.290
       208  -7.9456    125.4879    227.9580   1.0964496142e+02   1.1172618669e+01    0.2366499    0.1396383  55.31 0.0007570698    1.521    0.342
       209  -8.4423    234.1184    216.5433   8.7720671580e+01  -5.3973661539e+00     0.197207    0.1512889  -4.23 0.0003408434    1.215    0.177
       210  -9.9856     10.2783    207.3033   1.2925297539e+02   3.0409990159e+01    0.4055344    0.2620896  32.98   0.00282707    1.972    0.493
       211 -10.1526     76.1677     31.9993   7.7215056142e+01   6.0499402103e+01    0.5335689    0.4030724  62.07  0.001645715    1.902    0.474
       212  -9.1876    232.7266    199.0188   8.4803141362e+01  -2.8806059851e+00    0.2758301    0.2423284  89.96  0.001020466    1.965    0.491
       213  -8.8495     84.7111     21.9132   6.9987228247e+01   6.0323501829e+01    0.2612014    0.1850621 -23.64 0.0006357897    1.361    0.265
       214  -8.2883    122.7347     40.9596   6.6904503765e+01   4.9503395597e+01    0.3794995    0.2183334  23.72  0.001490062    2.469    0.595
       215  -9.1785    105.0133     41.0645   7.1726369391e+01   5.3465015813e+01    0.5347981    0.2396877 -38.36 0.0008430711    2.226    0.551
       216  -8.5147    106.0218     36.4784   6.9654712007e+01   5.3933801714e+01    0.2855996    0.2011684  19.96  0.001088188    1.582    0.368
       217  -9.2383    153.3688     40.4091   5.9836926694e+01   4.2020385283e+01    0.3665825     0.238693 -39.78  0.001413558    1.577    0.366
       218  -8.2122    153.5976     34.8198   5.7911786009e+01   4.2718539359e+01    0.2894396    0.1371005 -32.58  0.001033621    2.121    0.529
       219  -7.5775    160.0000     39.9733   5.8410051085e+01   4.0370577098e+01    0.2377824   0.08545173 -29.06 0.0007939631    2.884    0.653
       220  -9.2719     53.4839     38.9669   8.8624539613e+01   6.2899791457e+01     0.247137    0.1790193 -41.42 0.0008561484    1.291    0.226
       221  -9.0681     54.4112     35.2406   8.6754588171e+01   6.3419373308e+01    0.2145706    0.1723282  18.83 0.0008676472    1.281    0.219
       222  -8.8152    144.0690     36.4865   6.0388795946e+01   4.4926507086e+01    0.2623248    0.1924543 -47.78 0.0006144937    1.489    0.328
       223  -8.8473    118.9570     34.9126   6.5591850909e+01   5.1247723413e+01    0.3211023    0.2054523 -29.12 0.0006846142    1.581    0.368
       224  -9.0913    192.4416    195.1052   9.1553636443e+01   4.8474693257e+00    0.6603213    0.3458946 -61.37  0.002287564    4.691    0.787
       225  -8.8784    220.5368    193.4820   8.5949544037e+01   5.3745144110e-05    0.2644564    0.2036998  41.22  0.001063926    1.305    0.234
       226  -9.3816    250.6413    191.0258   8.0198201784e+01  -4.7607787652e+00    0.2031832    0.1175702 -32.20            0    1.702    0.413
       227  -9.3992     60.2610     33.8692   8.3877515139e+01   6.2804433331e+01    0.3744991    0.2453312 -46.41   0.00130966    1.665    0.399
       228  -9.0142     62.0645     26.6534   8.0070233799e+01   6.3665517102e+01    0.4711292    0.2590232  29.48  0.002384169    1.932    0.482
       229  -7.6089    246.6575    190.2920   8.0729310384e+01  -4.0139978206e+00    0.1762405   0.09728002  38.99 0.0006652697    1.738    0.425
       230  -9.2186    221.7617    188.6807   8.4806922901e+01   4.8982743431e-01    0.3055011    0.2037566  31.51 0.0007626374    1.380    0.276
       231  -8.8884    222.2945    184.0931   8.3814205299e+01   1.0803349285e+00    0.2811696    0.1945792  42.48            0    1.429    0.300
       232  -7.8323      1.9178    182.2968   1.2938766785e+02   3.6191933531e+01    0.1471253    0.1116273  80.69 0.0004352444    1.087    0.080
       233  -9.1141    110.3216     33.0810   6.7136903081e+01   5.3468403140e+01    0.3687314    0.2232272 -44.44 0.0008589227    1.891    0.471
       234  -8.5603    110.5797     26.7108   6.4545306960e+01   5.4253779527e+01    0.3790008    0.2362716  12.32  0.001700533    2.062    0.515
       235  -7.4486     13.2757     34.6365   1.0448913100e+02   6.7786275980e+01    0.1045198   0.08578614 -79.45 0.0004363699    1.667    0.400
       236  -8.3963     45.4221     15.7284   8.1806560759e+01   6.7712534901e+01    0.1796459    0.1358921 -22.68   0.00116348    1.142    0.124
       237 -10.2146    189.6467    180.3598   8.9328059659e+01   7.8379376996e+00    0.2443481    0.2285758  34.44 0.0003576764    1.078    0.073
       238  -8.3907    142.1749    181.2272   9.9412634308e+01   1.6879454310e+01    0.1943626    0.1784039  29.56 0.0003305345    1.162    0.139
       239  -8.5863    248.3028    179.2175   7.8268068840e+01  -2.7730045716e+00     0.200064    0.1687655  23.17  0.000261398    1.165    0.142
       240  -8.8191     42.2523     28.0196   8.8804837569e+01   6.6222690022e+01    0.1913358    0.1533219 -17.31 0.0003215721    1.033    0.032
       241  -9.1028    152.3719     29.7607   5.6430325135e+01   4.3680711896e+01    0.2729459     0.186155 -21.49 0.0006362495    1.590    0.371
       242  -9.1059     75.1544    178.8134   1.1385837098e+02   2.8704916739e+01    0.2081038    0.1756608 -83.83 0.0002863469    1.111    0.100
       243  -9.0859    144.1812     25.9172   5.6661245763e+01   4.6241651953e+01    0.2882312     0.181209 -29.90  0.001357568    1.651    0.394
       244  -7.4423      1.6783    173.2952   1.2889480648e+02   3.8093639017e+01    0.1169511   0.06128339  68.40 0.0003083662    1.616    0.381
       245  -9.1618     91.3655     26.3265   6.9817650270e+01   5.8423198047e+01    0.3897432    0.2165288 -42.12  0.001280316    2.055    0.513
       246  -9.1735    139.2152     21.3897   5.6018268771e+01   4.8019605364e+01    0.3493025    0.2858069 -81.21   0.00116064    1.427    0.299
       247  -8.2843    139.5018     17.9920   5.4738618105e+01   4.8320597384e+01    0.2703706    0.1897716 -43.36 0.0007330694    1.569    0.363
       248  -8.2291    230.8358    168.3050   7.9061736770e+01   1.9242445253e+00    0.3528519    0.1464779 -36.55  0.001465601    2.361    0.576
       249  -8.2894    111.6779     21.0736   6.2001568415e+01   5.4689815090e+01    0.3429914    0.1833377 -18.18  0.001529428    2.052    0.513
       250  -8.8513    210.1275    164.0075   8.1977308436e+01   6.5983086347e+00    0.2139698    0.1874538  27.65            0    1.085    0.079
       251  -8.7612     75.2275    163.1135   1.1173987862e+02   3.2207744219e+01    0.2015912     0.174777  59.48 0.0003694134    1.154    0.133
       252  -8.1461    196.1125    162.3512   8.4361826516e+01   9.7083400416e+00    0.2047604    0.1309571  53.47 0.0009372099    1.711    0.416
       253  -7.1627    137.7209    158.2888   9.6147378904e+01   2.2475672027e+01    0.1443484      0.11257  81.07 0.0002696324    1.521    0.343
       254  -8.6997    237.7974    152.6602   7.4490314915e+01   3.0522092111e+00    0.2142347    0.1606713  20.84 0.0009192249    1.370    0.270
       255  -8.7230     40.9093     21.0245   8.6295202004e+01   6.7514072613e+01    0.2421487    0.1431529 -30.70 0.0004419328    1.441    0.306
       256  -8.6157    133.9191    147.2462   9.4785504018e+01   2.5625577008e+01    0.6677057    0.1896982 -55.69   0.00172305    5.064    0.803
       257  -9.0060    132.8545     17.1953   5.5746359087e+01   5.0064473125e+01    0.2574117    0.2366499  80.47 0.0006603302    1.163    0.140
       258  -9.1718    236.5733    146.4902   7.3337276628e+01   4.2642749417e+00    0.2897756    0.1354282  46.72  0.001231237    2.237    0.553
       259  -8.3511    128.9329     15.9849   5.6090252067e+01   5.1157377223e+01    0.2355092    0.2023972  77.01 0.0003454804    1.252    0.201
       260  -9.2245     67.2179    144.2090   1.1087223751e+02   3.7726633178e+01    0.4472415    0.2801217  77.12   0.00217733    1.873    0.466
       261  -8.0497    231.4955    143.4897   7.3542299807e+01   5.7491096339e+00     0.142941    0.1276689  -5.86 -0.0001706705    1.029    0.028
       262  -7.1156    228.7167    139.6371   7.3152131459e+01   6.9436288755e+00    0.1488088    0.1061713   1.25 0.0007018056    1.682    0.406
       263  -8.7479     92.0058     20.8513   6.7277277933e+01   5.8995337819e+01    0.3574898    0.2055434  27.28   0.00123948    1.916    0.478
       264  -7.2295    167.2941    137.2599   8.4814897435e+01   2.0673816974e+01    0.1482263    0.1200478  10.79 0.0001863434    1.499    0.333
       265  -7.5891    189.4060     15.7637   4.6358441592e+01   3.5647222000e+01     0.180094    0.1370006  -3.10  0.000485855    1.648    0.393
       266  -8.1104    104.7474     15.2576   6.1363227817e+01   5.6907290040e+01     0.365283    0.1732593  28.93  0.001447259    2.681    0.627
       267  -7.5016     95.9677    136.4571   1.0206441116e+02   3.5165156195e+01    0.2074804    0.1131007  61.78 0.0006548403    2.460    0.593
       268  -8.7292    112.3439    134.0717   9.7326861666e+01   3.2796641050e+01    0.3815411     0.263157  85.16 0.0009957277    1.994    0.499
       269  -9.9885    134.3900    131.8458   9.1265082747e+01   2.8933282745e+01    0.8175974    0.5476351 -51.07  0.003267549    1.494    0.331
       270 -10.8847    140.7214    119.2583   8.6647445808e+01   3.0353357872e+01    0.8570448    0.6321913 -37.56  0.003106613    1.408    0.290
       271  -9.5973    129.8507     97.1945   8.3501048390e+01   3.7508490526e+01    0.5175752    0.3418458  19.85  0.001606613    2.269    0.559
       272 -10.3541    108.9065    113.2526   9.3429271189e+01   3.8248280343e+01     1.066056    0.4629981 -52.88  0.002020693    2.273    0.560
       273 -10.5176    109.0255    100.0184   8.9961585561e+01   4.1223083184e+01    0.9940965    0.6343432  70.95  0.003794958    2.494    0.599
       274  -7.4284    177.4534     11.4315   4.6579962519e+01   3.9206226144e+01     0.139239     0.126257  76.62 0.0003271264    1.018    0.018
       275 -11.3017    121.1838    109.6897   8.9202780247e+01   3.6621849774e+01     1.455934    0.7332395 -46.43  0.003808753    1.928    0.481
       276  -9.7924    127.6943    102.5161   8.5554974232e+01   3.6832983610e+01    0.4309795    0.4052298 -62.20  0.001204822    1.062    0.059
       277 -10.2993    130.3844    118.6151   8.9081498402e+01   3.2714633671e+01    0.8383057    0.5230507 -86.58  0.002672954    3.349    0.701
       278  -8.6421     83.6292    132.0247   1.0445483268e+02   3.8220397050e+01    0.6268596    0.3287781  71.12  0.002133256    3.745    0.733
       279 -10.7285     70.2127    126.4449   1.0703215788e+02   4.1536254256e+01    0.7946379    0.6109044 -31.49  0.001621885    1.647    0.393
       280 -10.1599     58.2846    124.4883   1.0996956024e+02   4.3585846835e+01    0.6720777     0.369289  79.86  0.002426978    2.856    0.650
