#   1 NUMBER                 Running object number                                     
#   2 MAG_AUTO               Kron-like elliptical aperture magnitude                    [mag]
#   3 X_IMAGE                Object position along x                                    [pixel]
#   4 Y_IMAGE                Object position along y                                    [pixel]
#   5 X_WORLD                Barycenter position along world x axis                     [deg]
#   6 Y_WORLD                Barycenter position along world y axis                     [deg]
#   7 A_WORLD                Profile RMS along major axis (world units)                 [deg]
#   8 B_WORLD                Profile RMS along minor axis (world units)                 [deg]
#   9 THETA_WORLD            Position angle (CCW/world-x)                               [deg]
#  10 FWHM_WORLD             FWHM assuming a gaussian core                              [deg]
#  11 ELONGATION             A_IMAGE/B_IMAGE                                           
#  12 ELLIPTICITY            1 - B_IMAGE/A_IMAGE                                       
         1 -14.5251    222.1502      5.5416   3.7377520384e+01   2.8814030818e+01     2.641472     1.533262  52.90  0.008075194    1.942    0.485
         2 -14.1351    180.2568     49.7574   5.4454309784e+01   3.3744337159e+01     1.993415     1.432771  23.66 0.0008432399    1.814    0.449
         3 -14.0591    193.1932     38.9315   4.9313964506e+01   3.1974799876e+01     1.051699    0.9420205 -74.33  0.003577225    1.075    0.070
         4 -14.3190    199.8013     31.2320   4.6288822634e+01   3.1310682021e+01     1.224179     1.072624  46.70  0.001392487    1.260    0.206
         5 -11.0027    189.6209     14.8323   4.3029308718e+01   3.5753099106e+01    0.2734795    0.2224763 -53.87 0.0007730702    1.217    0.178
         6 -11.0207     46.9988     11.1796   7.5583622151e+01   6.7902496695e+01    0.2118608    0.1189872  12.78  0.001091446    2.037    0.509
         7 -10.9796     68.0088      2.9974   6.3352087462e+01   6.5334762360e+01    0.2157456    0.1262181  19.61  0.001149357    1.711    0.416
         8 -11.3135    155.7071     58.2075   6.1712040250e+01   3.8662651465e+01    0.3551778    0.2822084 -84.08 0.0005806023    1.537    0.349
         9 -11.5001    249.2369    248.8228   8.6946002259e+01  -1.1505263266e+01    0.3129884    0.1970563 -14.49  0.002112222    1.507    0.336
        10 -16.8055     69.7332    146.0388   1.0772964547e+02   3.6678028011e+01     14.27609     6.943154  80.80   0.02130563    5.680    0.824
        11 -10.2494     28.7048    209.6181   1.2393809971e+02   2.7328901812e+01    0.1429939   0.08292714  54.53 0.0004920331    1.448    0.309
        12 -13.0054     31.0220    205.8083   1.2322867197e+02   2.7857395222e+01    0.3936825    0.1435395  51.83  0.001963818    2.338    0.572
        13 -12.5868    199.2061    203.3617   8.8254031060e+01   2.0834434478e+00    0.9995668    0.5840663  -6.58  0.004287288    2.780    0.640
        14 -11.4286    192.7841    194.3633   8.7865333184e+01   4.6884346423e+00      0.75899    0.4198393 -63.69  0.002545564    4.934    0.797
        15 -11.0523     97.5628    201.3206   1.0914441093e+02   2.0033940402e+01    0.3501776    0.3104725 -10.33   0.00214768    1.584    0.369
        16 -10.0694     36.1602    223.7567   1.2352203583e+02   2.3714661948e+01    0.1935793    0.1089534  62.47 0.0008651394    1.442    0.306
        17 -11.9318    134.3805    197.4930   1.0064601798e+02   1.4691790810e+01    0.3378888    0.2135143 -55.50  0.001094852    1.747    0.428
        18  -9.6502     38.2685    199.0944   1.2128805390e+02   2.8458758580e+01    0.1516248    0.1125627  79.02 0.0001730184    1.078    0.073
        19 -11.1826    195.4689    198.9804   8.8187844892e+01   3.4436749612e+00    0.3567798    0.2782918  48.92  0.001124513    1.411    0.292
        20 -10.7626    151.4903    195.3544   9.6612774193e+01   1.2048235507e+01    0.2950801    0.1561818  43.56   0.00134145    1.722    0.419
        21 -10.3101     81.9440    194.9914   1.1171840993e+02   2.3714115043e+01    0.1951844    0.1716148  75.32 0.0005220227    1.044    0.042
        22 -10.1472     58.1590    192.3833   1.1654765377e+02   2.7520160824e+01    0.1795271    0.1322012  49.64 0.0005414495    1.289    0.224
        23 -13.4459     63.8076    187.1501   1.1475842674e+02   2.7934178178e+01    0.7556148      0.64021 -54.00  0.003908877    1.416    0.294
        24 -10.6572     95.4778    188.8903   1.0794066890e+02   2.2982225506e+01     0.376135    0.2715601  75.65  0.001915014    1.453    0.312
        25  -9.3027     44.0079    189.4332   1.1926137318e+02   2.9876961904e+01    0.1671611    0.1030689  47.77 0.0007074433    1.515    0.340
        26  -8.7608    164.7196    187.3440   9.2362939175e+01   1.1124194094e+01     0.136353    0.1114644  82.35 0.0004635665    1.634    0.388
        27 -19.1390      4.0701    105.7478   1.2013002669e+02   5.2744950962e+01     16.11597    0.7333531 -71.88   0.02794375   15.489    0.935
        28 -11.1655     99.3916    180.6982   1.0586926994e+02   2.4148851071e+01    0.2946905    0.2592702  15.29  0.001246618    1.430    0.301
        29  -9.5127     38.3333    186.3760   1.2017990141e+02   3.1185301228e+01    0.1520728   0.09768745  52.03 0.0009108412    1.436    0.304
        30 -11.4654    131.6106    171.8506   9.6894598928e+01   2.0479467355e+01    0.5080249    0.2077586  37.90  0.001887512    2.473    0.596
        31 -11.7648    145.4413    181.3775   9.5482214788e+01   1.5908432937e+01    0.3552347    0.2636424 -46.84  0.001195631    1.438    0.304
        32 -11.9691    141.3147    174.2449   9.5101691135e+01   1.8153120307e+01    0.7181764    0.4901126  86.40  0.001772465    2.349    0.574
        33  -9.9729    189.2531    178.2515   8.5460172689e+01   8.1462176021e+00     0.348036    0.2053585 -54.33  0.001522153    2.246    0.555
        34 -10.2916    188.1716    173.7617   8.4773787022e+01   9.1683519978e+00    0.3151292    0.2284026 -66.56  0.001457951    2.065    0.516
        35 -10.0772    204.1817    175.2604   8.1847636736e+01   5.8397926783e+00    0.2759953    0.1912189 -45.52 0.0009400295    1.605    0.377
        36 -10.3269    196.2012    174.1353   8.3209400990e+01   7.5530669152e+00    0.3421023    0.2555057 -57.55  0.001722227    1.746    0.427
        37 -10.5801     55.8382    174.6969   1.1511835893e+02   3.1748201349e+01    0.3706288    0.1790152  52.67  0.001773102    2.052    0.513
        38 -10.0350     50.1716    224.1408   1.2097958000e+02   2.1997409153e+01    0.1604926     0.081924 -88.93  0.000407369    1.989    0.497
        39 -11.0306     45.8796    172.7227   1.1717084807e+02   3.3389404772e+01    0.3583543     0.293447  52.14  0.001507482    1.255    0.203
        40 -11.0475    230.1924    166.6820   7.5135593906e+01   2.4615360744e+00    0.3276539    0.1718711 -47.77  0.001412922    2.388    0.581
        41  -9.6247     55.3310    216.4439   1.1938041245e+02   2.2870341158e+01      0.25274    0.1165329  69.97 0.0009790647    2.451    0.592
        42 -10.3232    186.9534    165.9670   8.3405717982e+01   1.0851025188e+01     0.341899    0.2079261 -48.78  0.001188084    1.831    0.454
        43 -11.2193     56.6954    209.6393   1.1851761895e+02   2.4071175179e+01    0.3936846    0.2369914 -73.92   0.00163105    1.586    0.370
        44 -12.2665     93.7505    152.9220   1.0268847942e+02   3.1426230269e+01    0.6731722    0.4675417 -30.61  0.003156327    1.991    0.498
        45 -10.8250    187.8091    152.1823   8.0220673528e+01   1.3295875318e+01    0.3845279    0.2657978 -74.45  0.001565588    2.562    0.610
        46 -11.4865    133.8589    145.4644   9.1063295336e+01   2.5865476677e+01     1.254024    0.3204513 -54.78   0.00290211    6.037    0.834
        47 -10.2387     66.7317    204.6575   1.1601164239e+02   2.3795649402e+01    0.7434669     0.473905 -31.74  0.001004226    3.287    0.696
        48  -8.9158    139.2747    150.6597   9.0863093276e+01   2.3629905664e+01    0.1516083    0.1194324  89.78  0.000295764    1.614    0.380
        49 -10.8146    174.3198    148.7001   8.2328973702e+01   1.6801298312e+01    0.3530425    0.2799698 -70.38  0.001350356    1.626    0.385
        50 -10.5075    143.8513    146.1832   8.8784134272e+01   2.3689803209e+01    0.3978315    0.2060098 -63.81  0.001345589    3.049    0.672
        51  -9.6148    109.0364    147.2710   9.7704088275e+01   3.0149817052e+01    0.1976127    0.1811455  64.00 0.0002232293    1.082    0.076
        52 -13.5227     54.2926    199.9370   1.1810638058e+02   2.6388503121e+01    0.4048998    0.3403656 -70.38  0.001686511    1.309    0.236
        53 -11.2339    106.1962    138.5135   9.6652195613e+01   3.2715388985e+01    0.5588241    0.3390009 -33.05  0.002298644    2.211    0.548
        54 -12.4406     93.8343    138.5499   9.9955121147e+01   3.4832910306e+01    0.2718516    0.2552627 -47.72 0.0004425931    1.121    0.108
        55 -11.0278    105.9243    130.6628   9.5030632047e+01   3.4619520693e+01    0.3808792    0.3224781 -64.19  0.001211604    1.159    0.137
        56 -10.6271    135.8345    129.3757   8.6878315248e+01   2.9077642530e+01    0.3646713     0.175878 -49.39  0.001362385    2.082    0.520
        57  -9.0542    100.2221    131.3132   9.6723086296e+01   3.5476900094e+01     0.142701    0.1097593 -33.44 0.0002366849    1.483    0.326
        58 -11.0304    114.6919    129.4796   9.2404859244e+01   3.3272129226e+01    0.5959491    0.2943611  35.39  0.002280388    2.261    0.558
        59 -10.2294    160.6427    127.6814   8.0432362279e+01   2.4104045194e+01    0.3138186    0.2861457 -76.06  0.001600076    1.219    0.180
        60 -11.1566    101.3576    125.5094   9.5126237487e+01   3.6656852306e+01    0.2857816    0.2346283 -25.95    0.0005729    1.416    0.294
        61 -11.0996    119.8444    123.1326   8.9526458477e+01   3.3745041265e+01    0.5447899    0.3589836  -9.23  0.002014215    2.834    0.647
        62  99.0000     42.7859    209.8124   1.2126179612e+02   2.5721647520e+01    0.4255638    0.1996885  85.83  0.002142728    2.291    0.564
        63 -10.2202    109.4497    118.6498   9.1266358204e+01   3.6791124486e+01    0.2471773    0.2358629 -54.50 0.0002338288    1.006    0.006
        64 -10.1386    167.4795    112.4025   7.4939606330e+01   2.5726636943e+01    0.3363418    0.2578249 -75.32  0.001256994    1.731    0.422
        65  -9.9969    135.0000    111.4781   8.2556092439e+01   3.3232817683e+01    0.4612436    0.1590239 -46.58  0.001440988    2.879    0.653
        66 -10.2724    134.5196    105.5230   8.1070565125e+01   3.4634596648e+01    0.4878017    0.1512841 -45.29  0.001448615    3.174    0.685
        67 -11.8451    118.5229    110.2210   8.6619987486e+01   3.6957698733e+01    0.6355557     0.457312  72.25  0.002307858    1.912    0.477
        68 -10.3528    205.2903    110.2389   6.6612732875e+01   1.7428826756e+01    0.3282178    0.2584138  44.26 0.0009031329    1.334    0.250
        69  -9.9494     64.2687     99.6768   1.0018383871e+02   4.8603325610e+01    0.2281954    0.1758222  36.48  0.000738757    1.452    0.312
        70 -12.2074     52.4056     91.2705   1.0207819737e+02   5.2057146700e+01    0.4815382    0.2525982 -55.00  0.001618224    1.618    0.382
        71  -9.6075    164.0000    210.9367   9.6585600109e+01   6.9982769524e+00    0.2004326   0.07696203 -46.64 0.0008050572    2.961    0.662
        72  -9.4266    155.8958     81.5244   6.8871557365e+01   3.4551404877e+01    0.2309692    0.1546133  52.19 0.0005411084    1.510    0.338
        73 -10.2508     65.2791     70.3442   9.1863708743e+01   5.5060952702e+01    0.2826831    0.2116148  36.10  0.001008324    1.490    0.329
        74 -18.0060     23.1231    242.8160   1.2689332731e+02   2.1602254725e+01     6.476002     4.437343  50.25   0.04935091    1.322    0.244
        75  -9.7712     70.2797    247.9984   1.1919381373e+02   1.5065444276e+01    0.1389343    0.1116602  83.12 0.0004495256    1.207    0.171
        76 -10.6967    157.9711    235.9510   1.0151702491e+02   3.9193662281e+00    0.1947713    0.1618668  36.14 0.0005890948    1.020    0.020
        77 -11.6233     49.1945    218.7386   1.2074154329e+02   2.3170841705e+01    0.3825158    0.1891802  69.47  0.002016758    2.004    0.501
        78  -9.8883     56.1208    223.9794   1.1985580143e+02   2.1293116918e+01    0.1217504   0.09350177  78.75            0    1.096    0.087
        79  -9.3525    168.9691    234.8052   9.9247424462e+01   2.3067762386e+00    0.1655348    0.1379025  32.47 0.0003983171    1.016    0.015
        80 -10.3267     77.7767     14.1475   6.5389711701e+01   6.2329940665e+01    0.2960207    0.1779855  68.31  0.001324502    2.951    0.661
        81 -11.5446     60.0252    232.1637   1.1978876933e+02   1.9244221838e+01    0.1805632    0.1322433  74.56 0.0002878099    1.134    0.118
        82 -11.5946     35.3748    229.0657   1.2401190328e+02   2.2788837609e+01    0.2072763    0.1159273  53.35 0.0005907081    1.426    0.299
