#   1 NUMBER                 Running object number                                     
#   2 MAG_AUTO               Kron-like elliptical aperture magnitude                    [mag]
#   3 X_IMAGE                Object position along x                                    [pixel]
#   4 Y_IMAGE                Object position along y                                    [pixel]
#   5 X_WORLD                Barycenter position along world x axis                     [deg]
#   6 Y_WORLD                Barycenter position along world y axis                     [deg]
#   7 A_WORLD                Profile RMS along major axis (world units)                 [deg]
#   8 B_WORLD                Profile RMS along minor axis (world units)                 [deg]
#   9 THETA_WORLD            Position angle (CCW/world-x)                               [deg]
#  10 FWHM_WORLD             FWHM assuming a gaussian core                              [deg]
#  11 ELONGATION             A_IMAGE/B_IMAGE                                           
#  12 ELLIPTICITY            1 - B_IMAGE/A_IMAGE                                       
         1 -11.4162    249.3037     23.3267   1.3744408456e+01   2.0010356772e+01    0.5388821    0.2750391 -56.82  0.002164308    1.811    0.448
         2 -12.7774    227.7851     16.2517   1.4162605425e+01   2.6017496811e+01    0.8454058    0.6646615   0.47  0.004660783    1.920    0.479
         3 -12.2866    236.5189     30.1771   1.6563416544e+01   2.2122359601e+01    0.5629666    0.4218994 -24.61   0.00309079    1.618    0.382
         4 -12.8750    248.3831     12.0897   1.1343650539e+01   2.1619925536e+01     1.468245     0.567468 -35.19  0.006529845    2.416    0.586
         5 -12.5053    239.7899     19.9126   1.3856863528e+01   2.2668387052e+01    0.5960407    0.4747962  51.32  0.002017989    1.544    0.352
         6 -11.7564    238.5495     13.7943   1.2573704087e+01   2.3716713266e+01    0.5656403     0.310822  59.41  0.002425133    1.900    0.474
         7 -11.5182    221.2723     15.6564   1.4677525500e+01   2.7697563024e+01    0.3463859    0.2309792 -47.43  0.000265934    1.423    0.297
         8 -11.9731    111.2468     19.2245   3.3998697836e+01   5.4954769722e+01    0.5818731    0.3527326 -14.54   0.00282899    1.968    0.492
         9 -12.0368     55.3843     19.6705   5.2253706954e+01   6.5252819901e+01    0.2373553    0.2158145 -28.63 0.0003084214    1.266    0.210
        10 -11.1060    101.1653     16.0746   3.5446165782e+01   5.7518398018e+01    0.5737935    0.3634209  16.00  0.002819138    1.959    0.489
        11 -10.5845    103.2522      7.8911   3.1643811258e+01   5.7977114958e+01    0.2502556    0.2298255  82.14  0.001164117    1.290    0.225
        12 -10.5047    136.9468     16.1142   2.7042087300e+01   4.9269574968e+01    0.3383082    0.2351355 -15.29 0.0008657084    1.692    0.409
        13 -10.8716     83.6522     13.0353   3.9349187041e+01   6.1397027577e+01    0.2695576    0.2111531 -26.93 0.0008059921    1.322    0.244
        14 -10.5262     39.6803      9.1320   5.4222738474e+01   6.8830461468e+01    0.2322912    0.2133397   1.89 0.0006958039    1.300    0.231
        15  -9.5509     52.5785     10.4420   4.9347034622e+01   6.6928054124e+01    0.2291385    0.1851292  47.04 1.534815e-05    1.591    0.371
        16 -11.2013     58.3272     12.6665   4.8067274078e+01   6.5785062840e+01    0.5244489      0.27779  45.73  0.002821978    2.071    0.517
        17 -10.2684     63.0459     10.0434   4.5104617735e+01   6.5380634062e+01    0.2012372    0.1785569 -19.43 0.0008122756    1.223    0.182
        18 -11.0766     46.6313      5.1429   4.9355503468e+01   6.8446475174e+01    0.4595097    0.2882284  26.87   0.00201446    1.522    0.343
        19 -11.4125     43.5773     12.2428   5.3918578264e+01   6.7909440378e+01    0.2353226    0.1823439   5.61 0.0002948334    1.164    0.141
        20 -11.4038     45.9752      9.2540   5.1544004558e+01   6.8003410331e+01    0.3292376    0.1758039  31.84  0.001173818    1.859    0.462
        21 -12.2729    127.7879      4.6654   2.4850484465e+01   5.2685201779e+01    0.4233576    0.3488705 -76.60  0.002475312    1.418    0.295
        22 -10.8996    135.1273      1.8698   2.2462271136e+01   5.1168443718e+01    0.6006739     0.179318  59.90  0.002262499    2.612    0.617
        23 -10.3639    125.6941     14.3027   2.8761226348e+01   5.2193697411e+01    0.3004958     0.214336 -32.72 0.0005541308    1.528    0.345
        24 -11.2878    123.5735     11.0605   2.8047501410e+01   5.3045334377e+01    0.4632782    0.2553723  51.72  0.002249563    1.581    0.368
        25 -11.3342    188.7604      7.8212   1.6296904679e+01   3.6884619429e+01    0.6295437    0.3809503 -65.39  0.003038098    1.767    0.434
        26 -11.9382    182.8203     12.1879   1.8273953066e+01   3.7950360240e+01    0.3774278    0.3315042 -83.95 0.0008989866    1.062    0.058
        27 -10.1513    157.5192     11.0205   2.1643911568e+01   4.4638889733e+01    0.3116453    0.2192651 -56.19 0.0009866259    1.576    0.365
        28 -10.2949    150.0135      6.0116   2.1269557238e+01   4.7065449199e+01    0.2976702    0.1822372  71.82 0.0004343679    1.507    0.336
        29 -10.8065    152.8651      3.0460   1.9852907106e+01   4.6629756931e+01    0.5107344     0.227632  66.58  0.002208236    1.934    0.483
        30 -10.4933    149.6777     11.9787   2.3270167749e+01   4.6537803214e+01    0.2921263    0.1896884  54.35 0.0005289856    1.377    0.274
        31 -10.7596    153.2458      9.4985   2.1860304605e+01   4.5891592869e+01    0.2624717    0.2268787  79.74 0.0005991967    1.086    0.079
        32 -10.1594    131.6291     13.7488   2.7302155286e+01   5.0830320063e+01    0.2628743     0.206449  82.02 0.0008011587    1.381    0.276
        33 -11.4603     31.0503     11.1874   5.9074299745e+01   6.9534430470e+01    0.3467695    0.1961757 -30.65 0.0009441419    1.533    0.348
        34 -10.4632     34.7931      3.7948   5.3948980498e+01   7.0141163089e+01    0.3126936    0.1752934 -22.09  0.001503267    1.684    0.406
        35 -11.0637     40.6950      2.6781   5.0744114411e+01   6.9550708370e+01    0.2636772    0.1913086  46.74  0.001348871    1.878    0.468
        36 -10.9365     24.3076     13.2394   6.3141816827e+01   6.9905194409e+01    0.2665079     0.170223  11.13  0.001766122    1.622    0.384
        37 -10.1097    144.2272     11.7675   2.4173377278e+01   4.7934605100e+01    0.3781603    0.2316786 -67.48   0.00170724    2.216    0.549
        38  -9.9290    176.4295     12.2342   1.9160716780e+01   3.9609869187e+01     0.244007    0.1705657  70.65 0.0003016021    1.260    0.207
        39 -11.6635    218.3020      4.2968   1.2209081659e+01   2.9746165100e+01    0.7953486     0.480458  21.81  0.003375354    3.416    0.707
        40 -10.8980    195.0606      2.4531   1.4114161690e+01   3.5825053805e+01    0.4543055    0.2607021  74.23  0.001618212    1.515    0.340
        41 -10.9895    204.1533      3.8555   1.3504205339e+01   3.3353793760e+01    0.3485526    0.2701699  45.16   0.00111233    1.545    0.353
        42 -10.5215    200.5115      3.4749   1.3790680025e+01   3.4322538212e+01     0.271558    0.1999897 -69.78 0.0006557953    1.273    0.214
        43 -11.5897    208.6436     10.4060   1.4700583192e+01   3.1489761785e+01    0.4424767     0.297026  61.61  0.002349376    1.443    0.307
        44 -12.2531    210.9145      4.8254   1.3057973312e+01   3.1537102207e+01    0.6948034    0.3132174  68.62  0.003132152    1.934    0.483
        45 -12.2759    186.9893     13.7329   1.8158125807e+01   3.6691205718e+01    0.2822125    0.2433811 -60.74 0.0003692067    1.167    0.143
        46  -9.8391     73.0222      8.5445   4.0886934745e+01   6.3873392476e+01    0.2207755    0.1849642 -68.24 0.0007323084    1.878    0.468
        47 -10.0194     76.5079      9.4618   4.0121522033e+01   6.3142607721e+01    0.2796642    0.1774827 -22.17  0.001431318    1.582    0.368
        48 -10.4327     77.7528      5.7619   3.8092078145e+01   6.3329569176e+01     0.313252    0.2424213 -61.42  0.001839785    2.031    0.508
        49 -10.5215    135.1781      9.7975   2.5207724984e+01   5.0384308578e+01    0.3039435    0.1690443  49.95 0.0003389847    1.605    0.377
        50 -11.0348    167.8255      5.9606   1.8521026100e+01   4.2506818355e+01    0.4165258    0.3193057 -20.98  0.001218662    1.547    0.353
        51 -10.0446    115.8390      8.0231   2.8644691910e+01   5.5158629564e+01    0.1899519    0.1717554  48.32 0.0004557342    1.038    0.037
        52 -10.1823     23.9172      7.4142   6.0812090028e+01   7.0815625988e+01    0.3446026    0.1629492  11.16  0.000917576    2.947    0.661
        53 -12.2090    237.0219      4.3314   1.0561184008e+01   2.5188453554e+01    0.7972518    0.5103402 -16.72  0.004136461    2.247    0.555
        54 -11.3539     89.3335      3.2633   3.3497648568e+01   6.1352225994e+01    0.4017532    0.3234261 -87.75  0.002395384    1.823    0.452
        55  -9.8728    178.9847      5.9700   1.7008407284e+01   3.9614704956e+01    0.2444473    0.1992421 -77.62 0.0003731175    1.177    0.150
        56 -10.3559    175.8027      3.1859   1.6620783396e+01   4.0721649101e+01    0.2252027    0.2046751  -7.18 0.0005997193    1.356    0.262
        57 -11.5873      3.4743      4.0125   6.9898004375e+01   7.2977529250e+01    0.2379183    0.1885168 -20.53 0.0005341319    1.112    0.100
        58 -10.8006      7.4389      2.5388   6.7131887432e+01   7.2932729254e+01    0.2113182    0.1379506 -22.71 0.0006686114    1.239    0.193
        59 -10.4520     16.5571      2.8719   6.2462729052e+01   7.2155355926e+01     0.242248    0.2209089  73.83   0.00185758    2.060    0.514
        60 -10.3774    107.4886      2.4929   2.8454072937e+01   5.7581801066e+01    0.2181863    0.1859252  42.21  0.001107638    1.022    0.021
        61  -9.9851    103.7580      1.5926   2.8994942814e+01   5.8486338013e+01     0.256128    0.1553346  69.37  0.001185319    1.865    0.464
        62 -10.6932    229.5960      2.2832   1.0718368167e+01   2.7198358815e+01     0.216004     0.137233  58.64 0.0007171766    1.680    0.405
        63  -9.4714    120.5996      2.1594   2.5402911001e+01   5.4622722580e+01     0.289471    0.1553284  63.17 0.0005472585    1.695    0.410
        64  -9.9878    115.6788      1.1190   2.6060355935e+01   5.5858790068e+01    0.4447119   0.06138623  58.95  0.001293186    4.645    0.785
        65  -9.4574    127.2610    101.9943   5.6217678277e+01   3.6867766059e+01    0.2041776    0.1890916 -64.49 0.0002576931    1.068    0.064
        66 -11.7938      7.4325    248.9165   1.0147514728e+02   2.3458134859e+01     0.338494    0.1471145  45.61  0.002264033    1.868    0.465
        67  -9.1557    143.4960    100.4851   5.1704232831e+01   3.3552248160e+01    0.1555377    0.1503252  75.13 -7.095504e-05    1.025    0.024
        68  -9.3239     66.4699    100.4863   7.3189654393e+01   4.8072219142e+01    0.1352096     0.121518 -62.19 -1.568545e-05    1.030    0.029
        69  -9.5997    116.9845     96.6793   5.7572693784e+01   4.0191268972e+01    0.3654294    0.2069229 -58.78 0.0009252006    2.001    0.500
        70 -10.8717    101.3824     97.8410   6.2236992178e+01   4.3006845460e+01    0.3372563      0.23423  59.32   0.00159979    1.612    0.380
        71  -9.6804     86.7558     97.4000   6.6390472022e+01   4.5689058237e+01    0.2750934    0.1850085 -55.55  0.001308167    1.409    0.291
        72  -9.9496     26.9007     96.9985   8.4604721048e+01   5.3224365839e+01    0.1802547    0.1484444 -75.40 0.0003816728    1.060    0.057
        73 -10.7368    107.7979     95.9845   5.9937593587e+01   4.2189637904e+01    0.2838145    0.2115137  46.33 0.0002818036    1.363    0.267
        74  -9.2706     81.5016     94.4940   6.7255060974e+01   4.7195661379e+01    0.1396562    0.1295914 -70.30 -0.000126795    1.033    0.032
        75  -9.1491    113.1504     91.8032   5.7326774462e+01   4.2026644650e+01    0.1984136    0.1776787  -3.38 0.0004275062    1.325    0.245
        76 -11.0653     65.0723     89.2912   7.1088331149e+01   5.0783298771e+01    0.2815495    0.2143187  88.70  0.001531925    1.595    0.373
        77  -9.7437     31.6866     78.9849   7.9730099863e+01   5.6787923623e+01    0.2183555    0.1445866 -71.51 0.0006212917    1.437    0.304
        78 -12.4462     34.9343     89.4351   8.0749513443e+01   5.4198871709e+01    0.3296455    0.2345716  88.81  0.001943759    1.579    0.367
        79 -10.0963     33.9813     83.9336   7.9977569213e+01   5.5501955930e+01    0.2359903    0.2000638 -77.24 0.0007563992    1.151    0.131
        80  -9.5445    127.3284     89.8183   5.2936941677e+01   3.9438622602e+01    0.3260621    0.1330066 -51.98  0.001091021    2.773    0.639
        81 -12.3409    105.4204     80.8853   5.6486197138e+01   4.5872924669e+01    0.8009233    0.4596371 -30.57  0.001190211    2.267    0.559
        82  -9.7857    111.9869     82.5301   5.5074852024e+01   4.4215144382e+01    0.2257462    0.2049507  -2.12 0.0003466929    1.252    0.202
        83 -10.6577     54.4358     88.7047   7.4342700314e+01   5.2278186317e+01    0.2466311    0.1809573 -22.07 0.0006258977    1.725    0.420
        84 -11.5224     12.8856     88.1145   8.7512276396e+01   5.6241122917e+01    0.1966643    0.1527682 -71.15            0    1.052    0.049
        85  -9.7934    120.2726     87.7916   5.4263394426e+01   4.1390723702e+01    0.2793491     0.225218  86.50 0.0005566055    1.480    0.324
        86 -10.0476     84.1183     86.9494   6.4547392249e+01   4.8435077410e+01    0.2100626    0.1937416 -54.83 0.0004828684    1.022    0.022
        87  -9.1971     71.3784     87.1778   6.8580680238e+01   5.0362040555e+01    0.1844642    0.1218568 -64.77 0.0003854547    1.558    0.358
        88  -8.8987    131.4137     86.4471   5.0926110423e+01   3.9221576687e+01    0.1510155    0.1462654 -88.94 0.0001573747    1.012    0.012
        89  -9.3279     20.2710     84.0307   8.4479986512e+01   5.6615819118e+01    0.1901269    0.1178998  83.87  0.001053472    1.990    0.498
        90  -9.7277    187.9165     82.9973   3.7251335885e+01   2.6069487996e+01    0.2241701    0.2105048 -85.96            0    1.019    0.018
        91 -10.1107     75.3969     83.1950   6.6291432261e+01   5.0632007241e+01    0.2337952    0.1878994  48.17 0.0005920649    1.351    0.260
        92 -10.6529     79.9117     80.9851   6.4272169506e+01   5.0402877940e+01    0.2636922    0.2173858 -23.29 0.0003091391    1.357    0.263
        93 -11.1123     54.0269     81.1155   7.2718234328e+01   5.3996957450e+01    0.2635712    0.1762777 -58.57 0.0003637441    1.343    0.256
        94  -8.7041      1.3646     83.2739   9.0411171756e+01   5.7967859834e+01    0.1142166   0.06640106 -44.45 0.0007003907    1.666    0.400
        95  -9.6269    120.9104     82.4598   5.2579975376e+01   4.2353323592e+01    0.2191096    0.1465376  47.48 0.0004363205    1.491    0.329
        96  -9.9737     87.0225     80.4193   6.1888532933e+01   4.9349834063e+01    0.2734184    0.1748288 -46.52  0.000324228    1.489    0.329
        97  -9.0284    150.9430     79.0147   4.3984400952e+01   3.6086518386e+01    0.1822159     0.175801  88.16 0.0003369547    1.017    0.017
        98 -11.6687     45.7506     73.5282   7.3682181435e+01   5.6577571736e+01    0.4444211    0.2853708 -65.60  0.002460868    1.542    0.351
        99  -8.9281     23.0125     79.0454   8.2659956391e+01   5.7491525170e+01     0.145881    0.1115884 -61.74 0.0003561664    1.069    0.064
       100  -9.2226    187.1403     76.1558   3.5559461802e+01   2.7489149382e+01    0.2083669    0.1721411 -80.29 0.0002661087    1.277    0.217
       101  -9.2260     61.2468     76.3489   6.9118377948e+01   5.4113376007e+01     0.165065    0.1189402  46.17  0.000312459    1.574    0.365
       102 -10.1227    151.9166     73.2867   4.2096862126e+01   3.6922240306e+01     0.306908    0.2372837 -50.76  0.001051342    1.334    0.251
       103 -10.1709     75.4319     75.2152   6.4123615344e+01   5.2325579447e+01    0.2683196    0.1777058  29.40 0.0009472489    1.707    0.414
       104 -11.7645      8.0552     74.0287   8.6787184311e+01   5.9571340562e+01    0.2400426    0.1872761 -27.59 0.0006537304    1.437    0.304
       105 -10.5700     56.8827     72.1452   6.9492079075e+01   5.5565460815e+01    0.3531423    0.1748129 -42.43 0.0006910163    1.951    0.487
       106 -10.7586     61.2141     70.8219   6.7652043528e+01   5.5282375131e+01    0.4218694    0.2132137  33.46  0.001757959    2.184    0.542
       107 -10.4156    136.8889     71.5859   4.5195178334e+01   4.0869755548e+01    0.4488199     0.304336 -54.57  0.002020444    1.623    0.384
       108  -9.2175     83.5616     73.4237   6.0992783548e+01   5.1392807116e+01    0.2168678    0.1722371 -41.65 8.664342e-05    1.203    0.169
       109  -9.6339     81.9792     70.2685   6.0576488274e+01   5.2300119182e+01    0.1921573    0.1791296 -87.45 0.0002777863    1.204    0.170
       110  -9.4103     23.9647     72.7867   8.1089537115e+01   5.8760591066e+01    0.1541613    0.1324827 -55.40            0    1.049    0.046
       111  -8.8515    183.0134     72.2380   3.5271023673e+01   2.9232863939e+01    0.1877691    0.1260628  59.26            0    1.441    0.306
       112 -10.7488     17.3486     70.5969   8.2954430231e+01   5.9709913732e+01    0.2335908    0.1688913 -60.57 0.0007312309    1.115    0.103
       113  -9.6690    142.8443     70.8779   4.3520954460e+01   3.9581482532e+01    0.2216774    0.2082668  12.04 0.0004067515    1.180    0.153
       114 -11.9867     51.3000     69.9502   7.0845074552e+01   5.6705179346e+01    0.3109275    0.2222163 -64.25 0.0004798047    1.413    0.292
       115 -10.9572     30.6841     71.0398   7.8361028045e+01   5.8578561375e+01    0.1801546    0.1729954  -1.91 0.0002730404    1.209    0.173
       116 -10.5587     74.0278     67.4805   6.2362678040e+01   5.4133145896e+01    0.2454691    0.1834548 -49.15 0.0003142682    1.263    0.208
       117 -10.8199     56.1696     67.4724   6.8475378379e+01   5.6628145089e+01    0.2249599    0.1866671 -45.10 0.0002631571    1.071    0.067
       118 -10.0698     35.0869     67.7139   7.6023459447e+01   5.8882126132e+01     0.255708     0.181639  62.26 0.0009397691    1.925    0.480
       119  -9.7734     85.0822     67.2439   5.8668445232e+01   5.2385514867e+01    0.1968876    0.1788299  81.08 0.0004506686    1.287    0.223
       120 -10.3076    194.8305     65.7023   3.1340700950e+01   2.7307408580e+01    0.2621962    0.2071211 -45.75 0.0002852229    1.262    0.207
       121 -10.7488    180.9502     64.0818   3.3390832653e+01   3.1160966849e+01    0.3198969    0.2663784 -37.98 0.0007688388    1.261    0.207
       122  -9.7187    177.2642     63.9811   3.4060845567e+01   3.2131188411e+01    0.2170004    0.2024418  43.83 0.0002292832    1.157    0.136
       123 -11.3731    111.1237     65.8103   5.0305706921e+01   4.7705510568e+01    0.2409831    0.2334128 -37.44 0.0002326855    1.034    0.033
       124 -10.1205     89.3812     65.6468   5.6806077877e+01   5.1950082935e+01    0.2744895     0.217388  80.09 0.0007218115    1.726    0.421
       125  -9.5027      9.4753     66.1270   8.4863917260e+01   6.1148986853e+01    0.1706352   0.09019396 -64.16 0.0005493992    1.497    0.332
       126 -10.0815      2.4410     64.7881   8.7117317630e+01   6.1808135366e+01    0.2714462    0.1623709  79.32 0.0007538719    2.244    0.554
       127 -10.4118    161.3952     64.0118   3.7270766173e+01   3.6201443937e+01    0.4366703    0.1349439 -40.06  0.001360975    3.198    0.687
       128 -10.2171    153.0173     65.0257   3.9399080679e+01   3.8137751370e+01    0.2214134    0.2132568  63.01            0    1.035    0.034
       129  -8.8823    122.0464     66.0000   4.7333682505e+01   4.5315067286e+01     0.246668   0.08301334  49.70 0.0008000014    2.926    0.658
       130  -8.9155     26.2773     65.6436   7.8713188993e+01   6.0081937565e+01    0.1141178   0.08638188  86.50  0.000700917    1.655    0.396
       131  -9.4980     62.3843     63.8225   6.5262358113e+01   5.6558742944e+01    0.3384129    0.1510645 -58.61  0.001005783    2.590    0.614
       132 -10.5169     57.8500     58.0717   6.5156336354e+01   5.8306395204e+01      0.40105    0.2638156  59.06  0.002043233    2.297    0.565
       133  -9.5749     61.5110     57.4533   6.3652019051e+01   5.7938514894e+01    0.2209548     0.187419 -42.05 0.0004941076    1.082    0.076
       134 -10.7617     81.3579     61.3055   5.8037542117e+01   5.4177665017e+01    0.4034933    0.2022551 -36.31  0.001424097    2.119    0.528
       135  -9.5948     44.4052     63.2007   7.1505614252e+01   5.8878945580e+01    0.1775737    0.1101486 -65.32 0.0009477747    1.729    0.422
       136  -9.6021    147.0082     61.7414   3.9770097196e+01   4.0203333802e+01    0.2222784     0.200892  26.90 0.0003240633    1.213    0.175
       137 -12.4832    150.7612     57.4794   3.7612154075e+01   3.9996962852e+01    0.3581042    0.2993429 -63.98 0.0005614334    1.286    0.223
       138  -8.9228     21.9918     60.9588   7.9207442922e+01   6.1384595003e+01    0.1362953    0.1115975 -50.46 0.0009496323    1.010    0.010
       139 -10.1508    218.6712     59.2197   2.5882527754e+01   2.2304972183e+01    0.2416679    0.1861301  85.54 0.0006569433    1.303    0.233
       140  -9.4010    197.3078     57.7129   2.8765920028e+01   2.7966232162e+01    0.1984686    0.1742104  36.02 0.0001603044    1.335    0.251
       141 -10.7111    200.7421     55.4177   2.7596244189e+01   2.7442156133e+01    0.2824563    0.2576678 -89.19 0.0007993652    1.012    0.012
       142  -9.3703    185.1221     57.8918   3.0892625596e+01   3.1096447980e+01    0.2154661    0.1883053 -78.73 0.0002648074    1.124    0.111
       143 -10.6618    160.7719     57.1483   3.5358921321e+01   3.7518174621e+01    0.3792089    0.2981668 -68.29  0.001346634    1.410    0.291
       144  -9.0845    105.6039     57.1426   4.9114960371e+01   5.0442818324e+01    0.1915154    0.1328711 -26.45 0.0003857118    1.599    0.375
       145  -9.5143     95.2158     57.5953   5.2400219429e+01   5.2405637986e+01     0.194121    0.1287175  32.30 0.0004751054    1.637    0.389
       146  -9.7430      8.0522     56.7568   8.3505445439e+01   6.3155642181e+01     0.171131    0.1274966 -52.11            0    1.058    0.055
       147 -11.3760     11.1433     52.1963   8.1312361263e+01   6.3892207885e+01    0.3425876    0.2581224 -11.86  0.002446116    1.489    0.329
       148 -10.9758     18.7307     49.2744   7.7601776149e+01   6.3970726536e+01    0.3521757    0.2696532  21.61  0.002076753    1.542    0.352
       149  -9.4544     26.8326     56.3434   7.6256349953e+01   6.1941835996e+01    0.1542583    0.1155521  20.12 0.0004190641    1.552    0.356
       150 -11.8556     30.5086     53.4999   7.4092087798e+01   6.2195966118e+01    0.3667823    0.2598902 -83.69   0.00216337    1.973    0.493
       151 -10.8588     19.8353     55.5181   7.8732357789e+01   6.2649379742e+01     0.206489    0.1556506 -55.40 0.0003633033    1.105    0.095
       152  -9.7974     68.7079     53.8373   5.9947370249e+01   5.7601519191e+01    0.2691513    0.1387042 -42.44  0.001132098    1.805    0.446
       153 -10.3881    127.9264     52.7388   4.1542569679e+01   4.6317913027e+01    0.3187437    0.2072019 -44.72 0.0009377627    1.617    0.381
       154  -9.6841    178.9580     53.0954   3.0637377497e+01   3.3465032792e+01    0.2723089    0.2078625 -36.33  0.001237996    1.382    0.277
       155  -9.8074    173.1515     51.1675   3.1144844363e+01   3.5280019142e+01     0.475923    0.2521679 -63.31   0.00169898    2.809    0.644
       156 -11.9612    122.4596     49.9001   4.2016013219e+01   4.8045141689e+01    0.4192689    0.2543412 -44.76  0.001793381    1.749    0.428
       157  -9.5832     44.5069     53.1970   6.8628511921e+01   6.0865943355e+01    0.1861413    0.1066612 -50.27  0.001011154    1.527    0.345
       158 -11.8533      2.0246     51.1867   8.4642510285e+01   6.4589749935e+01    0.2455642    0.1257868 -54.86 0.0003922859    1.442    0.306
       159  -8.9473    109.2619     57.6214   4.8209796634e+01   4.9601282836e+01    0.1438745    0.1117031 -70.96 0.0006980118    1.672    0.402
       160  -9.9490    117.6927     51.3530   4.3772930638e+01   4.8873514074e+01    0.2620418    0.1620932  48.30 0.0005267286    1.563    0.360
       161  -9.5734    113.0086     51.5009   4.5111726917e+01   4.9872466039e+01    0.2091913    0.1383567  51.54 0.0004347265    1.502    0.334
       162  -9.5549     35.1802     50.8419   7.1528816733e+01   6.2287358992e+01    0.1649223    0.1445976 -46.55 0.0004073688    1.099    0.090
       163 -10.2022    211.8669     49.6050   2.4397217230e+01   2.5484911034e+01       0.3232    0.2039898  82.76  0.001466933    1.710    0.415
       164 -10.1529    201.4699     49.8996   2.6006085371e+01   2.8102174924e+01    0.3013088    0.2081156  66.79  0.001157875    1.380    0.275
       165  -9.8705    103.9188     49.2403   4.6950173879e+01   5.2165704021e+01    0.2383345    0.1920314 -61.24 0.0006824102    1.493    0.330
       166 -10.3699     53.4171     49.1440   6.3991375586e+01   6.0588370429e+01    0.2238431     0.194572  62.78 0.0008684142    1.527    0.345
       167 -10.5862    233.2903     48.2953   2.1242471416e+01   2.0370642886e+01    0.2686021    0.2131904 -68.03 0.0003866236    1.159    0.137
       168  -9.7529    194.1405     48.5223   2.6775245598e+01   3.0209123650e+01    0.2872973     0.213666 -69.84 0.0008352751    1.408    0.290
       169  -9.7629     84.8692     48.8975   5.2769517440e+01   5.5862377793e+01    0.2112328    0.1761098   0.57 0.0008188514    1.269    0.212
       170  -9.2556     45.2214     48.9964   6.7070599503e+01   6.1594462960e+01    0.1675951   0.08888266 -49.81 0.0008730572    1.669    0.401
       171 -10.3131     26.7635     48.0641   7.4064033880e+01   6.3584035853e+01     0.226413    0.1620406 -37.13 0.0006178034    1.207    0.172
       172 -11.7543    138.2735     47.5950   3.7335263799e+01   4.4688865855e+01    0.2892565     0.260608 -84.51  0.000325868    1.193    0.162
       173 -10.1714    134.3559     43.7547   3.6996815680e+01   4.6233052240e+01    0.2508306    0.2302575  49.94 0.0006676541    1.035    0.033
       174  -9.1154     63.5318     47.5373   5.9705790019e+01   5.9523448173e+01    0.1288002    0.1126537 -20.04 0.0002908106    1.046    0.044
       175  -9.3654     33.9026     46.6429   7.0794714262e+01   6.3219020619e+01    0.1560441    0.1346094 -28.04 0.0003765356    1.070    0.065
       176  -8.9199     67.0000     45.9720   5.7911731944e+01   5.9297748720e+01    0.2145488   0.06817251 -44.88 0.0008046396    2.958    0.662
       177 -10.2511     38.6127     45.5941   6.8595035531e+01   6.2950906759e+01    0.2710477    0.1713556 -57.08   0.00102474    1.588    0.370
       178 -12.2218    163.4292     42.6440   3.0435491502e+01   3.9098343203e+01    0.3533371     0.278979 -77.24  0.001773599    1.389    0.280
       179  -9.9230     89.0810     38.2699   4.7597403056e+01   5.6869901370e+01    0.2073457    0.1842236 -29.43 0.0002700433    1.132    0.117
       180 -12.2207     91.0920     43.8842   4.8994631211e+01   5.5582539366e+01    0.3578355    0.2796022  36.64 0.0004169626    1.266    0.210
       181  -9.5240     97.4365     41.4974   4.6167428463e+01   5.4745667537e+01    0.2198336     0.166243  35.73 0.0006046637    1.302    0.232
       182 -10.1493    108.1096     43.7998   4.3845766499e+01   5.2188312144e+01    0.4391518    0.2033377  60.82  0.001622023    2.958    0.662
       183  -8.7844     78.6817     44.3089   5.3229429003e+01   5.7727974021e+01    0.1244133    0.1066954 -84.84 0.0004113235    1.638    0.389
       184 -11.7212    249.6966     39.2861   1.7288192093e+01   1.7791142059e+01    0.5087927    0.2701927 -33.35  0.002424281    1.896    0.472
       185 -11.8107    239.6462     40.5422   1.8656945157e+01   1.9960186662e+01     0.371116    0.3022894  48.12  0.002107886    1.497    0.332
       186  -8.9713     18.4909     42.4824   7.5870481491e+01   6.5302601308e+01    0.1135122   0.09185624 -43.41 3.008556e-05    1.026    0.026
       187 -11.5328    229.9532     38.9676   1.9390269623e+01   2.2513340336e+01     0.455051    0.2815446 -82.33   0.00115704    1.761    0.432
       188  -9.5161    218.1093     41.3357   2.1435487504e+01   2.5114679699e+01    0.2018736    0.1670401  84.90 0.0003970812    1.118    0.106
       189  -9.5746    209.4142     40.7664   2.2444541690e+01   2.7400202124e+01    0.1920884     0.143448 -20.19 0.0009529719    1.667    0.400
       190 -10.1988     28.0871     40.1571   7.1183778813e+01   6.4972251041e+01    0.3412222    0.1364158 -52.99 0.0008185024    2.121    0.528
       191 -12.4613    140.3503     37.8545   3.3667163332e+01   4.5646149515e+01    0.3364106    0.3201943  79.51  0.000347639    1.061    0.058
       192 -10.4502    113.6845     39.6205   4.0824754478e+01   5.1635508011e+01    0.3612641    0.2367221  24.84  0.001422679    1.892    0.471
       193 -10.4181    115.4275     35.4932   3.8892756174e+01   5.1862090171e+01    0.3765606    0.2242094 -42.73  0.001769545    1.821    0.451
       194 -11.6571     84.4917     38.6109   4.9213355604e+01   5.7659162992e+01    0.3533623    0.2491397 -55.76  0.001853007    1.825    0.452
       195  -9.8557     75.4947     40.0155   5.2776651410e+01   5.8986314000e+01    0.1872993     0.165259  22.92 0.0003092213    1.125    0.111
       196 -10.9936     33.4874     37.8194   6.8180792561e+01   6.4901099999e+01    0.2756829    0.2411363 -72.78  0.001931673    1.495    0.331
       197  -9.6060    131.7059     39.2934   3.6132195774e+01   4.7538339324e+01     0.299108    0.1885329  75.27 0.0006368526    2.045    0.511
       198 -10.2820    126.5195     37.4759   3.6763924070e+01   4.9033191575e+01    0.4323461    0.3136179  60.73  0.002197342    1.367    0.268
       199  -9.7744    126.8534     34.1461   3.5531254152e+01   4.9430700249e+01    0.2029691    0.1965049  54.39  0.001197263    1.045    0.043
       200 -10.9383    123.9763     30.6445   3.5001959932e+01   5.0589091986e+01    0.2677417    0.2357486  64.19 0.0003680571    1.142    0.124
       201 -10.6872     55.0200     38.3879   5.9704352617e+01   6.2321744407e+01    0.3400367    0.2731357  24.21  0.001437395    1.295    0.228
       202 -10.7106     54.0777     33.3421   5.8217791929e+01   6.3303811349e+01    0.2704676    0.1647434 -43.23 0.0003635529    1.554    0.356
       203 -10.0474    194.7074     37.5382   2.3673600933e+01   3.1656259866e+01    0.2795516    0.2084627 -58.01  0.000705852    1.338    0.253
       204  -9.4946      2.7087     37.1617   8.1115375854e+01   6.7278858117e+01    0.1948937   0.07763823 -42.37  0.001078388    1.992    0.498
       205 -10.7679    154.8162     34.7584   2.9651870730e+01   4.2440299145e+01    0.3648023    0.2897159  38.45  0.001054985    1.344    0.256
       206 -10.6586     61.2192     34.6788   5.5969756547e+01   6.2087646297e+01    0.3495428    0.2634881 -83.07 0.0009471136    2.631    0.620
       207 -11.9561    245.5280     31.9618   1.6050227755e+01   1.9753164607e+01    0.4462619    0.3597061  47.13 0.0007896052    1.577    0.366
       208 -11.9288    246.8559    247.9802   6.0234821037e+01  -1.1947388701e+01    0.5415494    0.2615046  29.87  0.003163405    1.734    0.423
       209  -9.2755    107.2374    246.9573   8.4742697532e+01   1.0628851945e+01    0.1328322   0.09485124 -76.25 0.0005869165    1.598    0.374
       210  -9.2400     56.8252    101.5961   7.6338423842e+01   4.9078375876e+01    0.1663507    0.1200061  49.79 0.0004875447    1.520    0.342
       211 -11.0479     68.8872    217.4144   8.9050027239e+01   2.1731312995e+01    0.3568457    0.1912099  80.56 0.0004424816    1.928    0.481
       212  -9.9791     74.0055    221.2456   8.8428082062e+01   2.0261809203e+01    0.2455253    0.1878879 -56.25  0.001595861    1.789    0.441
       213 -10.6402     78.6775    218.6947   8.7305740767e+01   2.0066434955e+01    0.3046819    0.2192771  29.38   0.00113062    1.963    0.491
       214  -9.4869     73.7680     35.4332   5.1677032452e+01   6.0020255073e+01    0.1752817    0.1156328  27.18 0.0006804779    1.596    0.374
       215 -10.9388    170.0046     32.3488   2.6123981369e+01   3.8834386536e+01    0.4899565    0.2911821 -26.74  0.001073788    1.928    0.481
       216  -9.5616    149.0740     33.4196   3.0366534725e+01   4.4085456447e+01    0.2009271    0.1640578  62.83   0.00106121    1.134    0.118
       217  -9.1969     68.1972     33.1359   5.2796022274e+01   6.1284178782e+01    0.1548118    0.1475608 -44.07 0.0004263891    1.267    0.211
       218  -9.8334     31.7809     32.9261   6.7246290421e+01   6.5940919517e+01    0.1759336    0.1282379 -30.64 0.0003519686    1.164    0.141
       219 -12.0803    132.2868     29.6238   3.2696266913e+01   4.8751956026e+01    0.3553425     0.313918 -45.43 0.0001537872    1.227    0.185
       220  -9.5844     56.0064    216.8565   9.1423831233e+01   2.3606112730e+01    0.1831021    0.1286287  88.09 0.0007646944    1.233    0.189
       221 -10.1111    217.0024     30.5287   1.8845096021e+01   2.6881990949e+01    0.2768938    0.1679441 -52.75 0.0008805585    1.586    0.369
       222 -10.4158     27.9030     28.0893   6.7232804463e+01   6.7148451987e+01    0.4941288    0.2372411 -14.10  0.002131594    3.734    0.732
       223  -8.8340    201.2970     29.6782   2.0617091224e+01   3.1010660023e+01     0.151586   0.09869556 -67.61 0.0002175989    1.620    0.383
       224  -9.9276     47.3135     28.8450   5.9221520055e+01   6.4918313587e+01     0.172667    0.1516583  17.38 0.0005487871    1.219    0.179
       225 -10.2834     82.2456     27.4599   4.5696145460e+01   5.9763255552e+01    0.2723923    0.2439929   7.13  0.001283073    1.004    0.004
       226 -10.9025     35.0037     25.8892   6.3297512907e+01   6.6818721277e+01    0.4095722    0.2128546 -46.71  0.001642702    1.763    0.433
       227  -9.2261     73.5054     26.4877   4.8289555220e+01   6.1435490329e+01     0.197253    0.1113646  31.86 0.0009943178    1.840    0.457
       228  -8.9336     70.6693     26.6925   4.9377842041e+01   6.1877319480e+01    0.1818078    0.1189329  23.37 0.0009898396    1.625    0.385
       229 -10.8496    179.6962     22.3160   2.1614356541e+01   3.7583569176e+01    0.7487015    0.3452334 -70.33  0.002352109    4.107    0.756
       230  -9.8500    177.9655     19.0410   2.0920387328e+01   3.8430729273e+01    0.2142694    0.1872008 -89.33            0    1.057    0.054
       231  -9.9453     22.9902     23.7091   6.7860856513e+01   6.8332477744e+01    0.2272696    0.1418912 -53.95  0.001432751    1.645    0.392
       232 -10.1328     99.5672     23.4364   3.8773736428e+01   5.6939695957e+01    0.2517345    0.2154358  28.29 0.0007847933    1.083    0.077
       233 -10.0785     73.6342    214.4468   8.7870273850e+01   2.1629172795e+01    0.2484916    0.1593294  67.74  0.001062155    1.299    0.230
       234  -9.3089    123.8616    206.0194   7.6883014496e+01   1.5141129202e+01    0.1676086    0.1417658  62.66  0.001026388    1.035    0.034
       235  -9.7120     50.9783     22.6932   5.5280519515e+01   6.5414944949e+01    0.2062824    0.1428836 -22.57 0.0006688209    1.331    0.249
       236  -9.6096    212.0371     22.1429   1.7308421507e+01   2.9223176896e+01    0.2110958    0.1721251  57.98 0.0005489566    1.313    0.238
       237  -9.5852    165.0703     22.1751   2.3871425371e+01   4.1419389357e+01    0.2193839    0.1823203  49.38 0.0007303727    1.211    0.174
       238 -10.4446     67.1552     21.6091   4.8578054989e+01   6.3184164100e+01    0.2979623    0.1806776  23.24  0.001503432    1.813    0.448
       239 -10.3517      7.6574     21.2869   7.4207906011e+01   6.9881346677e+01    0.2874374    0.2111036 -12.24   0.00211619    1.326    0.246
       240  -9.7430      1.3728     21.5716   7.7313802609e+01   7.0190442546e+01    0.1807143    0.0865401 -60.88  0.001067723    1.954    0.488
       241  -9.7440    188.3087     20.6990   1.9925242472e+01   3.5528496585e+01    0.2094523    0.1796545 -71.95  0.000448753    1.119    0.107
       242 -11.2946    192.9103     18.2409   1.8631634841e+01   3.4625386405e+01     0.395999    0.2918748  60.57  0.002113021    1.299    0.230
       243 -11.1954    151.5608     18.9971   2.5216138619e+01   4.5276060927e+01    0.4323822    0.2787931  74.05  0.001502532    1.538    0.350
       244  -9.5825     27.0638     20.3471   6.4718958708e+01   6.8520774133e+01    0.2042185   0.09851001  16.10  0.001082211    2.528    0.604
       245  -8.7482    223.2369    188.2656   5.4280757706e+01  -4.9745576488e-01    0.1224474   0.09296998   8.39 0.0006739924    1.420    0.296
       246  -9.6106    100.9873    176.0442   7.7584099665e+01   2.5293067187e+01     0.192501    0.1643004  73.04  0.001130841    1.006    0.006
       247 -10.9685      4.6316    163.0073   9.7477916682e+01   4.0373737634e+01    0.1772193    0.1395532  65.79 0.0003198678    1.222    0.181
       248  -9.4053     86.9995     15.7467   3.9436133302e+01   6.0428995418e+01    0.1745343    0.1715395 -54.52 0.0002756962    1.267    0.210
       249 -10.4652     81.4998     16.4510   4.1469274450e+01   6.1383626985e+01    0.2336797    0.2240546  47.56  0.001175062    1.254    0.203
       250  -9.9065      5.7396    159.6489   9.7006582541e+01   4.1000953044e+01    0.1746494     0.127663 -77.47 0.0005506432    1.214    0.176
       251 -10.2099      4.0024    152.2917   9.6838752462e+01   4.2724584703e+01    0.2206596    0.1246163  89.99 0.0006624704    1.398    0.285
       252 -10.3245     38.4098     16.8251   5.8163510654e+01   6.7875173698e+01    0.3424576    0.1764709  16.88 0.0009216795    2.416    0.586
       253  -9.1389     29.5406    150.4911   9.0889877574e+01   4.0851925685e+01    0.1235658   0.09599402  87.55 3.651785e-05    1.025    0.024
       254  -9.8504      5.5923    148.0116   9.6155618276e+01   4.3529010431e+01    0.1761894    0.1283346  65.71 0.0004660153    1.266    0.210
       255 -10.2271     29.6152    146.4035   9.0442153135e+01   4.1764837426e+01    0.2676313    0.1581615  57.55 0.0008125954    1.652    0.395
       256 -10.6919     11.4855    145.0020   9.4562677976e+01   4.3717865434e+01    0.2256401    0.1518411  44.91   0.00150258    1.588    0.370
       257 -10.5315      3.2886    142.6179   9.6244575859e+01   4.4878943620e+01    0.2599226    0.1956341  29.22  0.001864864    1.720    0.419
       258 -10.2415     17.0686    141.0386   9.2885078881e+01   4.4129221417e+01    0.2129636    0.1479421  61.75  0.001134548    1.383    0.277
       259  -9.9893     71.8832    138.1611   7.8758081660e+01   3.8548838986e+01    0.2032253    0.1600585  78.68 0.0002941035    1.214    0.176
       260 -10.4930     29.5626    137.9856   8.9520367040e+01   4.3676810983e+01     0.191941    0.1650284  63.19  0.000143576    1.222    0.181
       261 -10.9012     12.7429    135.0936   9.3345610202e+01   4.5811572832e+01    0.1923102    0.1564274 -84.14  0.000220473    1.078    0.073
       262  -9.8196    184.8122    134.1023   5.0600875827e+01   1.7005862314e+01    0.2184287    0.1999879 -85.09 0.0002684016    1.153    0.133
       263  -9.8983     10.1534     15.3305   7.0885245293e+01   7.0724523321e+01    0.1853052    0.1133864 -39.56 0.0008836048    1.263    0.208
       264  -9.9761     29.8739    133.8328   8.8954757164e+01   4.4591839347e+01    0.1654601    0.1386675  89.97            0    1.057    0.054
       265 -10.9666     26.7743    130.5225   8.9348152544e+01   4.5637295643e+01    0.3094495    0.2406206 -28.59  0.001666131    1.814    0.449
       266 -10.2880    155.9694     14.7486   2.3080785760e+01   4.4631884885e+01    0.2047448    0.1660517  65.23 0.0003343993    1.095    0.087
       267  -9.7298      4.4848    131.3492   9.4997368869e+01   4.7261556946e+01    0.1736303    0.1071422  60.97 0.0004359579    1.602    0.376
       268  -9.8534     48.9499    126.8885   8.3029471537e+01   4.4170873326e+01    0.1924924    0.1598491 -86.72  0.000281801    1.052    0.049
       269 -10.6345     98.7172    125.7555   6.9384987178e+01   3.7131713072e+01     0.255262     0.222213  69.57 0.0005639953    1.116    0.104
       270 -10.7867     17.0388    133.1178   9.2091682588e+01   4.5903419670e+01    0.4281785    0.1926838  72.24  0.001996512    2.704    0.630
       271 -11.0564     23.5055    124.8450   8.9510567811e+01   4.7219400797e+01    0.3436466    0.1744608 -88.48  0.001746771    1.991    0.498
       272  -9.8215    230.1922    124.8876   3.9885823778e+01   8.5362063241e+00    0.2226274    0.1963228 -69.97  0.001231137    1.261    0.207
       273  -9.9205     59.0384    125.0309   8.0003078136e+01   4.3371629317e+01    0.1912356    0.1657992 -82.85  0.001178268    1.008    0.007
       274  -9.7439     15.6358    122.3011   9.1268422186e+01   4.8443849327e+01    0.1232938   0.07404605  69.17 0.0007035112    1.728    0.421
       275 -10.1456    250.3729    120.2313   3.5581150584e+01   5.0959589394e+00     0.204485    0.1161877 -43.97  0.000955202    1.685    0.406
       276 -11.3574     41.5911    119.4563   8.3903175234e+01   4.6710440609e+01    0.2304658    0.1923346 -78.44 0.0002123071    1.005    0.005
       277  -8.8711     24.2694    119.3267   8.8617144043e+01   4.8404901099e+01    0.1199159   0.07716464 -51.25 0.0002101717    1.576    0.366
       278 -10.1311     20.8419    118.4379   8.9427457564e+01   4.8895559530e+01    0.2036305    0.1346474 -73.93 0.0002135768    1.217    0.178
       279 -11.2435     14.7966    116.2508   9.0786221316e+01   4.9865214015e+01    0.3686461    0.2307377 -32.74  0.001618591    2.214    0.548
       280  -9.4340     98.5646    117.4830   6.7667213899e+01   3.9071729110e+01    0.1459147    0.1345928 -83.11 0.0001046926    1.010    0.010
       281 -11.0973     46.8200    116.3851   8.1959091229e+01   4.6849966656e+01    0.2326624    0.1822246 -65.39 0.0001968806    1.123    0.109
       282  -9.4622     30.4943    117.5413   8.6682328354e+01   4.8253741969e+01    0.1238928     0.101557 -79.45 3.284442e-05    1.009    0.009
       283 -10.5394     84.2562    113.2094   7.0722820587e+01   4.2491210940e+01    0.2615103    0.2092361 -85.81 0.0002432998    1.300    0.231
       284 -10.4980     62.8232    110.5693   7.6336053868e+01   4.6245701217e+01    0.4893735    0.1536873 -57.14  0.000952672    2.719    0.632
       285 -10.8938      5.4786    109.4082   9.2514058786e+01   5.2036977392e+01    0.2168751    0.1667146 -53.01 0.0001524568    1.336    0.251
       286  -9.3383     98.7392    113.4751   6.6728315664e+01   3.9961744214e+01    0.1787355    0.1440839  29.81 0.0003152437    1.441    0.306
       287 -10.1030     71.6419    112.9133   7.4254536014e+01   4.4483803541e+01    0.1942172    0.1574085 -69.23 0.0003510148    1.127    0.113
       288 -11.0737      9.5419    112.5427   9.1768469403e+01   5.1072536827e+01    0.2685923    0.1804964 -72.81  0.001075771    1.164    0.141
       289  -9.9105     50.3149    111.9789   8.0216621931e+01   4.7470624329e+01    0.1914276    0.1805892  84.20 0.0003974895    1.127    0.113
       290  -9.9968     90.4714     10.5034   3.6217652881e+01   6.0358724498e+01    0.3038623    0.1181612  54.01  0.001152715    2.473    0.596
       291 -10.7416     36.6161    109.7668   8.3796291727e+01   4.9446295205e+01    0.3815995    0.2814431 -87.12  0.002333327    1.290    0.225
       292 -10.0570     21.1393    110.4422   8.8303571415e+01   5.0675943884e+01    0.2491177    0.1351537  89.50   0.00130305    1.955    0.488
       293  -9.8515     28.5448    109.5320   8.6076669523e+01   5.0254955093e+01    0.2137414     0.178434 -74.87 0.0006769283    1.022    0.021
       294 -11.9722    120.7620    107.8564   5.9416228707e+01   3.6960848779e+01    0.4547117    0.2535372  43.06 0.0008247023    1.825    0.452
       295 -11.6739     45.6877    103.1854   8.0000155284e+01   5.0011324018e+01    0.5572695    0.2038509 -65.27  0.002300531    2.482    0.597
       296 -11.9412     81.1169    103.2105   6.9425808804e+01   4.5289275058e+01    0.3248368    0.2524643 -80.61            0    1.384    0.278
       297 -10.4465     21.1981    104.7364   8.7490417851e+01   5.1954828083e+01    0.2054229    0.1373172 -82.37 0.0007687105    1.337    0.252
       298 -10.3109     16.8845    104.3467   8.8681211589e+01   5.2373321888e+01    0.2163554    0.1358582 -66.53 0.0004990899    1.269    0.212
       299 -10.1136      9.0713    104.5814   9.0941689976e+01   5.2869575627e+01    0.2442542    0.1333802 -64.74  0.001010584    1.431    0.301
       300 -10.7533    249.4152    104.2045   3.2151827787e+01   7.8957647115e+00    0.2119001    0.1165354 -45.70  0.000962291    1.727    0.421
       301  -9.6402    114.2231    104.2309   6.0268228187e+01   3.9099688743e+01    0.2067931    0.1716919  82.54 0.0003882617    1.325    0.245
       302 -10.1237      2.2753    113.4876   9.3818854032e+01   5.1341041561e+01    0.2369861    0.1830695  66.40  0.001710789    1.332    0.249
       303  -8.9816    131.4528    103.5672   5.5537392916e+01   3.5614426261e+01    0.1544681    0.1453909  83.74 0.0002345005    1.032    0.031
       304 -10.0589    106.7481    103.2061   6.2070243680e+01   4.0797775713e+01    0.3059696    0.2000381  38.74 0.0007956421    1.629    0.386
