#   1 NUMBER                 Running object number                                     
#   2 MAG_AUTO               Kron-like elliptical aperture magnitude                    [mag]
#   3 X_IMAGE                Object position along x                                    [pixel]
#   4 Y_IMAGE                Object position along y                                    [pixel]
#   5 X_WORLD                Barycenter position along world x axis                     [deg]
#   6 Y_WORLD                Barycenter position along world y axis                     [deg]
#   7 A_WORLD                Profile RMS along major axis (world units)                 [deg]
#   8 B_WORLD                Profile RMS along minor axis (world units)                 [deg]
#   9 THETA_WORLD            Position angle (CCW/world-x)                               [deg]
#  10 FWHM_WORLD             FWHM assuming a gaussian core                              [deg]
#  11 ELONGATION             A_IMAGE/B_IMAGE                                           
#  12 ELLIPTICITY            1 - B_IMAGE/A_IMAGE                                       
         1 -11.1443     85.0174     21.2590   9.2585586034e+01   6.0776198203e+01    0.4842436     0.264695   0.58  0.001955422    2.975    0.664
         2 -11.2401     26.1172     13.5724   1.1310626781e+02   7.0562202038e+01    0.2169917    0.1483062 -29.02 0.0003612232    1.163    0.140
         3 -11.5586     25.7739     19.7607   1.1601632604e+02   6.9577329613e+01     0.668336    0.2818089 -24.18  0.002788557    3.603    0.722
         4 -11.4427     67.1879     21.1990   9.8773618239e+01   6.3974166009e+01    0.3291623    0.2401642   9.97  0.001830778    1.386    0.278
         5 -10.1490    104.1103     18.7346   8.5829460153e+01   5.7155724119e+01    0.3796377    0.1860539  -9.96  0.001345155    2.858    0.650
         6 -10.9184    217.3664     16.2101   6.5639884934e+01   2.8675240416e+01    0.4898514    0.2030409  56.24  0.001782514    2.379    0.580
         7 -10.7821     19.8311     18.9489   1.1859189469e+02   7.0243359914e+01    0.2090525    0.1747847   3.41  0.000471278    1.296    0.228
         8 -10.8609    130.7186     15.0231   7.8008852674e+01   5.1346339237e+01    0.3102101    0.2532809 -48.04  0.001204218    1.385    0.278
         9 -11.1987    133.4162     11.7315   7.6211886320e+01   5.1017426689e+01    0.2889453    0.2304973  19.51 0.0008204958    1.319    0.242
        10 -10.3700     99.6982     13.4286   8.4759018123e+01   5.8726842408e+01    0.3219068    0.1936594 -38.20  0.001605052    1.840    0.457
        11 -10.1553    119.0162     11.0330   7.8963224004e+01   5.4594054113e+01    0.2202913    0.1659733 -67.89  0.001139508    1.770    0.435
        12  -9.3557    121.6973      8.7157   7.7444935208e+01   5.4183644393e+01     0.212943    0.1293381  -4.14 0.0005325679    1.929    0.482
        13 -11.8933     80.8916      6.9022   8.7313319633e+01   6.3298546704e+01    0.4621798    0.2781306  10.49 0.0006036548    1.903    0.474
        14  -8.8634    172.3114      9.2776   6.8962221826e+01   4.1188670100e+01    0.1447256   0.09796649  42.10 0.0002437526    1.561    0.359
        15  -9.8599      8.7869      8.3105   1.1979462862e+02   7.2887678167e+01    0.2134459    0.1251791   0.02  0.001223601    1.875    0.467
        16 -11.2816     75.2466      4.8831   8.8161129044e+01   6.4592080909e+01    0.3093615    0.1968056 -11.63 0.0008308319    1.544    0.353
        17 -10.3920    127.2201      5.3699   7.4987082791e+01   5.3157119387e+01    0.2328964    0.1547491 -45.70 0.0008928531    1.764    0.433
        18 -10.0448     91.8123      4.6333   8.3002484977e+01   6.1323814930e+01    0.3161494    0.1461345 -30.94   0.00146774    2.208    0.547
        19  -9.6584     60.1208      5.2433   9.3750430449e+01   6.7216901658e+01     0.326875   0.09041959  45.03  0.001286565    3.474    0.712
        20 -11.7856     26.8293      3.2515   1.0763766597e+02   7.2044314437e+01    0.3625449    0.2404961  16.36  0.001489523    1.510    0.338
        21  -9.6742    117.5285      4.4344   7.6607701911e+01   5.5579371733e+01    0.1373978     0.118522  38.51 -6.996216e-05    1.036    0.035
        22  -9.4471      5.6696      1.3094   1.1828933879e+02   7.4235018918e+01   0.08824726   0.08335847 -62.62 0.0007041166    1.666    0.400
        23  -9.7352     53.6662    234.7021   1.4448552397e+02   2.1693101328e+01   0.08727523   0.08452508  63.55 0.0004925507    1.648    0.393
        24 -11.0116    247.5108    250.0254   1.1281749664e+02  -9.8303040370e+00    0.4415137    0.1401315  36.01  0.002184916    2.463    0.594
        25 -10.2196    243.0175    247.4973   1.1315951973e+02  -8.9478579515e+00    0.1605471    0.1396058   3.18 0.0005606958    1.337    0.252
        26 -10.5618    250.3797    244.0893   1.1146706718e+02  -9.6701702764e+00    0.2803145    0.1512057 -23.73  0.001783475    2.035    0.509
        27 -12.5456    226.7586    246.5189   1.1566293192e+02  -6.4537654914e+00    0.6354566    0.4153511  26.67  0.004328034    1.203    0.169
        28 -10.7825    181.1245    248.7468   1.2368065908e+02   4.2562859852e-01     0.305045    0.1554057 -39.59  0.001757112    2.597    0.615
        29 -11.3093    179.0247    243.8176   1.2340575037e+02   1.3866864920e+00    0.5963594    0.1510017  46.29  0.002310476    3.322    0.699
        30 -10.3203    127.9100    249.6518   1.3299413600e+02   8.7582301283e+00    0.1605141    0.1557217 -84.59  0.001062944    1.385    0.278
        31  -9.9143     72.7954    249.9267   1.4234566187e+02   1.6694853012e+01    0.1484054    0.1288022  62.80   0.00120332    1.359    0.264
        32 -10.4127     32.4670    248.9215   1.4873107451e+02   2.1800964881e+01     0.220834    0.1451972 -55.98  0.001579425    2.510    0.602
        33 -11.6188     27.8146    246.2408   1.4932166141e+02   2.2756555576e+01    0.3279224    0.1602081 -80.99  0.002252775    1.908    0.476
        34 -12.4825     21.3329    248.9204   1.5043461322e+02   2.3015335603e+01    0.4967068    0.1444193  49.31  0.002917294    2.232    0.552
        35 -11.8814     14.2342    244.2894   1.5131576736e+02   2.4515691085e+01    0.2354638    0.1219632  82.94  0.001276693    1.522    0.343
        36  -9.5676     50.0334    240.4850   1.4546207691e+02   2.1151638603e+01    0.1513705   0.08252263  46.71 0.0005389302    1.514    0.340
        37  -9.5033    240.8176    231.3463   1.1102931737e+02  -6.9712869857e+00    0.1496054    0.1235781  12.84 0.0005172893    1.140    0.123
        38 -10.0861     79.5294    231.2825   1.3975092253e+02   1.8880252454e+01    0.2060196    0.1225221  48.71 0.0005790343    1.354    0.261
        39  -9.3891     12.9982    230.9868   1.5094782811e+02   2.6897220956e+01    0.1266013    0.0841646  69.52  0.001002368    1.016    0.016
        40  -9.7134    236.0235    230.3189   1.1165952955e+02  -6.1270151382e+00    0.1659214    0.1193633  25.38  0.000541263    1.078    0.072
        41 -10.1510    170.1216    228.8320   1.2297910224e+02   4.8995247911e+00    0.1680973    0.1274455  27.79  0.001025399    1.312    0.238
        42  -9.1581    159.4673    229.4986   1.2501304740e+02   6.6089593098e+00    0.1237535   0.09858695  44.12  0.000178898    1.018    0.017
        43 -10.7248    144.6130    227.6872   1.2751002340e+02   9.3849968371e+00    0.2657846    0.1156013 -64.02  0.001117351    3.980    0.749
        44  -9.6093     93.5214    229.4765   1.3708597418e+02   1.7188220205e+01    0.1200919    0.0886426  62.30 0.0005264923    1.047    0.045
        45 -10.2601    152.2245    227.9709   1.2614209823e+02   8.0614922020e+00    0.1811057    0.1398752   1.10  0.001085928    1.968    0.492
        46 -10.3278    190.4201    226.4493   1.1896574252e+02   1.7772611707e+00     0.201373    0.1781932   6.86 0.0006635972    1.229    0.186
        47 -10.4137    129.7678    226.7301   1.3014202028e+02   1.1997406445e+01     0.368454    0.1435257  52.90   0.00164648    2.411    0.585
        48 -10.3970     88.0958    227.1201   1.3784802815e+02   1.8387040434e+01    0.1663215    0.1456275  55.92  0.001222327    1.287    0.223
        49 -10.4967     66.3425    226.4821   1.4169625498e+02   2.1511700464e+01    0.2359149    0.1529217  48.11 0.0007769552    1.343    0.256
        50  -9.7388    115.6675    225.3313   1.3259946385e+02   1.4504327423e+01    0.1283175   0.07718316  66.73 0.0007052132    1.725    0.420
        51 -10.5817     81.4679    224.7806   1.3883822516e+02   1.9746134105e+01    0.2273572    0.1646052  71.29 0.0008658238    1.141    0.124
        52  -9.6428     24.9690    226.0000   1.4876989602e+02   2.6537016126e+01    0.1544348    0.0490514  38.34 0.0007965176    2.902    0.655
        53 -10.3079    181.6096    223.1955   1.2008020714e+02   3.7334945485e+00    0.1562928    0.1164683 -23.26 0.0009584166    1.706    0.414
        54 -10.8416     13.1385    222.1836   1.5052965030e+02   2.8435716631e+01    0.1690581    0.1310339  82.19 0.0003534688    1.247    0.198
        55 -11.4613    141.4726    221.3955   1.2729339121e+02   1.0912885900e+01    0.5757158    0.3388379  19.08  0.002455753    3.559    0.719
        56 -11.0651    123.3878    221.4197   1.3070587005e+02   1.3921127743e+01    0.2782888    0.2001209  48.35  0.001022156    1.144    0.126
        57  -9.2613     51.6675    222.6774   1.4400431297e+02   2.4069114163e+01   0.09167019   0.08658351 -57.58  0.000598026    1.703    0.413
        58  -9.9162    165.6827    220.4928   1.2262845636e+02   6.8892428935e+00    0.1782912    0.1181598 -46.66 0.0001649788    1.856    0.461
        59 -10.3734    174.0476    220.0033   1.2100229273e+02   5.5054194815e+00    0.1973199      0.15828  41.22 0.0005976435    1.015    0.015
        60 -10.0424     21.8454    220.1831   1.4898611428e+02   2.7911616008e+01    0.1258862    0.1017846  78.20 0.0003761506    1.264    0.209
        61  -9.7749    250.3239    219.0575   1.0745209825e+02  -7.0838862285e+00    0.1604283    0.1255532   2.91 0.0005954431    1.133    0.118
        62  -9.0827    233.5093    219.4720   1.1032019520e+02  -4.5005449026e+00    0.1206285   0.09548966  22.24 0.0001842026    1.019    0.019
        63 -10.9055    191.7033    216.9838   1.1729252676e+02   2.8562170697e+00    0.2269872    0.1754192 -19.49  0.001227686    1.546    0.353
        64  -9.6789     50.0239    218.4491   1.4399376338e+02   2.5043573819e+01    0.1613392   0.09137496  45.08 0.0005859172    1.574    0.365
        65 -10.6584     10.0528    216.9745   1.5079744273e+02   2.9677159476e+01    0.2776742    0.1357481  61.36  0.001659264    1.507    0.336
        66 -10.6594    201.6353    215.8078   1.1530166161e+02   1.2914947579e+00    0.2332336    0.1707913  26.32  0.001045478    1.228    0.186
        67  -9.5427    137.1747    215.6329   1.2736004716e+02   1.2593981426e+01    0.1818043    0.1028186  37.07 0.0009410219    1.697    0.411
        68 -10.0084     30.8430    215.2818   1.4716906749e+02   2.7850222972e+01    0.1841084   0.09780988  59.11  0.001201658    1.443    0.307
        69 -11.0307    209.0002    212.1434   1.1337816190e+02   5.1048237077e-01    0.2340769     0.172642  27.17 0.0004446095    1.175    0.149
        70  -9.5190    142.5448    213.4724   1.2603853070e+02   1.2033260916e+01    0.1275357     0.106218  48.24 0.0001511347    1.048    0.046
        71 -11.2799     20.5350    211.3934   1.4873798969e+02   2.9664607939e+01    0.2836635    0.1315293  73.14 0.0007414471    1.799    0.444
        72 -10.7782    217.9713    207.5947   1.1100988458e+02  -4.3488750598e-01     0.396837    0.1775037 -19.39  0.001490483    4.258    0.765
        73 -11.4945      5.1132    207.7196   1.5120097069e+02   3.1845132210e+01    0.4218746     0.162184  87.17  0.002405089    2.213    0.548
        74 -10.1383      1.4879    207.4778   1.5180381942e+02   3.2218415955e+01    0.1900769   0.07738297 -86.37  0.001038652    1.979    0.495
        75 -10.6920     10.5303    208.5280   1.5031449195e+02   3.1187812917e+01    0.1983121    0.1359946 -50.28  0.001045719    2.414    0.586
        76  -9.2838    139.7712    208.0302   1.2582854727e+02   1.3440826953e+01    0.1475239    0.1079084 -58.30 0.0006463597    1.599    0.374
        77  -9.8814    170.4160    213.2386   1.2067698999e+02   7.1639007982e+00    0.1530769    0.1243575 -65.12 0.0007899466    1.584    0.369
        78  -9.3667    150.2777    205.3357   1.2338001308e+02   1.2043796470e+01    0.1213402    0.0993061  10.00 0.0004340588    1.610    0.379
        79  -9.4253     27.5672    205.4888   1.4714926120e+02   3.0048424890e+01    0.1123082   0.07812861  73.71 0.0003806954    1.042    0.040
        80 -10.7607    210.8028    201.3322   1.1121183831e+02   1.6748328974e+00    0.2196046    0.1788368 -67.29  0.001290161    1.908    0.476
        81  -9.5450    238.7504    201.3855   1.0630259444e+02  -3.1658009349e+00    0.1734584   0.09730493  31.60 0.0006104506    1.588    0.370
        82 -10.0674     19.7493    200.2402   1.4824228831e+02   3.1863596045e+01    0.1630477    0.0633394 -66.61 0.0008893186    2.458    0.593
        83 -11.3424    227.4605    196.7012   1.0740783708e+02  -6.3439796935e-01    0.3882659    0.2213517  13.63  0.001637459    2.370    0.578
        84 -11.4340    231.9956    191.7358   1.0570072559e+02  -7.6285174004e-01    0.3992757    0.2142778  18.80  0.001804316    2.466    0.595
        85 -11.9024    192.2064    195.1187   1.1358093022e+02   5.9861409078e+00    0.3443962    0.3053035 -79.15  0.002116719    1.505    0.335
        86  -9.8619    203.0206    195.9954   1.1170166109e+02   3.8511379158e+00    0.2016243    0.1730651  24.24 0.0006582735    1.038    0.037
        87 -11.6717    215.5395    193.9934   1.0904286145e+02   1.8571623498e+00    0.3522815    0.1865533 -34.78  0.001758045    2.070    0.517
        88 -10.3398    163.4909    190.9150   1.1848005783e+02   1.2088458543e+01    0.2776412    0.1318086 -39.74  0.001203071    2.595    0.615
        89  -9.2339     59.8444    192.6239   1.4000195990e+02   2.8802122995e+01    0.1677315   0.08720692  52.63 0.0005041236    1.648    0.393
        90  -9.7687    198.6304    191.2305   1.1167215616e+02   5.3823036398e+00    0.1767558    0.1234144 -23.89 0.0009511127    1.659    0.397
        91 -11.4943    187.6333    189.2490   1.1342043890e+02   7.7729258308e+00    0.3621539    0.2408128 -24.48  0.001862819    1.876    0.467
        92 -10.5496    250.2267    189.9315   1.0226361061e+02  -3.6411041287e+00    0.1769294    0.1594536  -8.36 0.0006650366    1.238    0.192
        93  -9.2480    205.6093    190.2233   1.1017981791e+02   4.2300185857e+00    0.1713744    0.1220963 -19.42 0.0008756617    1.599    0.375
        94 -10.2151    224.6441    189.7234   1.0661982287e+02   8.1530140344e-01    0.1355601   0.08857602  17.29 0.0003824735    1.652    0.395
        95  -9.4241    179.3154    189.3405   1.1506090174e+02   9.3450923660e+00    0.1371083    0.1013202  11.66 0.0007048015    1.705    0.413
        96 -10.3646    218.3904    187.7121   1.0736584457e+02   2.2345560145e+00    0.2449331    0.1222809 -39.82  0.001154291    2.230    0.551
        97 -10.1465    166.5397    183.4853   1.1658567253e+02   1.2805207819e+01    0.1971772    0.1741115  49.06  0.001030199    1.038    0.037
        98  -9.4017     61.6314    184.8337   1.3887261696e+02   3.0164822347e+01    0.1739425   0.09885044 -85.83 0.0009473557    1.716    0.417
        99 -11.9701     16.5564    182.9442   1.4777125357e+02   3.5598521948e+01    0.3582709     0.227188  75.09  0.002059346    1.216    0.178
       100 -11.4369    248.8223    182.4853   1.0107450743e+02  -2.4532231905e+00    0.3920684    0.1865339  24.68  0.001696534    2.667    0.625
       101  -9.3176     58.3535    182.3059   1.3929756075e+02   3.1113057519e+01    0.1084078   0.09416364 -40.38 0.0007041661    1.714    0.416
       102 -10.9611    188.2975    181.0079   1.1178452258e+02   8.9889800424e+00    0.1884116    0.1751425  10.55 0.0004767176    1.098    0.090
       103 -11.8084    224.1555    178.3517   1.0453190562e+02   2.5237896706e+00    0.2998085    0.2687252  15.85 0.0005060343    1.052    0.049
       104 -12.2247    244.4785    177.7172   1.0087124383e+02  -1.0697735091e+00    0.3656617     0.230699  -8.31  0.001539809    1.775    0.437
       105 -11.0037    200.2983    176.3636   1.0857137140e+02   7.3974673852e+00    0.2459593    0.1984565  13.73 0.0007446224    1.289    0.224
       106  -9.2389     70.2097    177.6020   1.3627389421e+02   3.0531000721e+01    0.1478051    0.1162273  37.66 0.0004043995    1.479    0.324
       107  -9.0866    100.9602    175.9899   1.2935587759e+02   2.6232058152e+01    0.1528958    0.1322765  76.63 -0.003769674    1.028    0.027
       108 -10.8894     17.9314    173.4313   1.4685495552e+02   3.7421279539e+01    0.2941298    0.1591968  51.29  0.001853114    1.658    0.397
       109 -10.1186    236.4808    182.4675   1.0316333969e+02  -3.0023850416e-01    0.1297422    0.1109663  13.87 0.0004048576    1.015    0.015
       110 -10.5745      2.1855    180.1935   1.5035430270e+02   3.7425817180e+01    0.1928808    0.1205341  72.01 0.0005283686    1.213    0.176
       111  -9.5049     59.5311    171.9842   1.3795412778e+02   3.3149145743e+01    0.1869738    0.1079933 -73.89  0.001028449    1.584    0.369
       112  -9.8746     74.7738    171.4857   1.3454016610e+02   3.1198702473e+01    0.1784356     0.116409  44.96 0.0009968759    1.485    0.327
       113 -10.4338    197.0251    169.0418   1.0776026696e+02   9.2472008751e+00    0.2128102    0.1758806  84.07  0.000844975    1.669    0.401
       114  -9.8084      4.5841    167.7858   1.4916839256e+02   3.9753609840e+01    0.2115329   0.07917273 -75.18  0.001139275    2.094    0.523
       115  -9.9503    209.9898    166.3381   1.0472947560e+02   7.0917162976e+00    0.1994247    0.1674646  31.19 0.0004770312    1.095    0.087
       116 -10.7227     41.2301    165.5128   1.4127863564e+02   3.6734260968e+01    0.2033903    0.1370135 -83.61 0.0004813591    1.246    0.197
       117 -10.6702     51.6138    164.5244   1.3887904722e+02   3.5749217586e+01    0.3131068    0.2033211 -35.28  0.001611475    2.737    0.635
       118 -11.2942    246.5139    162.4772   9.7451847493e+01   6.6529431921e-01    0.2118491    0.1968217  59.29  0.000827122    1.402    0.287
       119 -11.3790    247.9396    158.9189   9.6475104677e+01   9.0612130583e-01    0.4268692    0.2586938 -35.84  0.002219513    1.648    0.393
       120 -10.6829     36.0470    161.4611   1.4202331092e+02   3.8174446350e+01    0.3511789    0.1650009 -78.85  0.001835618    1.874    0.467
       121  -9.4105    200.0299    162.7746   1.0590033524e+02   9.6872612977e+00    0.1886308    0.1100217  45.68 0.0004561097    1.615    0.381
       122  -9.9551    238.3887    158.7889   9.8052805406e+01   2.7085140065e+00    0.1868424    0.1199157 -19.15  0.000524282    1.623    0.384
       123  -9.1815    229.5026    164.5261   1.0079541878e+02   3.5539461436e+00    0.1372086    0.1194313  11.37 0.0001724366    1.036    0.035
       124  -9.6457      7.8451    158.3746   1.4787458767e+02   4.1458452596e+01    0.1188208     0.108035  23.34 0.0004913027    1.604    0.376
       125 -10.7594     22.9984    156.2893   1.4443265570e+02   4.0591863455e+01    0.3697585    0.2134854  43.71  0.002288886    1.751    0.429
       126  -9.2195     23.6995    152.6786   1.4395457888e+02   4.1312836943e+01    0.1624235    0.1242811 -70.81 0.0006384598    1.263    0.208
       127 -10.0515    217.6544    154.6119   1.0084214475e+02   7.4308337784e+00    0.2805534    0.1234852  42.57  0.001134935    2.194    0.544
       128  -9.9837    205.4049    152.3411   1.0265273789e+02   1.0334658355e+01    0.2692684    0.1381945 -31.97  0.001125368    2.119    0.528
       129  -9.8973    197.0521    153.5266   1.0453294837e+02   1.1887185645e+01    0.2284406    0.1360448  46.61  0.001035858    1.604    0.377
       130  -9.2802    151.5184    153.4592   1.1410481920e+02   2.1500269057e+01    0.1483307    0.1348452  68.16 0.0002263283    1.086    0.079
       131 -10.6833     10.9421    152.7539   1.4679408285e+02   4.2405710357e+01    0.3105466    0.1584613  43.90  0.001337156    1.946    0.486
       132 -10.5899    178.3580    151.4130   1.0787392186e+02   1.6244138016e+01    0.3186722    0.2544648  65.37  0.001624651    1.399    0.285
       133  -9.4966    169.3064    152.2758   1.0997184104e+02   1.8009047556e+01    0.1437857    0.1139807  14.13 0.0002942473    1.548    0.354
       134  -9.2888    105.7016    153.6209   1.2474341597e+02   3.0234932179e+01    0.1364426    0.1106735 -24.49 0.0007023665    1.760    0.432
       135  -9.5449     92.8222    148.1398   1.2691009355e+02   3.3612941601e+01    0.1773671    0.1678172 -33.85 0.0008135259    1.323    0.244
       136  -9.2786    233.6060    147.2043   9.6387745005e+01   5.3808241001e+00    0.1955361     0.125305 -20.41 0.0009455099    1.649    0.394
       137 -10.4733    207.0249    145.9924   1.0094853853e+02   1.1070313946e+01    0.2745552    0.1977522  46.12  0.000755146    1.355    0.262
       138  -9.1846     37.5180    146.4849   1.4012712271e+02   4.1327835849e+01     0.123406   0.09864138 -89.88 0.0001549885    1.000    0.000
       139  -9.7016    215.6822    145.6802   9.9253613251e+01   9.2931629590e+00    0.1485315    0.1072952  11.26 0.0004001206    1.661    0.398
       140 -10.8308      7.7647    145.3956   1.4692543140e+02   4.4243552665e+01    0.2359881    0.1386703  71.98  0.001491879    1.506    0.336
       141 -10.7621      3.1637    143.8229   1.4783851175e+02   4.4925409687e+01    0.2867258    0.2094186 -15.70  0.001930623    2.328    0.570
       142 -10.5617    212.2203    141.7533   9.9017049995e+01   1.0680395733e+01    0.4470938    0.2269261  37.46  0.001833369    2.109    0.526
       143  -9.4830     37.6420    142.1786   1.3960571477e+02   4.2282418867e+01    0.1679927    0.1313511  73.90 0.0008022289    1.161    0.139
       144 -11.6101     12.2385    141.0245   1.4553867338e+02   4.4847445272e+01      0.32067    0.2421919 -10.82  0.002137333    2.183    0.542
       145 -11.8116      9.1973    136.7704   1.4588022393e+02   4.6014217523e+01    0.2198463    0.1858451 -77.95 0.0002373748    1.201    0.167
       146 -10.9529      2.9923    136.3391   1.4729898292e+02   4.6556576428e+01    0.3156914    0.1353474 -69.40  0.001000456    1.807    0.447
       147 -10.4969      5.8199    133.6171   1.4640825431e+02   4.6951754380e+01     0.188317    0.1226508 -87.44 0.0003780972    1.184    0.156
       148  -9.8156    236.0003    138.9547   9.4149569939e+01   6.1737343900e+00    0.1693331    0.1548667  15.86 0.0008230499    1.057    0.054
       149 -11.9265     57.7504    138.5521   1.3413994437e+02   4.0825178337e+01    0.3508795    0.2155739  67.99 0.0005757523    1.765    0.433
       150 -10.2212     44.0000    137.9958   1.3752506248e+02   4.2555194955e+01    0.2902532    0.1545944 -78.45  0.001199644    1.720    0.418
       151  -9.9966     41.4793    135.5028   1.3783774016e+02   4.3394367875e+01    0.2023656    0.1387163  46.12 0.0001547852    1.534    0.348
       152 -10.2841     21.7146    136.5463   1.4286000404e+02   4.5055521232e+01    0.1864979       0.1203  24.21  0.001143084    2.049    0.512
       153  -9.8018    138.3272    135.2781   1.1329926025e+02   2.8004773192e+01     0.277474     0.179098  34.96 0.0008179744    1.728    0.421
       154 -10.1957     67.6565    133.9112   1.3088791137e+02   4.0609130532e+01    0.1891204     0.183155 -75.18 0.0003864009    1.204    0.170
       155  -9.9262     79.5008    133.0594   1.2766178471e+02   3.9122775582e+01    0.1998712    0.1247112 -63.38 0.0003269641    1.488    0.328
       156 -11.9725     36.2091    130.5371   1.3854333670e+02   4.5068237078e+01    0.4519156    0.2564412 -80.80  0.002470603    1.575    0.365
       157 -10.4371    249.7552    130.4116   8.9979793362e+01   4.7184698839e+00    0.2625482    0.2115815 -53.52  0.001463644    1.485    0.327
       158 -10.3306     74.2047    129.1510   1.2836166910e+02   4.0798594266e+01    0.2244559    0.2045542 -66.88 0.0006858859    1.123    0.110
       159  -9.1623     29.2733    130.3783   1.4029742518e+02   4.5768850680e+01    0.1229571   0.07656565 -51.92 9.195575e-05    1.696    0.410
       160 -10.1151    125.4081    130.0088   1.1527938775e+02   3.1775307026e+01    0.4145273    0.2087837  26.63   0.00130686    3.896    0.743
       161  -9.6299      1.1554    126.6627   1.4693744466e+02   4.8790264929e+01    0.2215527   0.06452937 -78.54 0.0009691531    2.747    0.636
       162 -10.6482     44.5066    125.8176   1.3573026826e+02   4.5290756968e+01    0.1973816    0.1737776  52.24 0.0004293842    1.267    0.211
       163 -10.5505    219.5419    124.5061   9.3672794233e+01   1.1988073641e+01     0.263954    0.2366882   3.13 0.0005503244    1.124    0.110
       164 -11.8784      9.8196    122.6364   1.4440273311e+02   4.9092482730e+01    0.4138803    0.3412888 -24.46  0.002983167    1.706    0.414
       165 -10.3891     17.7778    117.0527   1.4171333538e+02   4.9755471219e+01     0.333923    0.1495174 -48.37  0.001677898    2.431    0.589
       166 -10.3174     20.1493    112.8637   1.4055550051e+02   5.0517799952e+01    0.2379278    0.1576634 -40.80  0.001248058    1.803    0.446
       167 -12.2909     16.5941    108.4149   1.4097508859e+02   5.1792521728e+01    0.3527845    0.2846199 -75.39 0.0005843687    1.043    0.042
       168  -9.8074     20.7055    121.8663   1.4150504553e+02   4.8437743323e+01    0.1657277    0.1196433 -82.22 0.0003935849    1.109    0.098
       169  -9.4794     41.0259    120.4711   1.3588462553e+02   4.6889063379e+01    0.1608816    0.1244776  36.34 0.0004826727    1.507    0.337
       170  -9.4521    166.5085    119.0179   1.0292737685e+02   2.5160809973e+01    0.2226956    0.1532877 -40.28 0.0004565572    1.486    0.327
       171  -9.9927     54.4781    117.5226   1.3170374902e+02   4.6080815450e+01    0.2283349    0.1316483  31.51  0.001166255    2.033    0.508
       172 -10.1864    179.1780    116.1943   9.9470135143e+01   2.2755762551e+01    0.2288816    0.2082502  20.12  0.000437791    1.167    0.143
       173 -10.9484    102.6852    113.9641   1.1755757001e+02   3.9691287649e+01     0.404321    0.2602715 -26.10  0.001677594    2.428    0.588
       174 -11.0244     35.3967    114.2005   1.3650831470e+02   4.8890103981e+01    0.6351509    0.1789925 -71.76  0.002242692    3.640    0.725
       175 -10.3680     38.4324    111.4768   1.3523494530e+02   4.9221784404e+01    0.1805338    0.1257277  31.06 9.050984e-05    1.714    0.417
       176 -10.1723     66.8541    112.9804   1.2737793485e+02   4.5569086470e+01     0.195908    0.1704934 -77.08 0.0003048184    1.038    0.036
       177  -8.7073    212.5070    112.4866   9.2010210300e+01   1.5612878979e+01    0.1489284    0.1424273  -0.67  0.000810241    1.036    0.034
       178 -10.1076     42.3719    110.5019   1.3395136842e+02   4.9048938700e+01    0.2178989    0.1646568 -66.17 0.0003033367    1.118    0.106
       179  -9.7688    167.1501    109.0975   1.0024542420e+02   2.6970858802e+01    0.2382026    0.2131915   6.57 0.0005881513    1.261    0.207
       180 -10.2302    241.8200    108.0170   8.6015073014e+01   9.7820045241e+00     0.199294    0.1622341 -87.21 0.0008493056    1.597    0.374
       181 -10.9810     23.4172    106.8758   1.3883599276e+02   5.1616631233e+01    0.2492534    0.1756811 -68.43 0.0006760072    1.140    0.123
       182 -10.3820      6.0036    106.2392   1.4366494312e+02   5.2996083447e+01    0.2401936    0.1739137 -53.84  0.000943368    1.374    0.272
       183 -10.8350      2.5433    105.4485   1.4453426597e+02   5.3379856893e+01    0.3299417    0.1026777 -58.17  0.001582381    2.466    0.595
       184  -9.5037    133.1937    107.5786   1.0792406606e+02   3.5027227972e+01    0.2161247    0.1446359  34.74 0.0005515511    1.690    0.408
       185 -10.2736     76.4113    107.0438   1.2339824418e+02   4.5593520050e+01    0.2165057    0.1235691 -57.83 0.0004584075    1.595    0.373
       186  -8.9338     49.6637    107.3437   1.3128833195e+02   4.8993514803e+01    0.1357015   0.09088127  76.81   0.00070497    1.768    0.434
       187  -9.1769     81.0090    106.0016   1.2183195797e+02   4.5139119704e+01    0.2539057    0.1265522 -38.62 0.0009976671    2.592    0.614
       188  -9.7411    223.3033    103.9470   8.7998935586e+01   1.4558745139e+01    0.2076878    0.1816905 -30.76 0.0004728803    1.098    0.089
       189 -10.4428     92.8908    103.5997   1.1783958174e+02   4.3756688771e+01    0.3846838    0.2346225 -69.92  0.001554379    2.003    0.501
       190 -10.9626     69.7319    102.7106   1.2441730712e+02   4.7547264299e+01    0.2651138    0.1972658  30.04 0.0008227292    1.568    0.362
       191 -10.2607    247.5129    102.4755   8.3833003833e+01   9.4148086725e+00    0.1401853    0.1285937 -22.08 0.0003169648    1.022    0.022
       192  -9.9353     10.2742    102.5222   1.4201924536e+02   5.3553657415e+01    0.1821037     0.110536  31.11  0.001135224    1.997    0.499
       193  -9.9547    120.3990    101.2518   1.0959414145e+02   3.9086329594e+01    0.2659436    0.1879987  31.52 0.0005271062    1.644    0.392
       194 -10.1318     36.7997    101.5138   1.3407310048e+02   5.1667834320e+01    0.1927782    0.1287941  22.87 0.0006775463    1.893    0.472
       195  -9.8541     27.8831    100.9153   1.3664157966e+02   5.2604532256e+01    0.1679642    0.1365828 -58.44  0.000264684    1.151    0.131
       196 -10.4736      4.1946    100.7146   1.4353696153e+02   5.4332060952e+01    0.2740888    0.1479978  43.00  0.001335002    2.126    0.530
       197 -10.9486     20.9999     98.2558   1.3828910229e+02   5.3758369087e+01    0.3905889    0.1538118 -75.37  0.001282247    2.359    0.576
       198 -10.6819     61.7202     98.5697   1.2593337694e+02   4.9567695857e+01    0.2988151    0.1919249  30.74  0.001436983    1.819    0.450
       199  -9.0512     49.6381     98.2894   1.2957624074e+02   5.1080537557e+01    0.1307966   0.09257135  73.60 0.0007025714    1.694    0.410
       200  -9.8732     92.7430     96.9928   1.1623756081e+02   4.5265587986e+01    0.1969302    0.1173653 -51.78 0.0008930029    1.574    0.365
       201 -10.5939     79.9988     96.6953   1.1994988096e+02   4.7413309125e+01    0.1831362    0.1757338 -79.33 0.0002771096    1.064    0.061
       202 -12.4747      8.6237     94.4108   1.4145168680e+02   5.5467523842e+01     0.351832    0.1772592 -57.78  0.002039017    1.598    0.374
       203 -10.7701      1.9105     93.0223   1.4327644700e+02   5.6161460022e+01    0.3529621    0.1038956 -58.84  0.001679843    2.403    0.584
       204  -9.9379    109.4454     92.7701   1.1030413381e+02   4.3116918907e+01    0.2936021    0.1408359 -51.46  0.001056989    2.096    0.523
       205  -9.0458    138.2543     92.3404   1.0248768949e+02   3.7080092174e+01    0.1521741    0.1227171  -5.29 0.0002644396    1.577    0.366
       206 -10.6836     96.4169     90.5894   1.1346625708e+02   4.6034106598e+01    0.3120813    0.2154934   0.98  0.001326331    2.456    0.593
       207 -11.4104     47.0956     84.1822   1.2739673283e+02   5.4559488183e+01    0.6035893     0.367154 -70.56  0.002240327    1.650    0.394
       208 -11.0410     67.1682     85.1175   1.2106251641e+02   5.1883364183e+01    0.2147266    0.1714279 -36.34   0.00070984    1.274    0.215
       209  -9.8056     24.0355     85.4764   1.3523820703e+02   5.6401166244e+01    0.1532102    0.1229395  16.01  0.001023925    1.579    0.367
       210  -9.3607      1.4494     85.4783   1.4244587958e+02   5.7844432959e+01     0.114866   0.08689912 -73.57 -4.871364e-05    1.028    0.027
       211 -10.9892    118.1336     83.1196   1.0510100582e+02   4.3379963946e+01    0.3256796     0.271977  -9.94  0.001012143    1.412    0.292
       212 -10.6156     85.8639     82.5207   1.1443091228e+02   4.9610149502e+01     0.330129    0.1891258 -60.30 0.0009044345    1.932    0.482
       213 -11.5384     23.8917     78.0909   1.3390030474e+02   5.8054418703e+01    0.3342184    0.1356176 -54.10  0.001237488    1.907    0.476
       214 -11.0512     20.1980     82.3965   1.3594249063e+02   5.7374351517e+01    0.5741456    0.2321711  17.21   0.00271012    3.433    0.709
       215  -9.2357    130.3348     82.3223   1.0158268145e+02   4.0885471988e+01    0.1577434    0.1222265   7.40 0.0007050375    1.708    0.414
       216 -11.1636     77.8974     72.1113   1.1395182421e+02   5.3114270179e+01    0.4078378    0.2616567  50.51  0.000727398    1.855    0.461
       217 -11.6291     75.4161     81.7197   1.1751278933e+02   5.1441579552e+01    0.4862558    0.1804619 -55.22  0.001812032    2.643    0.622
       218 -11.0885     71.7177     79.0180   1.1796964248e+02   5.2578134116e+01    0.3106701     0.238441 -16.92 0.0006856572    1.590    0.371
       219 -10.6188     74.2745     76.3606   1.1638703015e+02   5.2772079718e+01    0.2493603    0.1971004 -23.71 0.0005729116    1.398    0.285
       220 -10.8536     18.6453     79.6916   1.3597197809e+02   5.8084062911e+01    0.3452103     0.165287 -27.28  0.001606851    3.207    0.688
       221 -10.5557      3.2724     78.6559   1.4089645707e+02   5.9242893583e+01    0.2359371    0.1936229  51.65  0.001059061    1.483    0.326
       222 -12.1870      5.7166     73.9493   1.3934189702e+02   6.0139208228e+01    0.4984916    0.4321819  70.20  0.002769292    1.348    0.258
       223  -9.6034     36.1861     77.8445   1.2964870472e+02   5.7068600785e+01    0.1733355    0.1209295 -45.49 0.0003285964    1.302    0.232
       224 -11.2562     59.0731     76.4608   1.2148773968e+02   5.4860125342e+01    0.3578535    0.2864162  87.77  0.001140936    1.558    0.358
       225 -10.2649     54.7443     72.5539   1.2192846653e+02   5.6244554174e+01    0.2101564    0.1857112 -47.82 0.0004144574    1.022    0.022
       226 -10.7663     69.0893     67.0997   1.1539521732e+02   5.5491630793e+01    0.2969425    0.2373957 -11.72  0.000879943    1.425    0.298
       227 -11.7189     62.3529     71.9630   1.1913807568e+02   5.5404347998e+01    0.3528083    0.2854747  85.63  0.001190825    1.604    0.377
       228  -9.9692     67.7564     72.5961   1.1747808105e+02   5.4527542648e+01     0.328068    0.1896734 -39.71  0.001371195    1.685    0.406
       229  -9.9177    121.4879     76.4734   1.0215407252e+02   4.3998026909e+01    0.1493061    0.1458633 -17.37 0.0003448999    1.020    0.019
       230 -11.5891    108.7441     74.6921   1.0518410114e+02   4.7024658460e+01    0.5456551    0.3425077 -24.29  0.001383953    2.049    0.512
       231 -10.8439     94.4984     73.4668   1.0906886721e+02   5.0011471759e+01    0.3030727    0.2158437 -20.04  0.001084059    1.735    0.424
       232 -10.9754     94.6344     68.7158   1.0752789824e+02   5.0947791553e+01    0.3336025    0.2238972 -17.63   0.00110793    1.995    0.499
       233 -11.6694     99.5208     65.9003   1.0510519407e+02   5.0582101817e+01    0.4742764    0.2099583  45.27  0.001454893    2.365    0.577
       234  -9.3758     40.6232     73.4079   1.2708252911e+02   5.7616745474e+01    0.2961186    0.2029015 -78.36  0.001248969    1.659    0.397
       235 -10.8241     21.0878     66.1820   1.3241996029e+02   6.0861246256e+01    0.2515477    0.1897611  36.09  0.001500782    1.633    0.387
       236 -11.5364     25.7940     68.6892   1.3126514085e+02   5.9964903446e+01    0.3479005    0.2269324 -29.74  0.002078896    1.706    0.414
       237 -10.8167     31.0354     66.4268   1.2883176053e+02   6.0020883571e+01    0.2870019    0.1753912 -59.63 0.0008232603    1.354    0.261
       238 -11.2998    151.7470     72.1042   9.3171455477e+01   3.7759278152e+01     0.447663    0.2259542  51.86  0.001730862    1.944    0.486
       239 -10.3825    115.8926     71.0460   1.0198685080e+02   4.6261388741e+01    0.3448492    0.2088881 -41.56  0.001069999    1.613    0.380
       240 -10.3905    150.5812     78.3021   9.5344319742e+01   3.6909548753e+01    0.2867237    0.2406883 -65.88 0.0008902895    1.324    0.245
       241 -11.4749     50.2742     69.4611   1.2266247669e+02   5.7437220501e+01     0.415131    0.2134929 -45.89  0.002057784    1.699    0.411
       242  -9.1758    215.3056     70.6860   8.0647690607e+01   2.1846449487e+01    0.1556073    0.1104182 -64.85  0.000425625    1.621    0.383
       243  -9.5754    137.2905     70.3237   9.6079475826e+01   4.1580982609e+01    0.1548114    0.1209923   9.67 0.0004290268    1.611    0.379
       244  -9.9067    232.2975     69.0561   7.7727171149e+01   1.7950579083e+01    0.1999966    0.1831905 -58.37 0.0005852533    1.048    0.046
       245 -10.7357     37.2698     68.1661   1.2698902490e+02   5.9080826565e+01     0.412351    0.1893179 -42.35  0.001443661    2.065    0.516
       246 -11.0391     41.1040     63.8608   1.2446618304e+02   5.9623161595e+01    0.2506297    0.1524458 -81.80  0.001184241    2.579    0.612
       247  -9.4567    219.8218     68.4305   7.9356738864e+01   2.1074868917e+01    0.1941516     0.135978  48.81 0.0003462227    1.511    0.338
       248 -10.1803      6.9443     68.0014   1.3788999649e+02   6.1359657785e+01     0.172955    0.1366981 -56.91  0.001246756    1.078    0.072
       249 -10.8337    130.4846     65.5645   9.6268181288e+01   4.4043575085e+01    0.4650869     0.220597 -50.03    0.0016849    2.509    0.601
       250  -9.3739     55.9836     67.0301   1.1995671700e+02   5.7271947472e+01    0.1543952    0.1345579 -44.16            0    1.007    0.007
       251  -9.9730     14.2278     66.6201   1.3501171999e+02   6.1230817672e+01    0.2809221    0.1596383 -20.50  0.001144334    2.323    0.570
       252 -10.4323      3.2356     63.9917   1.3849650602e+02   6.2409830303e+01     0.168157    0.1426864 -58.70 0.0009177297    1.121    0.108
       253  -9.9909    156.4983     66.5143   9.0353994879e+01   3.7558991068e+01    0.1538739    0.1506872  88.53 -1.543537e-06    1.030    0.029
       254  -9.1031    146.6910     66.2627   9.2505429195e+01   4.0044242064e+01     0.150602    0.1210454 -80.77 0.0002447355    1.531    0.347
       255 -11.1493    120.0185     64.6977   9.8765818657e+01   4.6569040166e+01    0.5711063    0.3563316  -7.26   0.00214217    2.804    0.643
       256 -10.4315    165.8627     64.9965   8.7878650730e+01   3.5434997870e+01    0.2260894    0.2223918 -38.26 0.0003260105    1.035    0.034
       257 -10.4593    137.9871     65.2435   9.4269636199e+01   4.2335007652e+01    0.2126213    0.1983802  53.57 0.0004278912    1.073    0.068
       258 -11.6314     84.3778     63.0704   1.0896776207e+02   5.3891342189e+01     0.504482    0.3544088 -50.34  0.002269902    1.409    0.290
       259 -10.9089     76.6346     65.1646   1.1222380683e+02   5.4745225527e+01    0.3295603    0.1955279  46.61  0.001583303    1.941    0.485
       260 -11.3885    174.2080     63.7822   8.5828076514e+01   3.3483264557e+01    0.3119277    0.2740816 -87.08 0.0004654072    1.214    0.177
       261 -10.5249     51.5223     62.4103   1.2022185069e+02   5.8781738489e+01    0.2720871    0.1468951 -31.88  0.001279152    2.154    0.536
       262 -10.9964     11.1042     62.2523   1.3526868736e+02   6.2356428846e+01    0.2823126    0.1607185 -49.03 0.0009569315    1.426    0.299
       263 -10.9416     65.2661     60.0088   1.1451145144e+02   5.7488800656e+01    0.4500001    0.2087459  44.48  0.001976524    2.585    0.613
       264  -9.7824     71.8135     61.6231   1.1273347584e+02   5.6205369060e+01    0.2025151    0.1709902  27.80  0.000113891    1.286    0.222
       265 -10.4324     70.5831     58.2595   1.1205820643e+02   5.7060707617e+01    0.3291633     0.211119 -37.16 0.0006216734    1.453    0.312
       266 -11.3705     58.1295     59.2505   1.1684314905e+02   5.8610903708e+01    0.3903427    0.2252434 -46.06   0.00201413    1.504    0.335
       267 -10.7954     27.1230     61.2109   1.2900957006e+02   6.1461065332e+01    0.3097704    0.1680076  22.71   0.00172673    2.237    0.553
       268 -10.4722     32.9433     60.2703   1.2656122395e+02   6.1162456721e+01    0.3111723    0.2025628 -19.11   0.00177874    1.872    0.466
       269 -11.7146    137.7040     55.5301   9.1111681305e+01   4.4074656683e+01    0.6434966    0.3886819  -9.94  0.002460835    2.543    0.607
       270 -11.3318    135.7045     50.3823   8.9831029488e+01   4.5397629082e+01    0.4025829    0.3040921 -77.75  0.001284117    1.786    0.440
       271 -10.2183     18.1124     59.2724   1.3197169927e+02   6.2543716259e+01    0.2227255    0.1441802 -70.11 0.0005943462    1.435    0.303
       272 -10.5932      5.8971     58.4784   1.3645521093e+02   6.3444433010e+01    0.3439929    0.1232486 -65.55  0.001702804    2.118    0.528
       273 -12.0053      4.6177     52.7224   1.3575036285e+02   6.4714167945e+01    0.5740246    0.2461455 -23.40  0.002807698    3.257    0.693
       274 -11.2572     13.0273     49.8972   1.3172232384e+02   6.4827989641e+01    0.3374021    0.1575625 -55.34  0.001631497    1.583    0.368
       275 -11.7603      8.7554     45.6780   1.3242943941e+02   6.5941616074e+01    0.4297192    0.3332476 -31.27  0.001952318    1.262    0.208
       276 -10.3634    114.5615     57.3555   9.7784102391e+01   4.9091041205e+01    0.4084549    0.1683252  42.53  0.001096334    2.553    0.608
       277  -9.8225    117.6195     54.7423   9.6021014935e+01   4.8878161667e+01     0.299139    0.1434759 -37.41 0.0007876776    2.056    0.514
       278 -10.0908     86.4418     58.4885   1.0674775518e+02   5.4423387929e+01     0.267444    0.2039777 -80.76 0.0007685851    2.012    0.503
       279 -10.6922     98.7490     56.1613   1.0202226965e+02   5.2569729770e+01    0.3041408    0.2112015  30.41 0.0007211043    1.578    0.366
       280  -9.8723     96.2670     52.9877   1.0166295732e+02   5.3626708347e+01    0.1950535    0.1700664 -28.91 0.0002813967    1.089    0.082
       281 -11.4921     38.3960     51.7674   1.2202040623e+02   6.2398568242e+01    0.5774028     0.270867 -40.84   0.00286955    1.909    0.476
       282 -10.5201    157.2851     52.9121   8.5830036909e+01   3.9597037554e+01    0.2924812    0.2515254  -4.08 0.0006093726    1.299    0.230
       283 -12.3122    127.9261     51.5301   9.2160996573e+01   4.7067106685e+01     0.406098     0.308737 -18.83  0.000399634    1.422    0.297
       284 -10.1679     86.9628     52.5301   1.0448267616e+02   5.5444903783e+01    0.2460244    0.1371135  47.30  0.001123029    1.975    0.494
       285 -10.0146     83.1097     51.3494   1.0533853492e+02   5.6341898753e+01    0.2358166    0.1729578 -29.09 0.0006388309    1.312    0.238
       286  -9.9728     44.8267     51.1683   1.1930111783e+02   6.1839241328e+01    0.2453386    0.1796133 -31.86  0.001136863    1.258    0.205
       287 -10.4115     46.2949     46.9892   1.1734278294e+02   6.2494560639e+01    0.2397961    0.1500155 -53.37 0.0007479819    1.510    0.338
       288 -11.6117    101.3959     49.1397   9.8685383927e+01   5.3285861410e+01    0.4240917    0.2954552  64.15   0.00203106    1.876    0.467
       289 -11.8791     51.7831     49.2089   1.1594434609e+02   6.1409870312e+01    0.5263227     0.255542 -52.61  0.001914736    1.951    0.488
       290 -10.6846    115.0486     49.3354   9.4802866692e+01   5.0361494601e+01    0.2778011    0.2123459 -27.26 0.0007711165    1.313    0.238
       291 -10.4505     77.0629     50.0949   1.0695085137e+02   5.7596762624e+01    0.2136268    0.1689488 -15.17  0.001199273    1.296    0.228
       292 -12.4252    143.2077     46.2787   8.6664053370e+01   4.4188606475e+01    0.6177616    0.4550665  68.43  0.002959728    1.462    0.316
       293 -10.8255    162.6922     47.8447   8.3084062583e+01   3.8971639457e+01     0.320176    0.2354667  47.06  0.001379009    1.348    0.258
       294 -11.8832    155.1942     47.3355   8.4431781006e+01   4.0988250312e+01    0.5042261    0.2765811  52.61  0.001341781    1.733    0.423
       295 -10.2950     91.8576     46.3202   1.0060650323e+02   5.5641621348e+01    0.2376986    0.1819301 -46.77 0.0006968302    1.389    0.280
       296 -11.5221    121.6934     43.1491   9.0760006913e+01   4.9850253174e+01    0.6693392    0.3648683 -47.83  0.002251741    2.158    0.537
       297  -9.5266    123.4741     38.5400   8.8599514089e+01   5.0127580379e+01    0.2135471    0.1402162 -15.47 7.998003e-05    1.750    0.428
       298  -9.6601      7.2041     40.9855   1.3188227523e+02   6.6972303121e+01    0.1750259    0.1185551 -44.40 0.0006904434    1.170    0.146
       299  -9.8788    233.1511     45.1664   7.1466497508e+01   2.1145047402e+01    0.1947358      0.18879   1.80  0.000459237    1.188    0.158
       300 -10.1589     86.3201     45.0019   1.0191295592e+02   5.6898227149e+01    0.2262678    0.1446052  42.08 0.0008705371    1.628    0.386
       301  -9.9684     99.0290     44.1536   9.7542331813e+01   5.4602384411e+01    0.2165983     0.177993   8.74  0.000573473    1.276    0.216
       302  -9.5963     74.8258     43.5985   1.0532033713e+02   5.9134523192e+01     0.175984    0.1271762  50.54 0.0009439134    1.675    0.403
       303 -11.0829     64.1062     41.4315   1.0841021954e+02   6.1191558052e+01    0.2748693    0.2250075 -11.94 0.0001932483    1.174    0.148
       304 -11.2923     68.0768     37.3713   1.0533890806e+02   6.1294452253e+01    0.3968512    0.2200425 -43.72  0.001978813    1.746    0.427
       305 -10.1218     56.3819     42.5293   1.1178316867e+02   6.2081350580e+01    0.2102483    0.1093331 -44.85 0.0008015523    1.712    0.416
       306 -10.9891    123.3391     57.0354   9.5272018596e+01   4.7197599002e+01    0.4752623      0.30448  75.55  0.001912735    2.451    0.592
       307  -9.7552    163.3040     42.3067   8.1163064631e+01   3.9615743572e+01     0.154706     0.113033  28.62 0.0003008595    1.603    0.376
       308  -9.8629    112.6618     42.0988   9.2794500910e+01   5.2051963347e+01    0.3028487    0.1444826  44.93  0.001236924    2.066    0.516
       309 -10.3998     23.8556     41.4727   1.2482891433e+02   6.5757589701e+01    0.2129179    0.1844663 -50.49  0.001249664    1.158    0.137
       310 -10.0317    226.4149     40.8057   7.1136428950e+01   2.3384511504e+01    0.2385854    0.1855013 -89.89 0.0006491596    1.304    0.233
       311 -11.3124     94.5117     40.4150   9.7502969356e+01   5.6110896900e+01    0.5700211    0.2518515  47.84   0.00217667    2.324    0.570
       312 -10.0751     44.1802     39.8947   1.1570635393e+02   6.4085677313e+01     0.241627    0.1395237 -44.75  0.001062313    1.471    0.320
       313 -11.7671     82.6954     36.8252   9.9931691415e+01   5.8918805556e+01    0.3706433    0.3097774  48.17 0.0009979935    1.359    0.264
       314  -9.4856     19.3846     37.8150   1.2562900877e+02   6.6815639855e+01    0.1669609   0.08093508 -47.28 0.0005062792    1.574    0.365
       315  -9.7063      1.3096     37.8817   1.3365118271e+02   6.7888204591e+01    0.1637802   0.06679415 -54.51 0.0004247268    1.697    0.411
       316 -10.6406    111.1073     33.6315   8.9974564434e+01   5.3659512040e+01    0.4559453    0.3159822 -28.65  0.001192819    1.445    0.308
       317 -11.0726    102.0446     36.9059   9.3834447991e+01   5.5131517389e+01    0.3367282     0.212239  52.56  0.000664739    1.664    0.399
       318 -10.8741    105.7790     34.1431   9.1661682925e+01   5.4750473319e+01    0.2828874     0.247859   8.21 0.0005734914    1.105    0.095
       319 -11.0590     24.4137     35.5353   1.2265250797e+02   6.6858134051e+01    0.2208537     0.206971  -3.36 0.0006341449    1.266    0.210
       320 -11.2496     31.6513     34.0364   1.1891580419e+02   6.6491195131e+01    0.2449696    0.1714231   7.58 0.0005934017    1.603    0.376
       321 -11.5508    145.0685     31.8099   8.1208010572e+01   4.5758971788e+01    0.3720043    0.2755832  29.77 0.0004099281    1.472    0.321
       322 -11.0743     76.2415     33.7382   1.0090610518e+02   6.0551505851e+01    0.2774088    0.2119317   6.84 0.0009075961    1.371    0.271
       323 -10.3296     54.2338     23.3056   1.0480998896e+02   6.5646639403e+01    0.2205722    0.1802977 -14.53  0.000588864    1.029    0.028
       324 -10.7386     53.4059     34.1047   1.0971661885e+02   6.3983551062e+01    0.3801758    0.2106775   4.14   0.00161676    3.213    0.689
       325 -10.5770     57.1520     28.2948   1.0580338266e+02   6.4439015066e+01    0.3678786    0.1684265 -37.80  0.001084168    1.960    0.490
       326 -10.7186      9.0265     33.7664   1.2903925746e+02   6.8288402680e+01    0.2628756    0.2232751 -63.94  0.001140586    1.279    0.218
       327  -9.5475      1.5419     31.4830   1.3182298689e+02   6.9130312125e+01    0.1538172    0.1041984   2.06 0.0001382829    1.747    0.428
       328 -11.6914      6.0404     29.9968   1.2927991454e+02   6.9183143922e+01    0.3666394    0.2015482 -40.70 0.0004065731    1.433    0.302
       329 -11.0655      8.7527     26.0339   1.2670828371e+02   6.9772115338e+01    0.4349116    0.1733555 -30.73  0.002159155    2.688    0.628
       330 -11.0269     97.8590     31.6683   9.2987753299e+01   5.6775996804e+01    0.3702047    0.2564271  10.28  0.001742849    1.709    0.415
       331  -9.0683     90.2425     31.3846   9.5229357267e+01   5.8342837691e+01    0.1396847   0.09776329  -0.02 0.0004263663    1.647    0.393
       332 -10.4552     63.3351     30.5389   1.0432913925e+02   6.3160677984e+01    0.2226764    0.1637889   0.70 0.0002746591    1.434    0.303
       333 -10.9552     81.8854     29.2957   9.7098199864e+01   6.0233518776e+01    0.2346773    0.1760824 -40.36  0.001317668    1.414    0.293
       334 -10.2108     50.0500     27.9527   1.0856353557e+02   6.5471109265e+01    0.2673618    0.1364723 -24.07 0.0009871258    2.299    0.565
       335 -10.3444    138.8755     34.1526   8.3360278283e+01   4.7010039629e+01    0.2737749    0.1881922  64.68 0.0004363263    1.488    0.328
       336 -10.0249    124.3430     28.1293   8.4455138746e+01   5.1354884250e+01    0.2392706    0.1762382  40.28 0.0007527347    1.304    0.233
       337 -11.2439     70.7456     26.4445   9.9790816111e+01   6.2613871624e+01    0.4533752    0.1929982  35.70  0.001963037    2.555    0.609
       338 -10.3883     61.3152     26.6736   1.0345752568e+02   6.4082994605e+01     0.220013     0.140797 -31.44  0.001227571    1.406    0.289
       339 -10.6824     60.6163     23.0199   1.0211749074e+02   6.4750580849e+01    0.3122763    0.2177623 -66.76  0.001498552    3.034    0.670
       340  -9.8128    131.2936     26.5364   8.2244760518e+01   4.9875737106e+01    0.2128063    0.1213313  46.86 0.0007653058    1.651    0.394
       341 -10.4583    113.2218     25.2208   8.6081993420e+01   5.4320074044e+01     0.248329    0.2123922   0.47 0.0004937925    1.166    0.142
       342  -9.8760    112.6612     21.7469   8.4826950381e+01   5.4880507717e+01    0.2113247    0.1798609  25.38 0.0005404508    1.112    0.101
       343  -9.4752     90.5437     26.5269   9.3101203855e+01   5.8981795061e+01    0.1335825    0.1225168   1.39 1.657251e-05    1.051    0.048
       344 -10.4061     17.6903     23.8680   1.2159224600e+02   6.9550976818e+01    0.1774613    0.1490273  -3.70 0.0003388861    1.269    0.212
       345 -10.3221    100.2219     22.7160   8.8587806892e+01   5.7503398487e+01    0.2712635    0.2397575 -58.05  0.001443518    1.416    0.294
       346  -9.3694    168.2388    250.6232   1.2613322424e+02   2.2493293407e+00    0.1599188   0.08511069  37.11 0.0003661871    1.542    0.352
       347  -9.2589     48.6569     23.3176   1.0714601659e+02   6.6407977344e+01    0.1096873   0.09883828 -73.47 0.0007048969    1.717    0.418
       348 -10.0427    137.2712    246.9935   1.3108955266e+02   7.6812259749e+00    0.1545303    0.1297836  54.79 0.0007338246    1.122    0.109
       349 -11.0102      6.2750    245.1690   1.5254348400e+02   2.5166414063e+01     0.254802    0.1211562  77.14 0.0009650279    1.573    0.364
       350 -10.3367    124.0979     21.6673   8.2020429035e+01   5.2212763897e+01    0.2100174    0.1904416 -33.03 0.0002781125    1.184    0.155
       351 -11.8934      8.5235    241.3999   1.5206616679e+02   2.5569480663e+01    0.3601107    0.1404189  67.57  0.002296488    1.921    0.479
       352 -11.1034    146.9701    244.0714   1.2906175724e+02   6.5544444720e+00    0.2515089    0.1306089  43.77 0.0009010972    1.476    0.323
       353  -9.9291     45.0708     20.5317   1.0744663595e+02   6.7314078276e+01    0.1661346    0.1135038  28.32 0.0004809758    1.552    0.356
       354  -9.9342    211.0480     19.4769   6.7197317040e+01   2.9922219853e+01    0.2890346    0.1067658  60.22  0.001081649    2.462    0.594
       355  -9.6961    115.4387    244.2738   1.3462017387e+02   1.1483105505e+01    0.1411194    0.1006063  88.42  0.000944888    1.593    0.372
       356 -10.0346    166.8965     19.1201   7.2932352894e+01   4.1593643468e+01    0.2267982    0.1891525 -80.24  0.001213115    1.253    0.202
       357 -10.9569    159.7921     18.4654   7.3858864591e+01   4.3538748243e+01    0.2423553    0.2378981  57.25 0.0003281902    1.059    0.056
       358 -10.0838     81.5708     18.5592   9.2508630145e+01   6.1787047689e+01    0.2904173    0.1227315 -24.75    0.0012153    2.506    0.601
       359  -9.5119     34.7425     19.6541   1.1171217436e+02   6.8681510255e+01    0.1478458    0.1050702  32.85 0.0005125733    1.657    0.397
       360 -10.4995    109.8482    243.1450   1.3548656926e+02   1.2507126131e+01    0.2545891    0.1551904  65.42  0.001403908    1.545    0.353
       361 -10.2618    107.9569     17.5523   8.4314078456e+01   5.6442021776e+01    0.3183368    0.1960627 -13.63 0.0008869343    1.768    0.435
       362  -9.9126    188.5066     17.0012   6.9192244547e+01   3.6095926980e+01    0.2015397    0.1415593 -27.69 0.0004996597    1.516    0.340
       363 -10.2821      9.8418     16.6878   1.2275064391e+02   7.1390879956e+01    0.1831766    0.1109078 -40.17 0.0003711048    1.239    0.193
       364 -10.2433     72.0047    243.9871   1.4204835466e+02   1.7763602576e+01    0.1712888    0.1266474  62.27 0.0007401891    1.060    0.057
       365 -11.5049     35.0056    241.6179   1.4796078568e+02   2.2726358633e+01     0.378226    0.2179779  46.52  0.002719447    1.508    0.337
       366  -9.8964     76.1289     16.4675   9.3388975441e+01   6.3065830825e+01    0.1852814    0.1194862  42.38  0.001010383    1.532    0.347
       367 -10.3733     59.5450     16.0609   9.9326358626e+01   6.5923127099e+01    0.3436559    0.2130168  25.08  0.001917865    1.668    0.401
       368 -10.0646    166.0376     14.6872   7.1612823377e+01   4.2298173941e+01    0.2106031    0.1726786  65.65 0.0005806924    1.120    0.107
       369 -10.4721    137.0215     20.0711   7.8611686973e+01   4.9223947190e+01    0.2126003    0.1995008  56.27 0.0003169258    1.044    0.042
       370 -10.5519     31.6087    237.1958   1.4827240092e+02   2.3858290849e+01    0.2399694    0.1123593  69.85   0.00091169    1.723    0.420
       371 -10.1452     30.2082     15.9011   1.1217128189e+02   6.9773975281e+01    0.2027734    0.1217925 -47.56 0.0006608205    1.682    0.405
       372  -9.3511    159.2831     13.6449   7.2315450118e+01   4.4184936659e+01    0.1481498    0.1025128 -60.55 0.0007017867    1.664    0.399
       373  -9.3799    115.4784     13.4738   8.0767437811e+01   5.5173334568e+01    0.1360602    0.1263179  34.32 0.0008093636    1.041    0.040
       374 -10.5530     28.8356    232.9824   1.4850063861e+02   2.4890956231e+01    0.4228279    0.1117223  44.43  0.002223047    2.654    0.623
       375 -12.0705    155.8922    241.5399   1.2718532623e+02   5.4670775326e+00    0.3435722     0.193746  34.33  0.001614416    1.678    0.404
       376  -8.9131     51.3223     11.3248   1.0038190005e+02   6.7811201466e+01    0.1273476   0.08173534   0.29 0.0004627141    1.683    0.406
       377  -9.0391    108.2575     10.6272   8.1328320114e+01   5.7132598783e+01    0.1315282    0.1007276 -52.69 0.0003644987    1.650    0.394
       378 -11.6503     74.1183    238.4113   1.4127008528e+02   1.8407241056e+01    0.4951685    0.2481981  52.60  0.003048668    1.501    0.334
       379  -9.3562     56.8288     10.3995   9.7655566122e+01   6.7106102252e+01    0.1682701    0.1027849  28.07 0.0005195311    1.628    0.386
       380 -10.4891    174.5091    238.5063   1.2349957706e+02   2.8237655956e+00    0.2926815    0.1770161  35.95  0.001576754    1.387    0.279
       381 -11.3198    177.5512    234.9814   1.2248466173e+02   2.7933661047e+00    0.2923692    0.1978901  19.33  0.001323921    1.765    0.434
       382 -11.7415     19.6740    238.1073   1.5021240466e+02   2.4990626804e+01    0.4495476    0.1390146  39.74  0.002494353    2.785    0.641
       383 -10.8650    159.9149    235.6598   1.2573341439e+02   5.6385595956e+00    0.2596621    0.1740732  38.11  0.000941971    1.257    0.205
       384 -10.6801     73.7095    232.9742   1.4091376462e+02   1.9388236779e+01    0.2232104    0.1270996  53.89 0.0008071414    1.337    0.252
       385 -10.5892    167.1037    233.8444   1.2420339795e+02   4.6969270096e+00    0.2135771    0.1683546  42.42 0.0009115104    1.007    0.007
       386 -11.0489    153.4020    233.7753   1.2666947248e+02   6.9951174270e+00    0.2130409    0.1681075  12.49 0.0008755343    1.691    0.409
       387 -10.6688     86.2964    233.6821   1.3875949864e+02   1.7516397687e+01     0.202408    0.1216246  88.63  0.001246988    1.795    0.443
