#   1 NUMBER                 Running object number                                     
#   2 MAG_AUTO               Kron-like elliptical aperture magnitude                    [mag]
#   3 X_IMAGE                Object position along x                                    [pixel]
#   4 Y_IMAGE                Object position along y                                    [pixel]
#   5 X_WORLD                Barycenter position along world x axis                     [deg]
#   6 Y_WORLD                Barycenter position along world y axis                     [deg]
#   7 A_WORLD                Profile RMS along major axis (world units)                 [deg]
#   8 B_WORLD                Profile RMS along minor axis (world units)                 [deg]
#   9 THETA_WORLD            Position angle (CCW/world-x)                               [deg]
#  10 FWHM_WORLD             FWHM assuming a gaussian core                              [deg]
#  11 ELONGATION             A_IMAGE/B_IMAGE                                           
#  12 ELLIPTICITY            1 - B_IMAGE/A_IMAGE                                       
         1  -8.6764     38.6099     17.1846   7.9114360048e+01   7.1169847282e+01    0.4110505    0.1526835 -47.27  0.001616649    2.855    0.650
         2  -7.8613     83.3801     11.1498   5.6234671330e+01   6.2966809524e+01    0.1985221    0.1223731 -38.10 0.0009414631    1.722    0.419
         3  -8.5995     55.7018     10.1517   6.6000300570e+01   6.9214030919e+01    0.2038584    0.1857933  62.62 0.0005936381    1.298    0.229
         4  -8.1601     47.4560     10.2227   7.0047449593e+01   7.0788194782e+01     0.182165     0.119308 -43.93 0.0009436819    1.699    0.411
         5  -8.5253     90.8700      9.1356   5.3074133995e+01   6.1367426555e+01    0.2095608     0.186285 -64.62 0.0006034148    1.265    0.209
         6  -8.1305    101.5003      7.9669   4.9894447293e+01   5.8804449382e+01    0.1977644    0.1402826 -23.10 0.0003653145    1.494    0.330
         7  -7.5544      6.2988      8.6305   9.7536656372e+01   7.6566878082e+01    0.1124316   0.09311657  74.41 0.0007030878    1.736    0.424
         8  -8.4345     33.8341      5.7561   7.4922292795e+01   7.3801954713e+01    0.2349697    0.1634654 -58.33  0.001227471    2.188    0.543
         9  -8.5685     79.1199      4.3252   5.3860338479e+01   6.4735142225e+01    0.2675241     0.161082 -42.66  0.001243151    1.883    0.469
        10  -7.9847    246.6990      9.3064   3.4178241717e+01   2.2618443306e+01    0.1292411   0.06821445 -53.39 0.0002972799    1.596    0.373
        11  -8.2944     62.4308      1.4415   5.7797921207e+01   6.8868306647e+01    0.2096571    0.1297015  70.38 0.0004421354    2.023    0.506
        12  -7.7346     39.4390      1.4751   6.8577811862e+01   7.3471008983e+01    0.1274118    0.1124152   3.65 0.0001000964    1.023    0.023
        13  -9.2220    120.1766    245.2161   1.0302085758e+02   1.0883172089e+01    0.2876786    0.1898015  69.26  0.001627841    2.209    0.547
        14  -9.8831    248.6003    242.5221   8.0433408681e+01  -4.8766525383e+00    0.3190454    0.1468028 -32.85  0.002018098    2.468    0.595
        15  -8.1269    191.4627    249.9165   9.0563691259e+01   1.0587924650e+00    0.1262427   0.09988253 -23.53 0.0009963877    1.526    0.345
        16  -8.4071     93.8548    249.5606   1.0845944615e+02   1.3614738257e+01    0.2040539    0.1009034  56.44 0.0009735817    2.154    0.536
        17  -7.9528     25.6866    250.3541   1.2141097708e+02   2.1151066346e+01    0.1153495    0.0487074  55.08  0.000704516    1.734    0.423
        18  -8.4223     67.4720    244.7066   1.1320589994e+02   1.7552997610e+01    0.1733528    0.1042834 -84.77  0.001092886    2.052    0.513
        19  -8.2881     50.2489    244.5008   1.1652675042e+02   1.9541781291e+01    0.2047118   0.07553381  85.94 0.0009011723    4.458    0.776
        20  -9.2913      9.2900    243.2961   1.2421132512e+02   2.3855143429e+01    0.3044952   0.07991379  71.15  0.001370955    4.024    0.752
        21  -8.8082    202.0064    242.9858   8.7886504704e+01   5.0074649160e-01    0.2489453    0.1399483 -32.81  0.001305524    2.065    0.516
        22  -8.4034    169.0239    243.4619   9.3703513299e+01   4.6642771594e+00    0.1627684    0.1523326  56.21 0.0006221602    1.564    0.360
        23  -8.3933    139.4171    244.2304   9.9259217338e+01   8.4811617981e+00    0.1281904    0.1089727 -86.89 0.0008771532    1.760    0.432
        24  -8.8098     77.9873    243.7327   1.1108928489e+02   1.6455044215e+01    0.2582173    0.1115844  56.84  0.001352886    2.416    0.586
        25  -7.6960     58.3303    244.6331   1.1497421349e+02   1.8617984398e+01    0.1213912   0.05713257  55.61 0.0007034722    1.817    0.450
        26  -8.4242     34.3976    244.1583   1.1954247224e+02   2.1284109255e+01    0.1425571   0.07937698  73.02 0.0009489923    1.721    0.419
        27  -8.3381    195.5257    243.4807   8.9050091637e+01   1.2554261553e+00    0.1843113   0.07882838  26.50 0.0006165208    1.987    0.497
        28  -9.4830    160.3686    240.7070   9.4948881149e+01   6.1523656750e+00    0.2995039    0.2272821  83.40  0.001657926    2.723    0.633
        29  -8.3817    213.9866    242.2644   8.5801909602e+01  -8.8876698306e-01    0.1528605    0.1080666  13.27  0.001162983    1.038    0.037
        30  -9.3058    183.3590    240.4772   9.0772911235e+01   3.1502990707e+00    0.3243145    0.2169783  54.78  0.001956601    2.481    0.597
        31  -8.3445    153.3137    241.9965   9.6406738240e+01   6.9273065553e+00    0.1487144    0.1262994  27.63 0.0008908355    1.160    0.138
        32  -8.2846     88.1677    242.0088   1.0896179648e+02   1.5472428099e+01    0.1675429    0.1212499  86.81 0.0006881552    1.717    0.417
        33  -8.4242    146.2483    240.0211   9.7502829478e+01   8.1349659821e+00    0.2104983    0.1456221  56.34 0.0009449312    1.845    0.458
        34  -8.0588    240.5675    240.2631   8.1325376401e+01  -3.7861264387e+00    0.1336347   0.07732221 -10.86 0.0009469019    1.578    0.366
        35  -8.2123    193.9266    239.7058   8.8829606921e+01   1.8784835815e+00     0.153293    0.1067359  25.04 0.0004133978    1.097    0.089
        36  -8.7380    135.3592    238.9483   9.9456699741e+01   9.7495739732e+00    0.2053085    0.1248859  47.74 0.0008926306    1.583    0.368
        37  -8.2469    129.0188    238.8289   1.0066660736e+02   1.0620412547e+01    0.1925712    0.1019369  50.75 0.0008534488    1.997    0.499
        38  -8.9548    230.8005    237.1807   8.2402352528e+01  -2.3733563418e+00     0.186305     0.171019 -37.44  0.001330433    2.054    0.513
        39  -7.9922    209.0366    238.5266   8.6110692434e+01   1.0791624312e-01     0.155807   0.08249479  31.89 0.0003539043    1.504    0.335
        40  -8.8270     25.4494    237.1579   1.2097033023e+02   2.3359981302e+01     0.228927   0.07222644  53.55   0.00120102    2.299    0.565
        41  -9.7907    214.7716    233.2340   8.4425705324e+01  -3.7120213133e-02    0.3658524    0.3078745 -89.11  0.002277714    3.547    0.718
        42  -8.7874    203.0869    234.6138   8.6574358643e+01   1.2815490702e+00    0.2107928    0.1489697 -42.52  0.001026664    2.051    0.512
        43  -9.7507    175.8604    233.5854   9.1221185652e+01   4.9740024389e+00    0.3499417    0.2111502 -53.76  0.002083065    2.733    0.634
        44  -8.2707    170.3182    236.0959   9.2553699618e+01   5.4046030724e+00    0.1280791    0.1052411 -51.78 0.0005631607    1.792    0.442
        45  -9.0845    109.2870    234.6791   1.0412358854e+02   1.3882138484e+01    0.4895503     0.171972  47.11  0.001418593    2.621    0.618
        46  -7.9578     58.0006    237.0000   1.1457944396e+02   1.9909322543e+01    0.1892885   0.04969209  32.50 0.0008083449    2.984    0.665
        47  -9.0372    247.7688    234.5189   7.9419957044e+01  -4.0526634323e+00    0.1859654     0.132179  -5.47 0.0009302761    1.198    0.165
        48  -9.2681    151.3094    228.9705   9.5221972967e+01   8.9549927260e+00    0.2770671    0.2051636  86.48   0.00135016    2.619    0.618
        49  -9.3638    148.7820    224.9339   9.5206491403e+01   9.8813341282e+00    0.2956794    0.2168264  67.98  0.001445811    2.127    0.530
        50  -8.2218     99.8172    234.6789   1.0601884411e+02   1.5132467902e+01    0.2158776    0.1262998  65.36  0.001229493    2.177    0.541
        51  -9.0562     78.7103    234.4781   1.1025281328e+02   1.7856806348e+01    0.2231799    0.1317648  65.01  0.001174003    1.819    0.450
        52  -9.4473     68.3588    232.5147   1.1220130932e+02   1.9447554118e+01    0.4355493    0.1476005  56.75  0.001846931    3.475    0.712
        53  -8.3927    194.6179    233.0650   8.7817417916e+01   2.5491582468e+00    0.1422267    0.1335972   4.81  0.000746979    1.471    0.320
        54  -9.1784    141.5228    231.1979   9.7384310356e+01   1.0002627265e+01      0.53411    0.1982628  50.82  0.001987451    4.497    0.778
        55  -8.3706    132.9062    232.9408   9.9266388713e+01   1.0941023487e+01    0.1833907    0.1193479  54.81  0.001121989    1.757    0.431
        56  -8.4213     92.5621    232.2577   1.0726503624e+02   1.6464217102e+01    0.2641653    0.1182299  58.42  0.001252942    2.820    0.645
        57  -9.0589    235.8530    230.7103   8.0685231632e+01  -2.3241430340e+00    0.2236436    0.1377487 -15.81 0.0009167454    1.499    0.333
        58  -9.2281    186.3791    230.8288   8.8962324958e+01   3.9021706516e+00    0.2371289    0.2001374  76.58   0.00128046    2.328    0.571
        59  -8.2510    123.0851    234.2620   1.0134184448e+02   1.2088555148e+01    0.1988145    0.1312522  65.18 0.0006829537    2.064    0.515
        60  -8.4696      1.8510    231.0945   1.2530184570e+02   2.6590828002e+01    0.1733145   0.09115738  55.70 0.0006989291    1.331    0.249
        61  -9.5035    246.6402    228.4615   7.8704930749e+01  -3.3513929236e+00    0.4034069    0.1703817 -20.51  0.002350271    2.430    0.589
        62  -7.8985    229.5995    228.8661   8.1398570578e+01  -1.3938427946e+00    0.1266286   0.09219322 -30.23 0.0005622545    1.704    0.413
        63  -8.8488    162.2690    227.7804   9.2981476617e+01   7.5888684900e+00    0.2562366    0.1700346  53.22  0.001285095    1.957    0.489
        64  -8.9032    127.9588    227.3620   9.9615966688e+01   1.2454747605e+01    0.2677508    0.1719662  57.31  0.001206265    1.848    0.459
        65  -7.8411    120.0091    227.7831   1.0126049545e+02   1.3493818877e+01    0.1942066    0.1042784  52.25 0.0009887995    1.967    0.492
        66  -9.0682      8.1605    228.0134   1.2401117437e+02   2.6579049819e+01    0.1862243   0.07320942  61.50 0.0008999137    1.973    0.493
        67  -7.9156    223.4676    227.0461   8.2115045454e+01  -4.5504182316e-01    0.1460682   0.09357914 -22.40 0.0005119622    1.562    0.360
        68  -8.7322    205.9679    226.1062   8.4885337965e+01   1.8713862808e+00    0.2111915    0.1492251 -40.56 0.0008412062    1.936    0.483
        69  -7.7228    177.3203    227.2911   9.0117105819e+01   5.5693978573e+00    0.1162156   0.07441926  10.74 0.0004013291    1.605    0.377
        70  -7.2665     59.3240    227.6962   1.1371421556e+02   2.1346081075e+01    0.1228129   0.06349219  54.89 0.0007031672    1.639    0.390
        71  -8.2699     49.2184    226.8608   1.1573758069e+02   2.2649301429e+01    0.2395938    0.1146146  58.25  0.001315973    1.837    0.456
        72  -7.8989    200.2315    226.4321   8.5917006606e+01   2.5856743099e+00     0.142889   0.08833519  36.75 0.0003403889    1.495    0.331
        73  -9.0895     94.2438    224.5635   1.0621791030e+02   1.7512724394e+01    0.3804977    0.1726328  56.73  0.001744603    2.600    0.615
        74  -8.7632    180.6456    224.5393   8.9131967597e+01   5.4628538576e+00     0.224171    0.1669879  48.29  0.001020137    1.680    0.405
        75  -8.9228    104.7793    223.8159   1.0395724262e+02   1.6219473237e+01    0.2788634    0.1705367  62.99  0.001587915    1.969    0.492
        76  -7.9205     71.6713    225.7018   1.1101572288e+02   2.0210562164e+01    0.1043962   0.08670463   4.47 0.0003397283    1.638    0.389
        77  -8.0714     38.4463    224.9572   1.1783904357e+02   2.4163952977e+01    0.1577913   0.06634224  66.54 0.0007908725    2.418    0.586
        78  -8.7563    216.5169    223.5542   8.2739922964e+01   7.9766857452e-01    0.1848939    0.1642484   1.32 0.0007568949    1.404    0.288
        79  -8.1353    113.8314    224.0257   1.0211190186e+02   1.4941154745e+01    0.1831589    0.1202715  66.09  0.001064477    1.962    0.490
        80  -8.0745     59.7772    223.9897   1.1336845340e+02   2.1945181003e+01    0.1930947   0.09626688  61.92 0.0009670006    1.989    0.497
        81  -9.2825    192.4631    221.4759   8.6568746991e+01   4.2242543770e+00    0.2434998    0.2219273  76.21  0.001226494    1.932    0.482
        82  -8.4331    172.9317    223.1219   9.0358601771e+01   6.7202165264e+00    0.1660789    0.1369647  38.60  0.000490666    1.312    0.238
        83  -9.2055    160.4399    221.3534   9.2483046251e+01   8.7296182589e+00    0.5072556    0.2124601  50.57  0.002057875    3.770    0.735
        84  -8.3264    140.3245    222.6964   9.6593651670e+01   1.1411554261e+01    0.1756646    0.1202642  56.41 0.0007392972    1.768    0.434
        85  -8.9434    238.9168    221.5317   7.8847528704e+01  -1.7617735468e+00    0.1670115     0.134642 -23.88  0.000680139    1.582    0.368
        86  -8.8494    225.5053    221.9332   8.1028221621e+01  -1.6162416701e-01    0.1768259    0.1298427  31.28   0.00057199    1.422    0.297
        87  -9.2966      7.5126    221.7595   1.2395972031e+02   2.7758663994e+01    0.3145658   0.08102045  41.22  0.001619576    2.309    0.567
        88  -9.1970    120.3285    219.2515   1.0024142986e+02   1.4798020514e+01    0.3957411    0.1965783  55.59  0.001848781    2.590    0.614
        89  -8.9251     82.4453    220.4182   1.0831629831e+02   1.9770433956e+01    0.2536038    0.1455586  57.64 0.0008671184    1.695    0.410
        90  -8.2285     72.9587    220.9101   1.1036695677e+02   2.0890899864e+01    0.1986997    0.1074517  57.68 0.0007813486    1.756    0.430
        91  -8.1681     27.6345    221.2029   1.1987322853e+02   2.5961191582e+01    0.1395974   0.09287932 -72.09  0.000948186    1.742    0.426
        92  -7.9586    202.7884    220.5390   8.4620292157e+01   2.9407603718e+00    0.1452727   0.09131734  37.90 0.0005801754    1.539    0.350
        93  -8.2364    210.0392    219.0382   8.3154795861e+01   2.1521932378e+00    0.1444399    0.1300226  33.24 0.0004685986    1.554    0.357
        94  -9.3396    132.7518    216.0030   9.7292262907e+01   1.3529984328e+01    0.4123121    0.2563605  69.20  0.002039537    2.893    0.654
        95  -8.3583    111.9805    217.4806   1.0178076500e+02   1.6269290742e+01    0.2318542    0.1245011  67.16  0.001021077    3.344    0.701
        96  -9.0282     51.5961    217.3050   1.1464179229e+02   2.4105076517e+01    0.2561454    0.1389789  71.65  0.001051351    1.922    0.480
        97  -8.6653    169.0552    216.2388   9.0131013604e+01   8.2042977277e+00    0.2091725    0.1653178 -52.88 0.0006343692    1.773    0.436
        98  -8.7276    143.1075    216.6078   9.5265908627e+01   1.1927186333e+01    0.2334534     0.174592  66.90  0.001220765    1.893    0.472
        99  -8.5104     61.6464    216.9507   1.1246923176e+02   2.2991128902e+01    0.2130771    0.1263794  74.50  0.001043269    1.828    0.453
       100  -8.2840     18.5852    216.2826   1.2152976667e+02   2.7752920035e+01    0.1907017   0.09202255  86.80  0.001117287    2.044    0.511
       101  -9.6290    231.7125    213.1830   7.8694531727e+01   5.9625869509e-03    0.2930966    0.2017936 -41.43  0.001448635    2.145    0.534
       102  -8.1087    154.2301    215.2073   9.2863215372e+01   1.0510052683e+01    0.1538666    0.1302984  50.88 0.0005189463    1.371    0.271
       103  -9.0507     93.0600    214.0637   1.0544688969e+02   1.9479247576e+01    0.3257966    0.1560348  52.53   0.00163191    2.046    0.511
       104  -9.5537     73.3208    212.2400   1.0956392189e+02   2.2411615793e+01    0.6347756    0.1921964  54.17  0.002257764    4.225    0.763
       105  -8.3618    185.6086    214.1911   8.6741656703e+01   6.1061747246e+00    0.1528462    0.1463516 -19.86 0.0008602769    1.428    0.300
       106  -9.3278    213.7818    212.0869   8.1462128567e+01   2.4670076254e+00    0.2535043    0.2004049  42.08  0.001711294    1.653    0.395
       107  -8.5284    199.3860    213.0881   8.4099855883e+01   4.3110212918e+00    0.2091098    0.1277506  23.45 0.0006381808    1.381    0.276
       108  -8.6258    161.7858    212.5041   9.1005061834e+01   9.7944736059e+00    0.1853035     0.163036 -83.25 0.0007446997    1.736    0.424
       109  -8.5117    106.3919    213.1300   1.0248281512e+02   1.7793902933e+01    0.1516958    0.1130749  88.86 0.0006557641    1.734    0.423
       110  -8.0186    224.8183    212.5816   7.9709764732e+01   9.5468837830e-01    0.1417527   0.09157526  37.09 0.0004243075    1.608    0.378
       111  -9.1929    204.3444    211.0985   8.2926610722e+01   3.8708603608e+00     0.226373    0.1946334 -40.19 0.0008772481    1.658    0.397
       112  -8.7897    201.2897    208.6971   8.3089222583e+01   4.5949185672e+00    0.1824019    0.1422336  11.12   0.00020717    1.035    0.034
       113  -9.3645    175.4397    210.0659   8.8025083172e+01   8.1317451256e+00    0.3236267    0.2311241  61.18  0.001316645    2.310    0.567
       114  -9.2059      6.8583    209.7859   1.2373253495e+02   3.0044205231e+01    0.4578853   0.09626111  64.94  0.001664565    4.850    0.794
       115  -8.2321    192.2944    210.6197   8.4989556607e+01   5.6207601591e+00    0.1772133     0.140538 -43.04 0.0007948701    1.694    0.410
       116  -8.8949    147.8506    210.4581   9.3489261325e+01   1.2168172250e+01    0.2672598    0.1816917  58.78   0.00119321    1.959    0.490
       117  -9.2453    116.3685    210.5709   1.0005613680e+02   1.6803273694e+01     0.298739    0.1683883  55.57 0.0009935163    2.009    0.502
       118  -8.2184     32.7987    210.9609   1.1828881993e+02   2.7348660320e+01    0.3392638          nan  46.28  0.001112451    4.894    0.796
       119  -9.0831    236.6796    208.6934   7.7203256471e+01  -1.3264650840e-01    0.2414255    0.1832864 -40.79  0.001017787    2.004    0.501
       120  -9.0254     85.3624    209.0076   1.0662218565e+02   2.1430160813e+01    0.3247961    0.1871311  79.13  0.001545344    2.427    0.588
       121  -9.1807    124.8074    206.7583   9.7785584389e+01   1.6207847954e+01     0.390135    0.2234185  63.53 0.0004409603    2.760    0.638
       122  -7.5781    179.2927    217.6633   8.8410820032e+01   6.5456842253e+00    0.1052985   0.08793703  53.37 0.0005490699    1.643    0.391
       123  -9.2944    246.4092    207.2698   7.5479174029e+01  -1.1898118977e+00    0.2114788    0.1531451 -17.68 0.0005887722    1.308    0.235
       124  -9.4895    249.9739    201.8253   7.4063531676e+01  -1.0527527225e+00    0.3884206    0.1666983 -33.90   0.00220986    2.360    0.576
       125  -7.9312    156.4400    208.1942   9.1447453030e+01   1.1226765938e+01    0.1433879     0.121361 -66.24 0.0008654296    1.679    0.405
       126  -8.4364    139.0759    207.7669   9.4919286243e+01   1.3905557569e+01    0.1853924    0.1685593  85.45 0.0006430693    1.423    0.297
       127  -9.1636     99.2905    206.0090   1.0323560911e+02   2.0054705310e+01    0.3364463     0.218519  78.01  0.001404479    2.083    0.520
       128  -8.6224     56.3568    205.5301   1.1276739968e+02   2.5772344179e+01    0.3177748    0.1303418  54.56  0.001492127    2.245    0.555
       129  -8.1302     11.8203    206.5962   1.2258163961e+02   3.0218149754e+01    0.1606009   0.07369175  42.72 0.0006736753    1.616    0.381
       130  -9.2712    192.4344    197.4809   8.2895737743e+01   7.3487534673e+00    0.2699478    0.2066531 -42.42 0.0009106591    1.649    0.394
       131  -8.9608    183.8366    204.1058   8.5540450055e+01   7.7188167747e+00    0.2697559    0.1983691  58.41 0.0009658306    2.105    0.525
       132  -8.5174    109.0001    204.9882   1.0098345067e+02   1.8843727227e+01    0.2038441    0.1684945  87.63 0.0008659203    1.454    0.312
       133  -8.1166     92.4143    205.2358   1.0467443960e+02   2.1160016650e+01    0.1562229    0.1135426  86.21 0.0006964249    1.650    0.394
       134  -8.3497     25.0492    205.0553   1.1966709844e+02   2.9273090616e+01    0.2040013    0.0944614  58.41 0.0008241087    1.772    0.436
       135  -8.6042    211.1143    202.6460   8.0421920645e+01   3.9728643579e+00    0.2181839    0.1577974 -45.06 0.0006279716    1.976    0.494
       136  -9.5444    163.6945    202.8004   8.9215747417e+01   1.0939431094e+01    0.3475184    0.2552117  58.69  0.001046055    1.870    0.465
       137  -8.6097    131.2031    204.0574   9.6071859314e+01   1.5701359367e+01    0.2437082    0.1385269  54.37 0.0008797888    2.073    0.518
       138  -8.7092     80.1140    201.5677   1.0705993158e+02   2.3527988363e+01    0.3454168    0.1776084  71.46  0.001566206    2.808    0.644
       139  -9.1744    243.0152    200.8082   7.4947901262e+01  -7.4430677448e-02    0.2515447    0.1392609 -29.99 0.0009636394    1.768    0.434
       140  -9.0486    140.5786    200.9978   9.3670092026e+01   1.4776502459e+01    0.3339942     0.222123  66.59  0.001641822    2.349    0.574
       141  -8.2564     48.3862    202.1865   1.1431122377e+02   2.7355112871e+01    0.1665777   0.09820943  81.05 0.0009491118    1.767    0.434
       142  -9.4930    194.9109    203.4538   8.3403828731e+01   6.1817727715e+00    0.3738049      0.25803 -19.56 0.0009846685    1.490    0.329
       143  -9.2610    237.0502    198.9727   7.5568275425e+01   8.9627267384e-01    0.2376966    0.1430249 -34.48   0.00118265    1.832    0.454
       144  -9.3875    149.5049    198.6690   9.1471659398e+01   1.3771789841e+01    0.3235879    0.2451304  79.62  0.001189863    2.174    0.540
       145  -9.2681    123.2525    198.6684   9.7063137473e+01   1.7834054574e+01    0.4019725    0.2388071  66.92  0.001852793    2.751    0.636
       146  -9.3765    112.6640    198.3580   9.9358443114e+01   1.9491381836e+01    0.4356383    0.2254182  57.34   0.00162687    2.450    0.592
       147  -9.1083     88.6520    198.4810   1.0479410375e+02   2.2950420221e+01    0.3585793     0.215975  81.64  0.001497904    2.296    0.565
       148  -8.4559    177.0055    199.0260   8.6038304375e+01   9.4630491368e+00    0.1854227    0.1577496  23.37  0.000484611    1.088    0.081
       149  -8.2612    202.2630    197.7830   8.1173423085e+01   5.8569664140e+00    0.1860925    0.1385947 -29.61 0.0007271737    1.445    0.308
       150  -9.1555     61.5046    197.2138   1.1092156007e+02   2.6780596964e+01    0.3599466    0.1712194  59.22  0.001254552    2.132    0.531
       151  -8.4361     12.8249    198.2145   1.2204590078e+02   3.1776116950e+01    0.2152728    0.0593412  55.80 0.0009469255    2.829    0.646
       152  -8.6651    215.8479    195.6198   7.8461324573e+01   4.1794132890e+00    0.1979928     0.147462 -44.78 0.0007920967    1.906    0.475
       153  -8.9784    185.2522    195.0030   8.3825304065e+01   8.7797687248e+00    0.2331712    0.2092965 -69.83 0.0007379206    1.734    0.423
       154  -8.0643    133.1990    196.1426   9.4552886295e+01   1.6737633326e+01    0.1700627    0.1393597  59.15 0.0005419051    1.361    0.265
       155  -7.9484     53.6385    196.3476   1.1267109197e+02   2.7906996739e+01    0.1396488   0.06998988  58.05 0.0007027333    1.854    0.461
       156  -8.1105    230.8852    194.5827   7.5811640898e+01   2.2209316095e+00    0.1706929    0.1206312 -26.35 0.0005358126    1.424    0.298
       157  -8.6466    224.6945    194.3044   7.6767407128e+01   3.1017326855e+00    0.2290071    0.1370438 -42.20  0.001141072    2.195    0.544
       158  -7.6850    209.2876    195.6570   7.9590864767e+01   5.1129195127e+00   0.09906727   0.09687043  69.89 0.0005500101    1.646    0.393
       159  -8.9848    160.7746    194.2418   8.8487852530e+01   1.2707415403e+01    0.2675302    0.2160453  76.52 0.0009020912    1.930    0.482
       160  -8.9695     43.7648    193.5286   1.1475334700e+02   2.9616406799e+01    0.3929017    0.1693066  66.65  0.001803466    2.569    0.611
       161  -9.0568    245.5160    193.5042   7.3352800689e+01   4.1084722746e-01    0.1978284    0.1642744 -35.56  0.000703943    1.727    0.421
       162  -8.7005     76.9325    193.9065   1.0701820519e+02   2.5447619339e+01    0.2481477    0.1668565  66.82  0.000616763    1.523    0.343
       163  -7.8676    205.2031    191.8954   7.9673622131e+01   6.1997389705e+00    0.1445777   0.08956546 -33.08 0.0004414364    1.685    0.407
       164  -8.2713    198.8191    192.0546   8.0837918595e+01   7.1308883768e+00    0.1688862    0.1565566  12.37  0.000625852    1.282    0.220
       165  -8.1066    179.1670    191.8502   8.4466657123e+01   1.0177325140e+01    0.1750637    0.1589726  33.35 0.0004976747    1.248    0.199
       166  -8.4584    172.4846    191.8085   8.5760177624e+01   1.1233379089e+01    0.2149835    0.1830683 -78.75  0.001234723    1.866    0.464
       167  -9.1893    139.6215    190.8109   9.2386224733e+01   1.6640807262e+01    0.3251262    0.2432408  78.02  0.001046934    2.029    0.507
       168  -8.6591    242.1193    190.0557   7.3284640898e+01   1.2420446315e+00    0.3329616    0.1346937 -19.72  0.001548269    2.963    0.663
       169 -10.5078     91.8921    188.7021   1.0292249291e+02   2.4390218495e+01    0.9269019    0.2477149  46.36  0.003190482    3.557    0.719
       170  -8.3264     90.3206    182.3154   1.0251540084e+02   2.5899490768e+01    0.2037512    0.1569533 -31.27 0.0008087668    1.751    0.429
       171  -8.4704     21.7713    191.7705   1.1974174051e+02   3.2256069841e+01    0.1939353   0.05448639  39.43  0.000878207    2.455    0.593
       172  -8.5574    148.6190    189.5045   9.0263693733e+01   1.5417715432e+01    0.1981087    0.1605655 -81.69   0.00100762    1.815    0.449
       173  -9.0527    129.3554    188.6765   9.4315316212e+01   1.8655907479e+01    0.2779886    0.2104111  70.54 0.0008923355    1.712    0.416
       174  -8.2734    237.1566    188.4159   7.3770508787e+01   2.0951073467e+00    0.1797149    0.1125947 -28.60 0.0007533855    1.539    0.350
       175  -8.6935    216.5542    188.0407   7.7054830067e+01   5.0349341781e+00    0.2057391    0.1846524 -37.96 0.0008101593    1.557    0.358
       176  -9.0942    155.8338    187.4520   8.8423927105e+01   1.4590698118e+01    0.2741935    0.2067795 -66.65 0.0009779676    1.940    0.485
       177  -9.8250    120.9001    186.7502   9.5933993233e+01   2.0351433939e+01    0.4722486    0.2871018 -80.64  0.002124806    2.919    0.657
       178  -9.5831     54.4273    187.6137   1.1176246149e+02   2.9601646819e+01    0.3757325    0.2496473  81.80  0.001827193    1.529    0.346
       179  -8.9116     34.3629    188.3776   1.1660912803e+02   3.1700015249e+01    0.3001987    0.1476386  67.92  0.001121797    1.975    0.494
       180  -8.8787    191.4861    187.7635   8.1452223453e+01   8.8482773425e+00    0.2073622    0.1897714  54.41  0.001247505    1.503    0.335
       181  -7.8186    230.5247    187.5042   7.4661771562e+01   3.1136080896e+00    0.1158786   0.09299923   3.26 0.0001907176    1.056    0.053
       182  -8.7679    164.7872    186.6729   8.6456091254e+01   1.3263252126e+01    0.2162706    0.2049338  77.79 0.0007371937    1.394    0.283
       183  -9.1927    109.6723    186.1185   9.8424980074e+01   2.2228519800e+01    0.3534701    0.2115668  64.01  0.001033849    2.207    0.547
       184  -8.6367    249.2009    185.6409   7.1458060767e+01   8.1215577651e-01    0.1967413    0.1573122 -36.83  0.001073409    1.717    0.418
       185  -8.8316    210.2525    184.4178   7.7504273280e+01   6.4384526733e+00    0.2053346    0.1759871 -24.11 0.0006515965    1.310    0.237
       186  -8.4708    202.8517    184.7586   7.8865576399e+01   7.5145923213e+00    0.1928838    0.1613738 -61.79 0.0006807206    1.971    0.493
       187  -8.5841    183.0748    184.9065   8.2549454673e+01   1.0589082820e+01    0.1784234    0.1648292  45.90 0.0006164102    1.355    0.262
       188  -9.0400     66.7027    184.6910   1.0852052215e+02   2.8676479837e+01    0.3822759     0.179211  52.67  0.001207094    1.996    0.499
       189  -8.2205    224.2507    183.9420   7.5058250743e+01   4.4400543504e+00    0.1636863    0.1290681  -7.02 0.0004880352    1.098    0.089
       190  -8.8400    174.1995    183.6538   8.4062814541e+01   1.2209438908e+01    0.2244368    0.1979249 -89.17 0.0007082002    1.722    0.419
       191  -7.9600      1.8083    183.8103   1.2399781614e+02   3.5649775830e+01    0.1714963   0.09619179  55.96  0.001055319    1.378    0.274
       192  -8.2830    196.8621    183.3763   7.9704911445e+01   8.6328797658e+00    0.1648238    0.1454673 -10.01 0.0005896131    1.173    0.148
       193  -9.2156     44.3422    182.4872   1.1378340009e+02   3.1858646548e+01    0.2928447     0.163191  66.78 0.0008889132    1.740    0.425
       194  -8.3242     19.5318    183.0261   1.1981484136e+02   3.4293118943e+01    0.1799264   0.06985047  68.78 0.0008096811    2.561    0.609
       195  -9.3067    147.4817    180.4801   8.9059836368e+01   1.7145931572e+01    0.3178338    0.2563155 -84.58  0.001180223    1.809    0.447
       196  -8.1575    235.4608    181.5288   7.2834499097e+01   3.1467149823e+00    0.1166107   0.09249502   0.93  0.000269837    1.028    0.028
       197  -9.5019     25.6115    179.0463   1.1812414902e+02   3.4566594599e+01    0.6010866    0.1976139  68.28  0.002257218    3.779    0.735
       198  -7.7240    240.4561    180.5053   7.1878968307e+01   2.5768136216e+00     0.116088   0.09077335  -0.42 0.0003030719    1.017    0.016
       199  -8.7143    137.6908    179.3756   9.1028036188e+01   1.8974306004e+01    0.2676794    0.1992271  66.75 0.0009915316    1.753    0.429
       200  -8.5716    204.9594    177.8355   7.7263726808e+01   8.1442813489e+00    0.2500229     0.165209 -36.91 0.0008343843    1.626    0.385
       201  -9.2715    191.6080    178.5288   7.9818481833e+01   1.0164146062e+01    0.2619113     0.212407  50.93 0.0006360402    1.546    0.353
       202  -8.3053    169.4080    178.7099   8.4169088608e+01   1.3779278423e+01    0.2143616    0.1261313 -46.78 0.0006746953    1.990    0.497
       203  -9.0526     36.1144    177.1133   1.1540285131e+02   3.3917832996e+01    0.5112213    0.1886582  71.90  0.001902033    3.769    0.735
       204  -9.4354    248.4574    176.3702   6.9938831153e+01   1.9708412606e+00    0.3633678    0.2066257 -37.01   0.00218094    1.913    0.477
       205  -8.6347    250.5281    172.8977   6.9011650818e+01   2.0941898775e+00    0.2143277     0.118126 -30.62 0.0007126211    1.660    0.397
       206  -8.5385    231.1137    177.0310   7.2718824187e+01   4.3150879605e+00    0.2206348    0.1483471 -32.61 0.0007826301    1.527    0.345
       207  -8.7718    129.1210    177.4231   9.2649798181e+01   2.0758865092e+01    0.2741716    0.1933597  71.72 0.0009868129    2.007    0.502
       208  -8.9359     97.7742    177.4218   1.0006795113e+02   2.5781037442e+01    0.3453523    0.2123423   8.75  0.001469922    2.861    0.650
       209  -9.5279    104.2093    174.9244   9.8152103503e+01   2.5290396094e+01    0.5250266    0.2789134  57.80  0.002274395    2.292    0.564
       210  -8.3289    217.6002    177.1430   7.4953073738e+01   6.2956163719e+00    0.1718691    0.1391457 -34.23 0.0005539831    1.440    0.306
       211  -8.9972    183.1710    176.2549   8.1013694783e+01   1.1880984860e+01    0.2336967    0.2092399 -48.48 0.0006709574    1.427    0.299
       212  -8.9204     89.0216    176.8364   1.0213691124e+02   2.7217296505e+01    0.2661834    0.1947375  70.21  0.001011201    1.466    0.318
       213 -10.2595     56.7253    173.3612   1.0987142920e+02   3.2368976942e+01    0.7199674    0.3529351  69.52  0.002429944    2.500    0.600
       214  -8.6634     12.8483    176.9251   1.2111406484e+02   3.6196638241e+01    0.2865631    0.1209015  53.29  0.001303997    1.908    0.476
       215  -9.2047    158.8819    175.0192   8.5698612691e+01   1.6163406921e+01    0.3498673    0.2703806  84.21  0.001124347    2.151    0.535
       216 -10.7120     75.8930    169.2883   1.0449109357e+02   3.0722928647e+01     1.283007     0.513488 -73.37  0.004917972    3.293    0.696
       217  -9.5173     81.6218    155.0312   1.0104834831e+02   3.3058223484e+01    0.4834047    0.2747073  55.36  0.001452662    1.826    0.452
       218  -8.2347    224.4863    174.5004   7.3329896175e+01   5.6077820760e+00    0.2194249     0.106894 -32.46 0.0006564633    1.969    0.492
       219  -9.2095    175.7944    172.3275   8.1751148125e+01   1.3730663756e+01    0.3057317    0.2313877 -44.47 0.0009797057    1.522    0.343
       220  -8.5464    143.0442    172.7991   8.8744876166e+01   1.9262405175e+01    0.2220291    0.1790101 -73.49 0.0008613924    1.653    0.395
       221  -8.5753    134.8402    172.0759   9.0471018463e+01   2.0798808266e+01    0.2062539    0.1751414  59.09 0.0006506428    1.276    0.216
       222  -9.7338    121.4204    170.5027   9.3336560140e+01   2.3372449668e+01    0.4183654    0.3147072  87.27  0.001159227    1.802    0.445
       223  -9.3213     45.0364    170.9268   1.1264122386e+02   3.4297697628e+01     0.379436    0.1984966  76.10  0.001443133    2.102    0.524
       224  -8.1612    205.9600    170.8952   7.5817112721e+01   8.9592045413e+00    0.1703617    0.1572217 -72.92 0.0007363774    1.673    0.402
       225  -8.5870    198.7814    170.4839   7.7028715875e+01   1.0179115757e+01    0.2194654    0.1645896 -50.68 0.0007860395    1.804    0.446
       226  -8.2640    237.1365    169.6848   7.0435526710e+01   4.3585955576e+00    0.1891815    0.1430057 -28.62 0.0006277835    1.348    0.258
       227  -8.8199    230.4774    170.0441   7.1545080006e+01   5.2892759948e+00    0.1770982    0.1040434 -26.57  0.001020651    1.563    0.360
       228  -8.5034    149.7993    169.5725   8.6691817670e+01   1.8677717640e+01    0.2368378    0.1830151 -73.37 0.0007237132    1.853    0.460
       229  -8.1102    244.4016    169.2680   6.9255790310e+01   3.3715859562e+00    0.1514521   0.09597313 -33.06 0.0004528578    1.567    0.362
       230  -8.3613    218.8773    168.3997   7.3130377007e+01   7.2660071144e+00    0.1895734    0.1541376 -27.72 0.0005647469    1.289    0.224
       231  -9.0911    166.9110    168.6326   8.2878515762e+01   1.5861629417e+01     0.257828    0.2205805  73.06 0.0009990348    1.604    0.377
       232  -8.6667    111.8143    167.7199   9.5207655827e+01   2.5528869254e+01    0.3794756    0.2075536  64.74    0.0014866    2.956    0.662
       233  -8.2220     88.6903    168.6151   1.0112352990e+02   2.9002442468e+01    0.2253756    0.1559819  82.07  0.001051485    1.736    0.424
       234  -7.8662     35.9433    170.0000   1.1490520734e+02   3.5503001879e+01    0.2041967   0.06545921  28.16  0.000811391    3.005    0.667
       235  -7.8005    211.3944    168.1944   7.4363150941e+01   8.4708023828e+00    0.1676073    0.1099714 -41.65 0.0005698809    1.752    0.429
       236  -8.8517    191.9229    166.6623   7.7579710860e+01   1.1886535400e+01     0.229419    0.1800167 -37.04 0.0005038707    1.385    0.278
       237  -8.7160    184.9763    166.5093   7.8872386624e+01   1.3089056491e+01    0.2204189    0.1814634 -53.34 0.0006486622    1.579    0.367
       238 -10.1039     95.1078    163.1355   9.8693347478e+01   2.9190433991e+01     0.851519    0.4337461  70.05  0.002879994    4.060    0.754
       239  -7.9186     13.2842    167.6392   1.2054224542e+02   3.8190871144e+01    0.1333431   0.06782413  61.43 0.0007019443    1.680    0.405
       240  -9.8669    136.8617    164.5176   8.8704153363e+01   2.1877105377e+01    0.6399463    0.2846463  53.66  0.002288183    3.102    0.678
       241  -9.1459     20.3002    165.8745   1.1864827499e+02   3.7966997924e+01    0.3317139    0.1347649  54.96   0.00146919    2.145    0.534
       242  -8.2084    233.9254    165.1250   7.0085400917e+01   5.4040414623e+00    0.1696098    0.1468021 -19.43 0.0006624818    1.254    0.203
       243  -8.5996    159.4107    164.5024   8.3691078789e+01   1.7886945629e+01    0.2540355    0.2242276  82.76 0.0008042124    1.504    0.335
       244  -9.4729     33.5975    163.5928   1.1500932489e+02   3.7191181068e+01    0.5494419    0.1651673  50.20  0.002156837    2.962    0.662
       245  -8.6976    246.1106    163.2634   6.7890650472e+01   3.8566460652e+00    0.2079519    0.1447821 -28.74 0.0005117037    1.355    0.262
       246  -8.1060    239.9500    164.0296   6.8953824521e+01   4.6528560743e+00    0.1624542    0.1422902 -47.74 0.0006740948    1.682    0.406
       247  -8.5240    213.0832    163.6645   7.3214360318e+01   8.8326611033e+00    0.2015886    0.1581142 -33.74 0.0006369652    1.362    0.266
       248  -8.7128     60.5759    160.3440   1.0745404030e+02   3.4794397157e+01    0.3472639    0.1849833  65.86  0.001416657    2.157    0.536
       249  -8.0814     58.5147    163.4708   1.0836325260e+02   3.4348235055e+01    0.2304038    0.1171683  33.61  0.001091333    1.832    0.454
       250  -8.3810    204.8068    162.8852   7.4507242419e+01   1.0295448999e+01      0.20839    0.1684744 -45.77 0.0006170635    1.544    0.352
       251  -9.3175      3.3404    162.3990   1.2282007410e+02   4.0154439050e+01    0.3996566    0.1336309  50.49  0.001874833    2.354    0.575
       252  -9.2901    177.5049    160.8343   7.9254990968e+01   1.5299623341e+01    0.2826095    0.2277502 -63.94 0.0009089065    1.751    0.429
       253  -9.0422    151.7041    161.1301   8.4734620710e+01   1.9866278581e+01     0.332745    0.2496283  77.72  0.000981042    2.067    0.516
       254  -7.5206    222.2784    161.7073   7.1298985762e+01   7.6372809520e+00     0.105736   0.09749376 -49.04 0.0002294673    1.527    0.345
       255  -9.0765    243.8504    159.4002   6.7496973033e+01   4.6582112667e+00    0.3763657    0.1470276  30.11    0.0016414    3.203    0.688
       256  -9.8307    250.1747    157.8314   6.6279613445e+01   3.9352579564e+00    0.3131008    0.1610039 -32.14 0.0007795785    1.739    0.425
       257  -8.5562    246.5890    155.5270   6.6358095337e+01   4.7372319663e+00    0.1987072    0.1312615 -25.18 0.0004972775    1.310    0.236
       258  -8.7371    237.2031    159.0702   6.8432512331e+01   5.6857413276e+00    0.2109605    0.1489779 -38.30 0.0006985033    1.578    0.366
       259  -9.7854    105.8273    157.8162   9.5102433972e+01   2.8590034436e+01    0.5145505    0.3505779  76.85  0.001281137    1.986    0.496
       260  -8.5289    227.1626    158.8134   6.9951178502e+01   7.2594004245e+00    0.2073443    0.1509833 -36.54  0.001275309    1.474    0.322
       261  -8.3850    128.0748    159.1429   8.9812820986e+01   2.4475619653e+01    0.2596136    0.1789883  56.50 0.0008052682    1.593    0.372
       262  -8.3445    196.5001    158.0327   7.5064036840e+01   1.2421334704e+01    0.1850594    0.1832345  53.50 0.0007355376    1.319    0.242
       263  -8.2127    188.1191    157.7003   7.6569697568e+01   1.3932210868e+01    0.2188085    0.1718664 -41.77 0.0005535807    1.414    0.293
       264  -9.2300    167.5581    157.3447   8.0605529415e+01   1.7670811885e+01    0.2877762    0.2495392  88.96  0.001001874    1.610    0.379
       265  -8.2754    218.0945    156.7097   7.1021186229e+01   8.9925846851e+00    0.2048688    0.1563604 -37.63 0.0007267157    1.434    0.303
       266  -9.1407    157.6440    156.1308   8.2478552002e+01   1.9694209976e+01    0.2966486    0.2330587 -65.34 0.0009694913    1.682    0.406
       267  -9.2270    119.5870    155.3727   9.1209476313e+01   2.6739946738e+01    0.3722066    0.2653325  86.51  0.001549029    2.029    0.507
       268  -9.4166     49.9029    155.6320   1.0984281873e+02   3.7210349942e+01    0.4631618    0.1896795  55.41  0.001711738    2.598    0.615
       269  -8.7450     22.7358    156.6949   1.1739588835e+02   3.9834526284e+01    0.2801499    0.1317935 -39.43  0.001127627    3.843    0.740
       270  -7.9182    242.6440    155.1972   6.6872527381e+01   5.3617680051e+00    0.1762846    0.1015769 -28.90 0.0003603216    1.532    0.347
       271  -8.7446    239.9605    153.0599   6.6857750552e+01   6.0370978126e+00    0.1649715    0.1418714 -48.32 0.0004452155    1.622    0.383
       272  -7.9606    204.7726    155.5559   7.3081010116e+01   1.1376292164e+01    0.1579835    0.1212622  48.72 0.0004345778    1.525    0.344
       273  -8.7715    144.4576    154.8482   8.5171244333e+01   2.2354095935e+01    0.2651385    0.2120586  67.11  0.000937668    1.536    0.349
       274  -9.5247    132.8885    152.9377   8.7514735849e+01   2.4846920450e+01    0.4320418    0.3230833  82.73  0.001364619    1.922    0.480
       275  -9.0896    133.6851    148.0129   8.6372861295e+01   2.5685477093e+01    0.2722262    0.2240624  10.31   0.00117782    1.386    0.278
       276  -9.2020     67.9531    153.9644   1.0464190104e+02   3.5273054748e+01    0.4114994     0.216676  60.96   0.00132871    2.171    0.539
       277  -8.2298    232.9462    153.9875   6.8104127951e+01   6.9958493000e+00    0.1746515    0.1484687 -55.07 0.0007158044    1.742    0.426
       278  -8.5150     60.2777    153.0166   1.0665317251e+02   3.6522998685e+01    0.1931345    0.1596732  87.44  0.000647682    1.161    0.139
       279  -8.4873     20.1742    152.6952   1.1781336115e+02   4.0994117877e+01    0.2034206    0.1221815  51.31 0.0006548931    1.453    0.312
       280  -7.8581      8.4978    153.5107   1.2104465572e+02   4.1775280515e+01    0.1249266   0.09829385  69.02 -0.0001415172    1.032    0.031
       281  -8.1892    182.3117    151.4379   7.6440676538e+01   1.5982622307e+01    0.2101926     0.164388 -58.03 0.0008201089    1.694    0.410
       282  -8.9883     98.4522    150.9874   9.5884896067e+01   3.1301630105e+01    0.3357783    0.2272055  79.40  0.001193589    1.970    0.492
       283  -9.5941     29.2546    150.4931   1.1511463823e+02   4.0663095752e+01    0.5275772    0.2021025  65.53  0.002035836    3.129    0.680
       284  -9.5482    248.7728    149.5567   6.4893811699e+01   5.1558685140e+00    0.2960209    0.1593503 -29.20 0.0009591139    1.604    0.377
       285  -8.8198    243.1982    150.0056   6.5784350743e+01   5.9351607848e+00    0.2748478    0.1439371 -30.10 0.0008209969    1.677    0.404
       286  -8.8104    189.4799    150.3996   7.4846207843e+01   1.4851804931e+01    0.2539376    0.2050918 -58.02 0.0008410382    1.651    0.394
       287  -8.0176    162.4968    150.5159   8.0317100915e+01   1.9805246732e+01     0.224671    0.1332005 -53.75  0.000781415    2.117    0.528
       288  -8.1989    212.9600    149.7434   7.0496977026e+01   1.0834716281e+01    0.1722721    0.1515389   8.21 0.0002761194    1.065    0.061
       289  -8.7566      2.8284    150.0109   1.2240051281e+02   4.3002146778e+01    0.2193126   0.09517343  64.25  0.001071818    2.039    0.509
       290  -8.4257    198.8127    149.0420   7.2836456258e+01   1.3395463962e+01    0.1874629    0.1743998 -38.81 0.0005039606    1.272    0.214
       291 -10.2710     89.2129    146.1709   9.7582626085e+01   3.3891428833e+01    0.6687415    0.3758745  85.09  0.002466527    3.239    0.691
       292 -10.1561     39.8748    147.4109   1.1180333726e+02   4.0294703874e+01    0.6052236    0.3524348  80.66  0.002653047    1.778    0.438
       293  -8.8435    233.5308    147.3724   6.6708208429e+01   7.7788440331e+00    0.2807916    0.1085267 -30.22  0.001037289    2.388    0.581
       294  -7.7295    228.7060    148.6907   6.7717683967e+01   8.3747455223e+00    0.1268182   0.08534499   2.94 0.0002427392    1.588    0.370
       295 -10.2581    149.1361    145.0788   8.2158365438e+01   2.3340777120e+01    0.5568733    0.3967354  84.03  0.001588185    2.428    0.588
       296 -10.3939    106.8526    143.8846   9.2388558037e+01   3.1434910467e+01    0.8045542    0.5761147 -83.56   0.00226211    1.798    0.444
       297  -9.1595     78.2685    147.0673   1.0077728228e+02   3.5385206230e+01    0.3596069    0.2106851  78.97 0.0009421748    2.419    0.587
       298 -10.2729     54.8749    144.9341   1.0717677890e+02   3.9122916125e+01    0.7998019    0.3338927  63.30  0.002563106    3.600    0.722
       299 -10.1803     55.8506    136.0382   1.0570107128e+02   4.1142638385e+01    0.6005237    0.3213409   4.70  0.002086112    4.184    0.761
       300  -8.2190    223.3104    146.9710   6.8227816162e+01   9.4923171288e+00    0.1775019    0.1426005 -17.70  0.000395219    1.105    0.095
       301 -10.1660    139.1759    145.0669   8.4471769418e+01   2.5241208497e+01    0.4897002    0.3266662 -72.76  0.001561842    2.337    0.572
       302  -9.4668     13.1583    146.2312   1.1933345066e+02   4.3101955558e+01    0.3544121     0.171176  55.26  0.001396838    1.841    0.457
       303  -8.0754    206.5927    146.3183   7.0892835354e+01   1.2437022700e+01     0.174109    0.1158922 -22.57 0.0009326389    1.469    0.319
       304  -8.2301    175.6567    146.2193   7.6693183715e+01   1.8089511560e+01    0.1997072    0.1733797 -57.65 0.0007306492    1.407    0.289
       305 -10.1581    241.7811    143.3610   6.4678069551e+01   7.0052483687e+00    0.5334033    0.2829463  -1.04  0.002352105    3.003    0.667
       306  -9.9881    124.9746    142.2664   8.7378825281e+01   2.8490321248e+01    0.6540615    0.3710884 -63.74  0.002205436    2.353    0.575
       307  -9.0017    247.0020    143.8477   6.4025872389e+01   6.1380466615e+00     0.206403    0.1437273 -23.26  0.000518526    1.216    0.178
       308  -7.9374    194.3666    144.1252   7.2632757977e+01   1.4963788268e+01     0.182361     0.118996 -44.98 0.0004607257    1.700    0.412
       309  -8.9585    165.3576    143.8860   7.8339898165e+01   2.0452633050e+01    0.2441658    0.2354663  24.40 0.0005542516    1.082    0.076
       310 -10.6275     69.2692    140.9217   1.0241806911e+02   3.8146951096e+01    0.6465495    0.3886654  89.47  0.002282727    2.072    0.517
       311 -10.0577     69.6072    134.3613   1.0129140779e+02   3.9668659913e+01    0.3831734    0.2300108  17.94  0.001670354    2.250    0.556
       312  -9.4643      2.6487    141.9277   1.2205402480e+02   4.4894996723e+01    0.3704955    0.1527889  62.62  0.001750485    2.201    0.546
       313  -8.4130    182.1039    141.7195   7.4460420449e+01   1.7636692486e+01    0.2281372    0.1825275 -47.36 0.0006254485    1.405    0.288
       314  -8.2697    250.4850    141.0056   6.2975433056e+01   5.9669159157e+00    0.1784912   0.09965706 -29.06 0.0007512196    1.525    0.344
       315  -9.8882     23.3207    137.7361   1.1574120707e+02   4.4268812463e+01    0.5981729    0.2637769  71.85  0.002214129    2.519    0.603
       316  -7.7410    218.6284    138.8264   6.7308574005e+01   1.1437252900e+01    0.1766915     0.109189 -39.69 0.0003928386    1.639    0.390
       317  -8.5999    172.2478    138.2531   7.5695892233e+01   2.0123010404e+01     0.252216    0.1993738 -85.00 0.0005954207    1.950    0.487
       318  -8.1698    207.4928    138.0560   6.9007749991e+01   1.3519550260e+01     0.195041    0.1205685 -36.34 0.0007024839    1.563    0.360
       319  -8.6612    197.6037    137.5985   7.0654837693e+01   1.5399741575e+01    0.2521839    0.1858486 -47.10 0.0007661657    1.545    0.353
       320  -8.7737    150.7819    136.4062   7.9948601407e+01   2.4683500438e+01    0.4647699    0.2758309  15.08  0.001724473    3.020    0.669
       321  -8.3799    162.6724    136.5698   7.7346556294e+01   2.2301880325e+01    0.2241915    0.1741447 -64.27 0.0006257164    1.662    0.398
       322  -9.0185    140.0412    137.0110   8.2588327885e+01   2.6679662201e+01    0.2323415    0.1780311   4.68 0.0007150596    1.672    0.402
       323  -9.0040     39.1892    136.1561   1.1078605365e+02   4.3084938973e+01    0.3042878    0.1782022  60.47  0.001001001    1.696    0.410
       324  -9.0335    250.7245    130.2098   6.0771438194e+01   7.2939969184e+00    0.3954025   0.09730092 -30.68  0.001445247    3.587    0.721
       325  -9.0582    248.3092    135.1240   6.2097767556e+01   7.0455822150e+00    0.2694318     0.173164 -26.19 0.0007162432    1.317    0.241
       326  -8.5372    247.0106    130.4866   6.1331651970e+01   7.8455772146e+00    0.2271843     0.141933 -39.01 0.0007509665    1.580    0.367
       327  -7.7575    188.1977    135.9543   7.2041812962e+01   1.7436627573e+01    0.1780421    0.1039167 -36.69 0.0004795196    1.687    0.407
       328 -10.4906     83.3882    132.7245   9.6907829918e+01   3.7951968798e+01    0.6325986    0.3482717 -73.68  0.001417686    2.253    0.556
       329  -8.6960     84.7912    122.7202   9.4582384736e+01   4.0098757832e+01    0.3749363    0.2510642  -5.69  0.001498765    2.751    0.636
       330  -8.2911    237.5713    133.7456   6.3335906864e+01   8.9438596571e+00    0.1701677    0.1029092 -37.58 0.0009353108    1.588    0.370
       331  -8.3905    179.4608    133.8464   7.3273118092e+01   1.9480577430e+01    0.2587991    0.1850132 -56.56 0.0008828982    1.782    0.439
       332 -10.8048    132.6218    130.2126   8.2921374157e+01   2.9528213316e+01    0.8495096    0.4781744 -49.49  0.001465629    1.872    0.466
       333  -9.1922    112.7156    133.2123   8.8726583402e+01   3.2725702706e+01     0.338551    0.2652383  85.92  0.001072623    1.572    0.364
       334 -10.5022     98.2680    129.0897   9.1888902332e+01   3.6283814704e+01     1.090448    0.3241515 -51.42  0.003512942    3.367    0.703
       335  -9.1271    142.9980    131.6764   8.0720893493e+01   2.7159541196e+01     0.280912    0.2297553 -69.02 0.0006435899    1.473    0.321
       336  -9.3948    152.9277    129.0358   7.7822361491e+01   2.5670335829e+01    0.4086559    0.2829799 -64.09 0.0009311731    1.944    0.486
       337 -10.0014     73.2816    129.4309   9.9350650055e+01   4.0314442435e+01    0.4440979    0.2844081  81.61  0.001279198    1.994    0.498
       338  -9.8650     71.4261    120.0017   9.8218878193e+01   4.2887159788e+01    0.6313678     0.366598 -87.36  0.002263515    2.428    0.588
       339 -10.1364     12.7001    128.7949   1.1824478399e+02   4.7319737799e+01    0.5798293    0.2495394  78.83  0.002533094    2.406    0.584
       340  -7.4332    220.6682    130.2880   6.5170920782e+01   1.2308860227e+01    0.1199389    0.1020811 -64.05 0.0007015883    1.623    0.384
       341  -8.1204    204.4311    130.2588   6.7850501297e+01   1.5273008293e+01    0.1845539    0.1192789 -42.67 0.0007225979    1.610    0.379
       342  -8.1947    192.9346    130.3343   6.9918196271e+01   1.7446178304e+01    0.1891018    0.1701611  23.82 0.0004883844    1.093    0.085
       343  -9.3812    168.3477    129.4058   7.4543054727e+01   2.2472003324e+01    0.3056716    0.2302386 -57.44 0.0008413863    1.605    0.377
       344  -7.8138      1.9575    130.4769   1.2164170504e+02   4.7659322342e+01    0.1882718    0.0618421  46.11 0.0008099185    2.619    0.618
       345  -7.5489    231.4824    133.9941   6.4287907723e+01   9.9211613980e+00    0.1587159   0.09848652 -50.29 0.0004337666    2.170    0.539
       346  -7.9828    211.4426    129.2257   6.6436020652e+01   1.4130268871e+01    0.1813768    0.1159621 -42.19  0.000459938    1.616    0.381
       347  -7.8859    186.3514    129.6929   7.1007704707e+01   1.8832809913e+01    0.1353527    0.1127868 -82.36 0.0007042768    1.711    0.416
       348 -10.4781     60.0386    125.2103   1.0276355179e+02   4.3243160087e+01    0.8052891    0.4082903  68.53  0.002898095    2.955    0.662
       349  -8.8692     58.3882    116.2154   1.0177651281e+02   4.5696779696e+01    0.4804849    0.2553409 -39.06  0.001939785    2.568    0.611
       350 -10.7299     45.2129    124.0374   1.0735173548e+02   4.5401480715e+01     1.122732    0.4914341  69.32  0.003769826    3.812    0.738
       351  -8.3413    200.4670    126.9857   6.7815965260e+01   1.6533715699e+01    0.2082158    0.1260275 -34.40 -8.034783e-05    1.570    0.363
       352  -9.9778    118.0426    125.4794   8.5639044573e+01   3.3407741834e+01      0.51939    0.3358365  71.62  0.001732067    2.345    0.574
       353 -10.1939     28.5176    122.6168   1.1261715785e+02   4.7509753238e+01    0.7492598    0.2962649  63.61   0.00273644    3.332    0.700
       354  -7.8303    228.5064    125.5045   6.2935594066e+01   1.1607439654e+01     0.127845    0.1116753 -20.27 0.0008096022    1.072    0.067
       355  -8.8964    179.1451    124.6713   7.1261456220e+01   2.1123251723e+01    0.2626175    0.2092009 -62.81 0.0006204731    1.593    0.372
       356  -9.1215    158.7413    121.7985   7.4843096741e+01   2.5848677001e+01     0.331005    0.2615208 -72.55  0.001197464    1.669    0.401
       357  -7.9417    203.1415    122.1387   6.6259618689e+01   1.6779407620e+01     0.182708     0.153175 -48.41  0.000470335    1.332    0.249
       358  -8.0839    195.1444    122.2118   6.7680779743e+01   1.8330374659e+01    0.1806169    0.1626348 -63.25 0.0004614476    1.344    0.256
       359  -8.6639    172.0992    121.6331   7.1968144112e+01   2.3099200302e+01    0.2399379    0.1901278 -48.15 0.0006033196    1.346    0.257
       360 -10.2372    141.6259    117.9084   7.7858833447e+01   3.0202744641e+01    0.6801615    0.3489639 -44.96   0.00161475    1.995    0.499
       361  -9.9474    130.6725    118.2782   8.0668327508e+01   3.2413039483e+01    0.5177339    0.3097863 -61.09   0.00152959    2.131    0.531
       362  -9.7559      3.1074    117.5038   1.2047811746e+02   5.0736139732e+01    0.5005768    0.1935887  63.42  0.002137736    2.642    0.621
       363  -7.9781    231.5627    117.7612   6.0807328816e+01   1.2148721736e+01    0.1762092    0.1065385 -39.26 0.0004631333    1.570    0.363
       364 -10.1061    109.5161    114.3642   8.5439745647e+01   3.7539465196e+01    0.5755091    0.3869111 -86.55  0.001233945    2.330    0.571
       365  -8.9414    109.7566    107.2449   8.3633930590e+01   3.9087940599e+01    0.3397584    0.2320306   5.64  0.001330706    2.547    0.607
       366  -7.6975    219.3107    116.6586   6.2388584317e+01   1.4534283168e+01    0.1306117   0.09975348 -58.31 0.0003395994    1.696    0.410
       367  -8.3185    185.9248    115.9802   6.7917316648e+01   2.1219040637e+01    0.2150541    0.1709629 -66.86 0.0005268274    1.640    0.390
       368  -9.8301    249.7579    114.6842   5.7671836079e+01   9.4425723546e+00    0.2986854    0.1846475 -48.40  0.001642941    1.909    0.476
       369  -8.1669    192.8817    115.1853   6.6451287565e+01   1.9925193608e+01    0.2080158    0.1812334 -50.48  0.000526084    1.258    0.205
       370 -10.0860     92.8340    112.5982   8.9956317180e+01   4.1098945480e+01    0.5250927    0.3752675 -85.43   0.00153759    1.789    0.441
       371  -8.9425     93.5611    105.1412   8.7970460869e+01   4.2713776142e+01    0.5650297     0.321481  15.91  0.001862167    3.618    0.724
       372 -10.0450     79.0921    112.7090   9.4298155479e+01   4.3450577597e+01    0.6676022    0.4037994  84.90  0.001768125    2.673    0.626
       373  -8.7402     78.5398    105.0067   9.2776686234e+01   4.5407373703e+01    0.3366786    0.2462246  14.04  0.001570296    1.792    0.442
       374  -7.9605    167.4533    114.5401   7.1225965170e+01   2.5351511347e+01    0.1430329     0.140715 -12.28 0.0003687044    1.040    0.039
       375  -9.3243     27.7262    113.5839   1.1181962111e+02   4.9847205977e+01    0.3739066    0.1786781  26.94  0.001719227    2.192    0.544
       376 -10.0144    133.7335    109.3958   7.7699122975e+01   3.3618299489e+01    0.6175928    0.3174444 -52.04  0.002331747    2.153    0.536
       377 -10.4061    122.0517    112.0354   8.1408304186e+01   3.5524167444e+01    0.4861947    0.3406697 -40.47  0.001387183    1.501    0.334
       378  -9.9627     14.1047    111.2162   1.1626558997e+02   5.1563066022e+01    0.4375974    0.2046765  65.62  0.001328472    2.299    0.565
       379  -8.4501    174.8394    112.0581   6.9111481825e+01   2.4219533356e+01    0.2214205    0.1940566 -64.16   0.00072889    1.315    0.239
       380  -8.6755    159.2070    111.8968   7.2334158674e+01   2.7611569118e+01    0.2657828    0.2328042 -63.73 0.0007264744    1.281    0.219
       381 -10.1929     66.5174    109.8369   9.7844749816e+01   4.6126330927e+01    0.6499228     0.368967 -63.62  0.002275141    1.733    0.423
       382 -11.0458    246.9635    102.2070   5.5340819796e+01   1.1539358258e+01    0.5298213    0.1879937 -30.72  0.002276255    2.382    0.580
       383  -9.2033    140.0622    104.7996   7.4940533222e+01   3.3178759783e+01    0.3762096    0.2776506  73.89 0.0008151866    1.753    0.430
       384 -10.7859     45.5724    101.4996   1.0361282052e+02   5.1029236389e+01     1.030373    0.5767142 -84.82  0.003885289    2.098    0.523
       385 -10.7935     22.7837    102.6042   1.1219451710e+02   5.3055479338e+01     0.809926    0.3569081  67.41    0.0026655    2.986    0.665
       386  -8.5089    166.7971    104.2830   6.8790908275e+01   2.7352163109e+01    0.2590182    0.1888904 -48.60 0.0006032864    1.431    0.301
       387  -9.5380    150.7348    103.4566   7.2068235103e+01   3.1076955103e+01    0.4590047    0.3041063 -65.85  0.001296142    2.122    0.529
       388  -9.8812    128.5021    102.2514   7.7187057303e+01   3.6232938238e+01    0.3745186    0.2946038  89.99  0.000883599    1.640    0.390
       389 -10.7088    108.8333     98.8972   8.1738772970e+01   4.1136324071e+01     1.006951    0.4990626  62.82  0.001641219    3.688    0.729
       390  -9.0340    107.6429     92.6579   8.0381021829e+01   4.2762273006e+01    0.4899504    0.3136916  23.50  0.001967795    2.198    0.545
       391  -9.4451     82.5177    100.4515   9.0378475018e+01   4.5821367147e+01    0.4641896    0.3001101 -88.32  0.001826915    2.334    0.572
       392  -9.2877      6.4215    102.7989   1.1819242265e+02   5.4179002628e+01     0.285559     0.163076  61.57   0.00133377    1.733    0.423
       393  -7.8095    175.4991    102.0193   6.6463730381e+01   2.5832176735e+01     0.208673    0.1183995 -57.10 0.0008090375    2.444    0.591
       394  -8.2382    159.8228    101.0948   6.9432615482e+01   2.9488396136e+01     0.230232     0.197858 -65.31  0.000487186    1.305    0.234
       395 -10.1836     63.8069     95.7616   9.5756934428e+01   5.0012490738e+01    0.7205458    0.3994015 -78.68  0.001925292    2.474    0.596
       396  -8.8363     65.1504     87.6685   9.3302592251e+01   5.1791309900e+01    0.4183107    0.2407877   8.16  0.001474568    3.435    0.709
       397  -9.2556     95.1088     97.1347   8.5450771972e+01   4.4279335165e+01    0.3428481    0.2517503 -73.48 0.0006250722    1.615    0.381
       398  -8.6596    130.3965     97.3943   7.5382933530e+01   3.6822518223e+01    0.3112319    0.1308282  35.36 0.0009551762    3.347    0.701
       399  -8.8846    151.5567     95.2261   6.9676226428e+01   3.2460119254e+01    0.3739821    0.2243613  19.67     0.001311    3.073    0.675
       400  -8.2925    189.1479    107.7491   6.5336370387e+01   2.1919499587e+01    0.2526066    0.1784215 -44.66 0.0007137182    1.437    0.304
       401  -9.6475    119.1492    106.7426   8.0865688718e+01   3.7272031249e+01    0.3501332    0.2194542 -41.67  0.001522342    1.667    0.400
       402  -8.2890    176.2834     93.3879   6.4065791571e+01   2.7143271663e+01    0.2515921     0.164904 -53.31 0.0005421297    1.721    0.419
       403  -8.1243    164.9604     94.0643   6.6479678891e+01   2.9601533541e+01    0.2304894    0.1779226 -71.15 0.0005450104    1.630    0.387
       404  -9.2570    139.1066     92.4855   7.1830617584e+01   3.5843435235e+01     0.428359    0.3103042 -74.57  0.001114929    1.890    0.471
       405 -10.5090    123.4368     91.3907   7.5540768065e+01   3.9612433568e+01    0.7251097    0.4494822  41.75  0.001876064    1.646    0.393
       406  -7.7580    188.4947     93.4892   6.1871238665e+01   2.4399596852e+01    0.1427818    0.1352323 -34.30 0.0008104217    1.027    0.026
       407  -9.8758      4.7442     91.7210   1.1777690995e+02   5.7047413816e+01    0.4124598     0.205407  73.97  0.001371032    2.096    0.523
       408  -7.9648    157.8075     91.8250   6.7368850102e+01   3.1652342081e+01    0.2072119    0.1754754 -67.23 0.0004783782    1.325    0.245
       409  -9.8932     34.7630     89.7450   1.0558543501e+02   5.5206086320e+01    0.5203055    0.2730771  85.66  0.001872582    2.592    0.614
       410  -9.2834     22.7238     90.2434   1.1048402971e+02   5.6194332897e+01    0.3222827    0.2402886 -42.16  0.000881256    1.435    0.303
       411  -8.1288    150.9844     89.0861   6.8097882684e+01   3.3744037495e+01    0.2390493    0.1821114 -71.92 0.0005821157    1.652    0.395
       412 -10.1915     86.5733     85.9110   8.5170219627e+01   4.8501002247e+01    0.7119319    0.4359179 -54.50  0.002110283    1.642    0.391
       413  -7.4694    188.3000     87.3007   6.0294601883e+01   2.5442050841e+01    0.1430756    0.1109177  13.04 0.0003320137    1.582    0.368
       414  -7.6648    163.7195     87.3232   6.4887186907e+01   3.1085368222e+01    0.1512402    0.1157577 -68.31 0.0003276454    1.590    0.371
       415  -9.7825     48.4609     84.2615   9.8944324567e+01   5.5003225057e+01    0.5650513    0.3342396  78.20  0.001823023    2.581    0.613
       416 -10.1833    103.6719     83.4328   7.8904344043e+01   4.5615478213e+01    0.4943276    0.3633159  49.45  0.002330737    1.366    0.268
       417  -8.2990    198.2583     83.3568   5.7635709993e+01   2.3842597815e+01    0.2628013    0.1637006 -21.02 0.0009788548    1.758    0.431
       418  -8.3813    157.9638     83.9963   6.5139401317e+01   3.3030013319e+01    0.2275813    0.2160902 -48.14 0.0003791886    1.044    0.042
       419  -9.1852    140.8186     82.7793   6.8615206554e+01   3.7320678201e+01     0.303273    0.2043611 -52.46 0.0006163524    1.595    0.373
       420  -9.7587     24.4638     80.3322   1.0812228967e+02   5.8554492594e+01      0.49652    0.2527606  82.66  0.001439571    2.642    0.621
       421  -9.7974      9.8474     80.9584   1.1446485771e+02   5.9457479883e+01    0.3923391    0.1943634  57.00  0.001328959    2.299    0.565
       422  -8.2334    150.4373     80.7250   6.5809629785e+01   3.5411232774e+01    0.2834963    0.1410258 -43.01 0.0007344123    1.997    0.499
       423  -9.0859    119.2333     80.3654   7.3421881024e+01   4.2828562946e+01    0.2981101    0.2421861 -67.54 0.0007260573    1.388    0.280
       424  -8.8518     74.4949     80.4518   8.7871771318e+01   5.1971841884e+01    0.3144729    0.2308542 -80.14  0.000986419    1.692    0.409
       425  -8.1451    166.8212     79.8557   6.2169681453e+01   3.1647549092e+01    0.2183245    0.1984091  -0.83 0.0005045895    1.198    0.165
       426  -7.6713    184.2530     78.6122   5.8657721980e+01   2.7752110885e+01    0.1528806    0.1040951 -57.40 0.0006958692    1.674    0.403
       427  -9.2899    128.0289     75.1301   6.9440510101e+01   4.1816630270e+01    0.4725686      0.22479 -47.61  0.001338643    2.223    0.550
       428  -8.6179    104.9958     77.0658   7.6535434321e+01   4.6692688841e+01    0.2435923    0.1924738   2.23 0.0006426582    1.692    0.409
       429  -9.8853     63.4301     73.9945   9.0223199171e+01   5.5343574371e+01    0.5861682    0.3068865 -69.41  0.002213674    2.621    0.618
       430  -7.7167    157.2745     76.6284   6.3145610350e+01   3.4493752675e+01    0.1588386    0.1142537 -64.86 0.0005111773    1.683    0.406
       431  -8.4707    140.4911     75.3524   6.6449858058e+01   3.8787038483e+01    0.2704491    0.2106793 -61.56 0.0006829848    1.429    0.300
       432  -8.1792    163.4331     73.5599   6.1008925519e+01   3.3525897035e+01    0.2845811    0.1360132 -40.13  0.001105535    2.014    0.503
       433  -9.6470     82.4612     72.8114   8.2648843758e+01   5.2256876900e+01    0.4240464    0.2947553 -73.74 0.0009895517    1.913    0.477
       434  -8.0033    151.5022     73.5048   6.3423644389e+01   3.6441913003e+01    0.1522463    0.1467206 -71.08 0.0008103839    1.038    0.036
       435  -8.6165    115.6963     72.9403   7.2065512473e+01   4.5134841807e+01    0.2814104    0.2045443 -57.72 0.0006165298    1.520    0.342
       436  -8.4771     42.4480     72.8211   9.8677207128e+01   5.8578278427e+01    0.2658448    0.1335726 -68.12 0.0009135322    2.055    0.513
       437  -9.3057     29.4133     70.3854   1.0392137238e+02   6.0593683510e+01     0.617364     0.286633 -23.01   0.00208116    4.308    0.768
       438  -7.8919    174.9999     72.5389   5.8567524677e+01   3.0902498908e+01    0.2184757    0.1455484  58.28 0.0004659315    1.548    0.354
       439  -9.2404     95.0910     71.0780   7.7742774431e+01   5.0084917314e+01    0.3628716    0.2327101 -58.66 0.0008526455    1.785    0.440
       440  -9.5116     51.4803     69.8600   9.3961900529e+01   5.8118332398e+01    0.4788515    0.2813773 -78.20  0.001480513    2.371    0.578
       441  -9.1941    105.8887     71.7387   7.4545126906e+01   4.7603428535e+01    0.2922225     0.220146 -55.27 0.0006712844    1.402    0.287
       442  -9.2469     16.7845     70.2851   1.0972077806e+02   6.1676456040e+01    0.2947805    0.1949316  66.84 0.0008620519    1.724    0.420
       443  -8.5861    147.0458     68.5447   6.2856951915e+01   3.8402283654e+01    0.2997189     0.195622 -50.22 0.0006324076    1.613    0.380
       444  -8.9849    138.3474     65.8370   6.3944782381e+01   4.1028133473e+01    0.3976325    0.2147381 -50.38  0.001148751    2.060    0.515
       445  -8.8562    121.6275     66.1099   6.8184698384e+01   4.5060428402e+01    0.3392494    0.2383879 -62.87 0.0008233893    1.729    0.422
       446  -8.5036     83.7632     65.2280   7.9662979346e+01   5.3658264025e+01    0.4242705    0.2506306   8.98  0.001236459    4.801    0.792
       447  -9.5655     97.4019     61.1501   7.3570588657e+01   5.1627722179e+01    0.4663012    0.3765345 -17.81  0.001889958    1.439    0.305
       448  -8.9071     64.5678     63.5550   8.6485491637e+01   5.7568141420e+01    0.4816383    0.3253286 -11.75  0.002066581    2.286    0.563
       449  -8.8992     37.2731     64.5728   9.8844965659e+01   6.1193978364e+01    0.2915356    0.2114225  73.17 0.0008139659    1.732    0.423
       450  -8.8714    110.1859     63.7043   7.0548936950e+01   4.8223874121e+01    0.3077582    0.2251973 -66.65 0.0006685249    1.691    0.409
       451  -7.7301    157.0000     70.0137   6.1225517087e+01   3.5695193877e+01    0.2440428   0.08515351 -34.76  0.000384127    2.836    0.647
       452  -8.1976    158.1548     61.8439   5.8492889121e+01   3.6756581360e+01    0.1976551     0.176396  17.41 0.0002717911    1.269    0.212
       453  -9.7003     73.2558     59.4722   8.1579025329e+01   5.6923218817e+01    0.4483919    0.2552563 -58.72  0.001161881    2.059    0.514
       454  -8.2668    146.6591     58.8900   5.9858574168e+01   4.0131182894e+01    0.2257216     0.130082 -44.43 0.0009044154    1.745    0.427
       455  -7.9133     88.7738     59.5813   7.5892296229e+01   5.3807652994e+01    0.2002084    0.1435798  57.70 0.0004848133    1.529    0.346
       456  -9.8156     23.4810     56.5054   1.0345904647e+02   6.4532677196e+01    0.4942245    0.2759096  77.56  0.001942368    2.869    0.652
       457  -8.4325    130.7458     57.8851   6.3085202049e+01   4.4306183213e+01    0.2795658      0.19866 -54.17 0.0006427586    1.527    0.345
       458  -9.6287      7.3113     57.1088   1.1193660929e+02   6.5522735511e+01    0.3366696    0.1981602  85.55  0.001195624    1.869    0.465
       459  -9.3034    119.2159     55.5147   6.5151441147e+01   4.7576081874e+01    0.5105498    0.2516575 -43.86  0.001696193    2.071    0.517
       460  -8.1012    139.9980     56.0131   6.0331334864e+01   4.2290821198e+01    0.2436491    0.1757963 -64.79 0.0005150742    1.632    0.387
       461  -9.1864     54.2092     55.1820   8.8073738611e+01   6.1119677385e+01    0.3302011    0.2304915 -71.34 0.0009236188    1.770    0.435
       462  -8.8745     44.2831     55.6535   9.2854320227e+01   6.2438945681e+01    0.2788407     0.217944  82.42 0.0009517606    1.649    0.394
       463  -8.4104    105.8563     53.1623   6.8020537836e+01   5.1215733296e+01    0.2338751    0.2030337 -75.94 0.0006125134    1.301    0.231
       464  -9.5450     92.3558     50.6232   7.1292338381e+01   5.4783351669e+01     0.441664    0.2491603 -50.38  0.001291497    1.959    0.489
       465  -7.8983     74.4099     51.8191   7.8267226498e+01   5.8303507372e+01    0.2064684    0.1348882 -32.90 0.0005074394    1.649    0.394
       466  -8.3577    144.5662     49.0078   5.7004848665e+01   4.2237106018e+01     0.232035    0.1465663 -33.69 0.0005024624    1.588    0.370
       467  -8.4661    129.6156     49.2292   6.0321084297e+01   4.6036337798e+01    0.2019578     0.148267 -21.03 0.0003319558    1.537    0.349
       468  -8.7450    120.9153     47.5831   6.1823006224e+01   4.8504476721e+01    0.2789251    0.2138946 -42.40 0.0005777759    1.321    0.243
       469  -8.3647    112.1867     46.9073   6.3850847071e+01   5.0785806660e+01     0.233783    0.1998422 -67.77 0.0006510533    1.294    0.227
       470  -8.9032     81.9262     46.5842   7.3325633018e+01   5.7806208581e+01    0.2714593    0.2108061 -50.70 0.0006061307    1.354    0.261
       471  -8.5634     45.0411     44.5500   8.8506752203e+01   6.4819017436e+01    0.2491782    0.1866441 -65.99 0.0006509004    1.509    0.337
       472  -9.2274     16.6586     44.4834   1.0392269508e+02   6.7951583378e+01    0.2849129    0.2041402  87.60 0.0008152609    1.669    0.401
       473  -8.9200    132.8943     43.6993   5.7594950585e+01   4.6062757693e+01     0.318294    0.2439185 -69.40  0.000874014    1.494    0.331
       474  -8.9213     92.7960     42.9134   6.8048820518e+01   5.6081956036e+01    0.3180967    0.2109188 -21.03  0.001410658    1.814    0.449
       475  -9.0550     58.2778     42.8739   8.1473897744e+01   6.3084893310e+01    0.3143706    0.2143394 -66.63  0.001061587    1.980    0.495
       476  -9.4913      5.2088     42.1811   1.1003274547e+02   6.9221272638e+01    0.3876747    0.2025532  89.38  0.001402226    2.338    0.572
       477  -9.3586     69.5311     41.6340   7.6063685131e+01   6.1263313318e+01    0.4097933    0.2656572 -64.18  0.001210943    2.226    0.551
       478  -8.5117    105.9813     41.5108   6.3460262533e+01   5.3199562619e+01    0.2789309    0.2002242 -51.58 0.0006557095    1.524    0.344
       479  -7.7947    140.2906     41.6624   5.5322543278e+01   4.4446185497e+01    0.1581417    0.1111482 -63.91 0.0004661782    1.641    0.391
       480  -8.5932     36.6413     40.8524   9.1455406802e+01   6.6752616526e+01    0.2467625    0.2007271  88.08 0.0007903398    1.620    0.383
       481  -8.8083     95.4562     37.8801   6.5090252089e+01   5.6317215336e+01    0.2770654     0.229319 -73.99  0.000795977    1.459    0.314
       482  -8.2013     80.7642     36.8043   6.9581972874e+01   5.9827611058e+01    0.1953607    0.1710017 -70.44 0.0004036118    1.350    0.259
       483  -9.6437     26.2004     35.5682   9.5350904460e+01   6.9118016481e+01    0.3257478    0.2372174 -75.09 0.0009517293    1.643    0.391
       484  -8.1805    133.3877     36.1936   5.4749268977e+01   4.7033918044e+01    0.2126534    0.1321624 -42.40 0.0006547101    1.627    0.385
       485  -8.0639    125.9833     35.7196   5.6152649652e+01   4.9032088013e+01    0.2041045    0.1880898  68.60 0.0003498475    1.053    0.051
       486  -8.5884    111.9570     34.3895   5.8965922399e+01   5.2823231362e+01    0.3216834    0.1933937 -41.47 0.0009359656    1.709    0.415
       487  -8.4074    119.1272     33.0445   5.6671794415e+01   5.1187387969e+01    0.3218117     0.169613 -45.09 0.0007922818    2.025    0.506
       488  -7.9089     88.5243     34.4562   6.5835675197e+01   5.8487977780e+01    0.1431471    0.1413854  48.72 0.0002138693    1.048    0.046
       489  -8.9441     48.4311     33.3593   8.2034787257e+01   6.6618967033e+01    0.2772659    0.2318821 -60.81 0.0008498483    1.378    0.274
       490  -8.9635     60.6143     32.7591   7.5903428768e+01   6.4620863960e+01     0.250237    0.2057042 -72.63 0.0006321786    1.617    0.382
       491  -8.8949     72.1472     31.3393   7.0347865472e+01   6.2595459188e+01    0.2972707    0.2174126 -59.83 0.0009830478    1.746    0.427
       492  -7.6778    139.2777     31.3559   5.1821721982e+01   4.6142377014e+01    0.1516643    0.1122915  25.75 0.0007009731    1.654    0.395
       493  -8.9698     12.9857     30.2008   1.0168635605e+02   7.1496108012e+01     0.341714    0.1969262 -80.62  0.001249232    2.264    0.558
       494  -8.5969    101.5140     29.4843   5.9685402090e+01   5.6150223242e+01    0.2554525    0.1921261 -67.46 0.0006623324    1.649    0.394
       495  -7.8098    161.5138     29.5426   4.7528102169e+01   4.0505776080e+01    0.1445675    0.1363562 -80.80 0.0001492646    1.010    0.010
       496  -8.8991     81.4451     27.5622   6.5080911023e+01   6.1189934972e+01    0.2912085    0.2306872 -64.64 0.0007456216    1.585    0.369
       497  -8.6123      3.5787     27.7660   1.0727746994e+02   7.2636192428e+01    0.2305543     0.168991  80.16   0.00100037    1.685    0.407
       498  -8.4580    129.5075     26.5099   5.1875768962e+01   4.9352360097e+01    0.2780514      0.11594 -39.95  0.001033875    2.387    0.581
       499  -8.8848     91.7386     26.2108   6.1072162202e+01   5.8999085975e+01    0.3232791    0.2031185 -51.00 0.0008580119    1.887    0.470
       500  -8.2722    104.4863     23.0038   5.6047197302e+01   5.6298053025e+01    0.2126391    0.1441098 -28.92 0.0004226859    1.530    0.346
       501  -8.0012     34.7716     23.1982   8.4650763841e+01   7.0631099777e+01    0.2004151     0.143995  76.62 0.0009395618    2.716    0.632
       502  -8.9000     63.6885     21.2055   6.8744240420e+01   6.5983280884e+01    0.2945053    0.2137818 -56.52  0.000894616    1.775    0.437
       503  -8.8216     48.2373     21.8294   7.6376233849e+01   6.8784772183e+01    0.2208533    0.2010346 -26.99 0.0005617298    1.094    0.086
       504  -8.0825    120.4724     21.2129   5.1598373691e+01   5.2391391077e+01    0.2014602    0.1302588 -42.81 0.0009276117    1.607    0.378
       505  -7.7672     19.5036     21.5144   9.3712865529e+01   7.2793885162e+01    0.1256324    0.1115244 -33.59 8.870177e-05    1.047    0.045
       506  -8.8945     73.9700     19.3959   6.3704570807e+01   6.4070043887e+01    0.3006014     0.184694 -47.14 0.0008898687    1.893    0.472
       507  -8.5196     87.8773     17.5749   5.8128263573e+01   6.1101354229e+01    0.2725623     0.170067 -45.48  0.000561945    1.799    0.444
       508  -8.6162    232.8282    247.7483   8.3545823709e+01  -3.6181815567e+00    0.1644485    0.1500447  20.87  0.001209218    1.841    0.457
       509  -7.9548    112.8431     16.8572   5.1387521762e+01   5.4903891901e+01    0.1975274    0.1637864 -61.58 0.0003688971    1.308    0.236
       510  -7.9947     30.0112     16.0241   8.3771301216e+01   7.2628313643e+01    0.1807694    0.1598817 -84.59 0.0006736828    1.614    0.380
       511  -7.7430      7.8138     15.8059   9.9734156744e+01   7.4985692979e+01    0.1520599    0.1426513  73.91 0.0007001089    1.351    0.260
       512  -8.3874     97.0505     15.0448   5.4326865248e+01   5.9159076867e+01    0.2237094    0.1652908 -60.76 0.0005381922    1.622    0.384
       513  -7.7600     17.4323     14.4879   9.1709180293e+01   7.4416399227e+01    0.1213433    0.1100503 -33.53 0.0001173505    1.116    0.104
       514  -7.5144    119.7025     11.3396   4.7657028821e+01   5.3700921268e+01    0.1511695    0.1031901 -60.75 0.0007033111    1.661    0.398
       515  -9.0233    175.6111    247.8331   9.3058102849e+01   3.2902161787e+00     0.232025     0.185305  55.91  0.001151491    1.890    0.471
       516  -7.8290     76.3158     10.6585   5.8222732766e+01   6.4686997124e+01    0.1395475    0.1066882 -64.31 0.0007048238    1.708    0.415
       517  -8.4830    113.0486    248.7397   1.0471655509e+02   1.1306432842e+01    0.1758292    0.1335546  77.51 0.0009649983    1.759    0.432
       518  -9.4620    103.8073    246.6437   1.0630228976e+02   1.2793138350e+01    0.3657327    0.2085312  88.12  0.001993609    3.245    0.692
       519  -9.0274    242.9056    246.8376   8.1883160631e+01  -4.6473444667e+00     0.278107    0.1182931 -24.13  0.001763168    2.376    0.579
       520 -10.0769    223.9558    244.3930   8.4482774514e+01  -2.2840702994e+00    0.3644473    0.2038859 -41.76  0.002332275    2.791    0.642
       521  -8.5484    218.5325    247.4086   8.5754824774e+01  -1.9474085740e+00    0.2122156   0.09180511 -29.91  0.001182797    2.548    0.607
       522  -8.6569    155.9480    248.1599   9.6627926745e+01   5.7947206288e+00     0.161155    0.1212985  39.86 0.0005372321    1.275    0.216
       523  -8.5112    131.9357    248.0631   1.0107079719e+02   8.9492918041e+00    0.1657723    0.1203842  46.71  0.000626043    1.315    0.239
       524  -8.8060    210.8297    246.5061   8.6885508743e+01  -9.4413956440e-01     0.181953    0.1377932 -44.71  0.001170069    2.230    0.551
       525  -9.2799    147.4148    246.5325   9.8015564937e+01   7.1199634698e+00    0.2724509    0.1452197  51.54   0.00152678    2.335    0.572
