#   1 NUMBER                 Running object number                                     
#   2 MAG_AUTO               Kron-like elliptical aperture magnitude                    [mag]
#   3 X_IMAGE                Object position along x                                    [pixel]
#   4 Y_IMAGE                Object position along y                                    [pixel]
#   5 X_WORLD                Barycenter position along world x axis                     [deg]
#   6 Y_WORLD                Barycenter position along world y axis                     [deg]
#   7 A_WORLD                Profile RMS along major axis (world units)                 [deg]
#   8 B_WORLD                Profile RMS along minor axis (world units)                 [deg]
#   9 THETA_WORLD            Position angle (CCW/world-x)                               [deg]
#  10 FWHM_WORLD             FWHM assuming a gaussian core                              [deg]
#  11 ELONGATION             A_IMAGE/B_IMAGE                                           
#  12 ELLIPTICITY            1 - B_IMAGE/A_IMAGE                                       
         1 -12.2283    141.8041      6.3688   6.9291719697e+01   4.8626901725e+01    0.2863425    0.1935593  53.87  0.001148056    1.262    0.208
         2 -10.9778    119.1551      6.8335   7.3642557673e+01   5.3746965570e+01     0.185401    0.1266647  38.72  0.000890938    1.339    0.253
         3 -10.8903     94.0226      5.7243   7.8974061840e+01   5.9120394216e+01    0.1712623    0.1364303  38.82 0.0004176264    1.055    0.052
         4 -12.6108    150.1716      3.5037   6.7093553540e+01   4.6904468276e+01    0.4544914    0.2138862  46.00   0.00215188    2.055    0.513
         5 -11.0351    125.7555      4.4199   7.1536416614e+01   5.2479965994e+01    0.1861745   0.09528522  52.28 0.0008491261    1.598    0.374
         6 -11.6098    181.0708    245.9949   1.1892911020e+02  -3.0888905430e+00    0.1829826    0.1536811  36.00 0.0009952075    1.005    0.005
         7 -16.4637    247.2726    239.3725   1.0561334895e+02  -1.2783713353e+01     4.994283     1.613856 -39.80   0.02158351    3.428    0.708
         8 -13.2221    241.1753    227.3593   1.0459414317e+02  -1.0250579785e+01    0.4350542    0.3451841  28.58 0.0003637806    1.190    0.160
         9 -11.5784    141.0676    249.8981   1.2712271890e+02   3.1454284878e+00    0.3601185    0.1551482  51.18  0.001638876    2.112    0.526
        10  -9.7536    138.5036    246.5428   1.2717826195e+02   4.1570451130e+00    0.1649073    0.1250469 -70.32 0.0009089198    1.555    0.357
        11 -10.9038    130.9750    249.5670   1.2899708317e+02   4.9114391627e+00    0.1950988    0.1547902  59.50 0.0009196883    1.085    0.079
        12 -11.3077    100.8300    248.1066   1.3448920143e+02   1.0116735339e+01    0.2311592    0.2025297 -36.82  0.001524145    1.735    0.424
        13  -9.2241     87.3392    248.8287   1.3704213319e+02   1.2078090017e+01    0.3087369    0.1580537  79.70   0.00146772    2.566    0.610
        14 -11.7834     43.2310    250.1137   1.4486206899e+02   1.7995811711e+01    0.2258832    0.1275748  79.49  0.001409766    1.509    0.337
        15 -16.9410      7.3551    226.5702   1.4931517925e+02   2.6662229949e+01     4.952058     1.038681 -76.35   0.02012986    3.981    0.749
        16 -20.5963    113.8592    189.2730   1.2398825077e+02   2.0003824573e+01     9.715419     6.954065  43.05   0.04986101    1.384    0.277
        17 -13.0691    225.1400    201.1936   1.0269572459e+02  -3.6042885853e+00    0.4305779    0.2808455  51.75 0.0004371099    1.801    0.445
        18 -12.3805    191.3430    236.4663   1.1547205620e+02  -3.3703987544e+00    0.2177312     0.182163  42.48 0.0009166848    1.128    0.113
        19 -12.0545    219.4109    197.9763   1.0316105855e+02  -2.0380076780e+00    0.4165358    0.2296485  51.51  0.001761358    2.122    0.529
        20 -13.9301    214.7506    182.3762   1.0095270856e+02   1.5811491160e+00    0.8032925    0.5216752 -56.00  0.003068601    1.944    0.486
        21 -11.0039    217.5172    193.9592   1.0273917776e+02  -1.0002700494e+00    0.1934059    0.1698837 -26.60   0.00063791    1.134    0.118
        22 -13.0754    221.3994    190.4208   1.0129471166e+02  -1.1029698573e+00    0.3795764    0.3107021  -7.06  0.000898606    1.255    0.203
        23 -13.2568    206.1500    193.6031   1.0489079321e+02   1.1965727500e+00    0.6090941    0.4760797  67.58  0.003170504    1.684    0.406
        24 -13.1150    210.4301    186.0126   1.0253572911e+02   1.7519501755e+00    0.6032394    0.4504754  43.03  0.002272947    1.329    0.248
        25 -11.7818    199.2549    198.9223   1.0729621194e+02   1.5495412894e+00    0.2382417    0.1975708  12.70 0.0005157146    1.264    0.209
        26 -12.9816    231.9892    191.4010   9.9501147791e+01  -3.1901615605e+00     0.295888    0.2150065 -18.28 0.0006031671    1.422    0.297
        27 -11.2924     43.5260    234.3282   1.4363080495e+02   2.1011678061e+01    0.3857935    0.1578864  89.41  0.001744097    2.912    0.657
        28 -12.0130    222.0638    233.6194   1.0917803420e+02  -8.1094340015e+00    0.2973032    0.2444385 -65.49  0.001801945    1.914    0.478
        29 -12.4849    226.7395    178.5468   9.7878302231e+01  -1.4735836036e-02    0.3543748    0.2246412  -8.92  0.001543878    2.300    0.565
        30 -11.7142    204.7579    174.3474   1.0126495672e+02   5.0500836442e+00    0.3257876    0.2167243 -28.21 0.0007219297    1.669    0.401
        31 -12.5032    212.5436    174.2083   9.9694146791e+01   3.5186272285e+00    0.3559852    0.2884719   6.42  0.001113222    1.389    0.280
        32 -12.9347    209.5314    169.0725   9.9201763707e+01   5.0924845985e+00    0.5136573    0.3736337 -12.76  0.001553786    1.714    0.417
        33 -12.4840    244.6129    169.5785   9.2783524298e+01  -1.7500903920e+00    0.2561775    0.2351202 -42.49 0.0007602645    1.173    0.148
        34 -12.8626    175.5972    234.3626   1.1820153473e+02  -2.6743386929e-01    0.3287603    0.2075392  51.19  0.001732395    1.537    0.349
        35 -12.4705    164.3519    234.2723   1.2040327099e+02   1.7498395024e+00    0.2762653    0.2216225  35.63  0.001654692    1.146    0.128
        36  99.0000    185.6022    232.3629   1.1592273223e+02  -1.7093411227e+00    0.3193048    0.2087798  -9.52  0.001528388    2.428    0.588
        37 -12.1469    213.3850    153.1238   9.4979195358e+01   7.3661918145e+00    0.4182122    0.2516828 -56.25  0.001419801    2.004    0.501
        38 -11.5048     18.0785    153.2070   1.4119612936e+02   4.1538707464e+01    0.1761422    0.1373031 -64.99 0.0003205778    1.206    0.171
        39 -11.8232     49.1349    149.2382   1.3315066493e+02   3.9298896479e+01    0.2432206    0.2082327 -58.54 0.0004921151    1.193    0.162
        40 -11.0770    212.0682    233.2964   1.1099200517e+02  -6.4153873107e+00    0.1655854    0.1374494  29.06 0.0002441659    1.065    0.061
        41 -10.9686     27.8882    149.6858   1.3845324162e+02   4.1456205031e+01    0.2070139    0.1371724 -65.42 0.0004805143    1.254    0.203
        42 -11.7123     24.1020    146.9952   1.3903312596e+02   4.2434923879e+01    0.1825238    0.1551166 -83.34 -0.001320134    1.086    0.079
        43 -11.8255    237.7525    145.9866   8.8941668427e+01   3.7298541206e+00    0.2220956    0.2050973  56.72 0.0003176025    1.201    0.168
        44 -11.5364     39.1492    243.7928   1.4509776263e+02   1.9708178208e+01    0.4438987    0.1134078  54.49   0.00186771    3.339    0.701
        45 -12.9467    195.6358    142.3417   9.6060655889e+01   1.3350832893e+01    0.3489921    0.2514426  81.67  0.001294816    1.963    0.490
        46 -11.3489    169.1864    243.1536   1.2078821375e+02  -5.8767268780e-01    0.1901423    0.1366866  62.72  0.001068051    1.596    0.374
        47 -11.2688    169.2560    229.4052   1.1867575546e+02   1.7109670196e+00     0.349543    0.1524661  44.20  0.001522013    2.002    0.501
        48 -11.0969    188.7744    240.9034   1.1667202030e+02  -3.6202312720e+00    0.1192194    0.1040802 -19.29 0.0002772096    1.288    0.223
        49 -11.8316    198.7905    138.3465   9.4491978735e+01   1.3459594712e+01    0.2926032    0.2323718  42.27 0.0005874179    1.310    0.237
        50 -12.1831    202.1644    135.4055   9.3131086113e+01   1.3297778644e+01    0.3221301    0.3006853  13.13  0.001379551    1.172    0.147
        51 -12.8276    182.3789    135.3941   9.7203945142e+01   1.7779469550e+01    0.3645774    0.2598126 -60.49   0.00115025    1.566    0.361
        52 -13.2978    175.7722    224.1351   1.1652325306e+02   1.4459740956e+00    0.3879192    0.3131721 -66.69  0.002230978    1.546    0.353
        53 -10.2952    214.6915    223.0527   1.0872049197e+02  -5.2963926690e+00     0.240994    0.1397119  28.19 0.0006517752    1.730    0.422
        54 -10.8282    197.4978    125.5285   9.1710662535e+01   1.6342049150e+01    0.1534718    0.1486591 -61.25 9.004806e-05    1.007    0.007
        55 -13.0634    147.4033    123.1116   1.0218394424e+02   2.8406551543e+01    0.5165123    0.3382146 -55.62   0.00169532    1.605    0.377
        56 -11.7705     61.9027    124.8813   1.2555598070e+02   4.3516524214e+01    0.2091388    0.1812662 -65.56 0.0003046114    1.018    0.017
        57 -12.0002    225.8822    220.3582   1.0613301392e+02  -6.7719083108e+00    0.2377467    0.1798415 -18.24 0.0009509674    1.334    0.250
        58 -11.5698    192.9469    218.1854   1.1208469593e+02  -6.6021081341e-01    0.1901473    0.1693281  35.74 0.0003675477    1.050    0.048
        59 -12.9630     71.8676    122.1302   1.2218074652e+02   4.2807283581e+01    0.3199671    0.2121645  47.89  0.001136224    1.677    0.404
        60 -13.3704    137.6793    119.9117   1.0378112719e+02   3.1264640651e+01    0.4314965    0.3707609 -41.21 0.0004605592    1.182    0.154
        61 -12.4921     82.9853    121.2165   1.1883388763e+02   4.1354972721e+01    0.2207863    0.1969389 -59.88  0.001245991    1.028    0.027
        62 -10.6274    215.0104    213.6294   1.0696143951e+02  -3.8544592557e+00    0.1780672    0.1477682  29.07 0.0005527229    1.101    0.092
        63 -11.3112     21.0000    120.0064   1.3612257633e+02   4.8924103580e+01     0.325266    0.1274925 -58.60  0.001562609    1.928    0.481
        64 -11.3464     19.9510    116.2597   1.3583636944e+02   4.9859107345e+01    0.2090897    0.1815206  76.51 0.0005806152    1.273    0.215
        65 -10.4243    184.3378    241.2198   1.1757319886e+02  -2.9061511480e+00    0.1258444   0.08691768  23.24 0.0006827778    1.524    0.344
        66 -13.2086    152.7077    115.2545   9.8911011841e+01   2.8916231769e+01    0.6291471    0.3104078  47.90  0.001253921    2.036    0.509
        67 -13.3546    144.2558    115.1649   1.0093293392e+02   3.0853906956e+01    0.4652825    0.4336804  59.77 0.0003016672    1.075    0.070
        68 -13.2853    140.3274    107.0372   9.9772782922e+01   3.3484277498e+01    0.4559438    0.3548035  11.44  0.001260259    1.736    0.424
        69 -14.3136    149.1931    107.5806   9.7744803961e+01   3.1356284602e+01     1.000967    0.5140364  47.46  0.002828035    1.953    0.488
        70 -12.6283    144.5007    103.0684   9.7675321715e+01   3.3376812309e+01    0.3322468    0.2961793 -21.05 0.0003485721    1.238    0.192
        71 -13.8917    160.0772    117.5045   9.7758621214e+01   2.6733777570e+01     0.584689    0.5079475  86.02  0.001802239    1.251    0.201
        72 -12.3578    158.8649    112.3146   9.6703591415e+01   2.8116801148e+01    0.3137714    0.2836669 -83.31 0.0003095628    1.155    0.134
        73 -11.3867    204.6037    211.8768   1.0865664723e+02  -1.7073067203e+00    0.3233169    0.1607477 -42.94  0.001223042    2.168    0.539
        74 -11.6943     79.9235    112.2056   1.1764934036e+02   4.3920214281e+01    0.2360013    0.1896756 -54.12 0.0003175749    1.138    0.121
        75 -12.7672     97.3035    107.9736   1.1158827568e+02   4.1999437690e+01    0.3958621    0.2204149  31.42  0.001158602    2.133    0.531
        76 -11.3479     78.6672    108.0667   1.1703392954e+02   4.5056289447e+01    0.2030064    0.1681451 -49.78 0.0004824849    1.102    0.093
        77 -12.1793     80.5100    103.2428   1.1530193460e+02   4.5856642785e+01    0.2478457    0.2453934 -53.99 0.0005604568    1.081    0.075
        78 -12.4578    206.1513    206.5480   1.0736848907e+02  -1.0820048702e+00    0.4321578    0.2545548  47.53  0.001618854    1.721    0.419
        79 -11.6956    129.4186    101.2474   1.0098985752e+02   3.7114236774e+01    0.2747969    0.2141802  46.49 0.0006120168    1.298    0.230
        80 -11.9429    140.7000     99.2871   9.7582461679e+01   3.5024707788e+01     0.240917    0.1924594  65.69 0.0001884506    1.361    0.265
        81 -12.7147    143.0844     96.1695   9.6134330872e+01   3.5118745352e+01    0.3712438    0.3507023  17.50  0.001105867    1.138    0.121
        82 -12.4121    131.3447     96.8415   9.9275611144e+01   3.7614367399e+01    0.3465376    0.2531888  51.03  0.001377816    1.391    0.281
        83 -11.8439     61.9758     95.3685   1.1901825498e+02   5.0243828147e+01    0.3476514    0.2328363 -25.92  0.001775389    1.752    0.429
        84 -10.8770     19.3374     94.6523   1.3230831129e+02   5.4710846210e+01    0.1759468    0.1298657  81.78 0.0008076358    1.693    0.409
        85 -10.6991    202.1944    202.8661   1.0745847881e+02   2.9144433073e-01    0.2401699    0.2023208 -10.95 0.0006062391    1.254    0.202
        86 -12.6548    132.0796     91.2324   9.7509430765e+01   3.8593276016e+01     0.357108    0.2878305  41.14  0.001775324    1.260    0.206
        87 -11.9008     35.8381     88.8119   1.2583243968e+02   5.4591923465e+01    0.2715507     0.134243 -47.64 0.0008417928    1.668    0.401
        88 -12.0364    110.6321     89.0114   1.0264073408e+02   4.3554489360e+01     0.349003    0.2101289  49.16  0.001073469    1.756    0.431
        89 -11.2996     89.6713     89.2857   1.0883462711e+02   4.7375478390e+01    0.2251557    0.1778413  49.08 0.0004316051    1.405    0.288
        90 -12.3740     89.7765     85.8666   1.0783296700e+02   4.8062913867e+01    0.3595375    0.2724821  63.09   0.00120497    1.720    0.418
        91 -12.3248     73.0360     88.1606   1.1366189800e+02   5.0256689712e+01    0.3140201    0.2367851  23.59 0.0009014693    1.472    0.321
        92 -12.5847    123.3411     87.1150   9.8612828449e+01   4.1313878864e+01    0.4095748    0.2730028  51.62 0.0002442393    1.551    0.355
        93 -11.4407    116.8349     87.7397   1.0055210104e+02   4.2555368737e+01    0.2724803    0.2122402  70.34  0.001318955    1.594    0.373
        94 -10.7962    152.4941     87.4871   9.1466270022e+01   3.4633813632e+01    0.1526627    0.1494217  76.71 -2.477746e-05    1.006    0.006
        95 -11.0216     17.6326     86.6634   1.3129173543e+02   5.6550079623e+01    0.1861392    0.1076814 -38.53 0.0007198374    1.618    0.382
        96 -11.9423     44.5399     82.4670   1.2144248753e+02   5.5062545061e+01    0.2362835     0.125834  27.25 0.0008370554    2.156    0.536
        97 -10.3911      6.8352     79.1873   1.3334329670e+02   5.8809685668e+01    0.1581665    0.1032081 -42.82 0.0003608559    1.292    0.226
        98 -11.5358     81.0703     76.2345   1.0770820549e+02   5.1438149014e+01    0.2247721    0.1734238 -30.26 0.0004813875    1.241    0.194
        99 -11.6331     82.3745     70.8202   1.0564377772e+02   5.2262888786e+01    0.4082078    0.2326567 -57.15  0.001803402    2.298    0.565
       100 -12.9520     97.2013     72.4261   1.0157553055e+02   4.9365971339e+01     0.505539    0.4093498  -3.22  0.001384909    1.359    0.264
       101 -11.3554     67.0083     74.0380   1.1161240867e+02   5.3995451335e+01    0.2072116     0.177449 -28.30 0.0005953491    1.044    0.042
       102 -10.2841     70.4090     49.4933   1.0256697148e+02   5.7904668067e+01    0.1292355    0.1099353  -9.90   8.6753e-05    1.034    0.033
       103 -10.5173    195.8823    207.2690   1.0953850551e+02   6.9377717698e-01    0.1834483    0.1676209  45.92 0.0002527907    1.128    0.114
       104 -11.6601    194.0000    202.4170   1.0901574031e+02   1.9165403483e+00    0.3989575    0.3129585 -21.48  0.002041913    1.424    0.298
       105 -10.9141    191.2910    200.7201   1.0924646426e+02   2.7430928301e+00    0.3453114    0.1988981 -34.47  0.001568115    1.968    0.492
       106  99.0000    158.8225    244.9674   1.2305215890e+02   9.1639470660e-01    0.3408225    0.1009911 -52.36   0.00124857    4.308    0.768
       107 -11.8081    219.2356    203.7087   1.0429759895e+02  -2.9718986209e+00    0.2965154    0.2073576  39.59  0.001143386    1.378    0.274
       108 -10.7968     82.7760    247.5128   1.3774290065e+02   1.3012096182e+01    0.1276571    0.1038828  49.71 0.0004498757    1.301    0.231
