#   1 NUMBER                 Running object number                                     
#   2 MAG_AUTO               Kron-like elliptical aperture magnitude                    [mag]
#   3 X_IMAGE                Object position along x                                    [pixel]
#   4 Y_IMAGE                Object position along y                                    [pixel]
#   5 X_WORLD                Barycenter position along world x axis                     [deg]
#   6 Y_WORLD                Barycenter position along world y axis                     [deg]
#   7 A_WORLD                Profile RMS along major axis (world units)                 [deg]
#   8 B_WORLD                Profile RMS along minor axis (world units)                 [deg]
#   9 THETA_WORLD            Position angle (CCW/world-x)                               [deg]
#  10 FWHM_WORLD             FWHM assuming a gaussian core                              [deg]
#  11 ELONGATION             A_IMAGE/B_IMAGE                                           
#  12 ELLIPTICITY            1 - B_IMAGE/A_IMAGE                                       
         1 -14.2707    175.5356     54.8937   5.4639243326e+01   3.4147070556e+01     1.855567     1.039368  30.63  0.005454965    2.734    0.634
         2 -14.1995    190.8480     41.2757   4.8296778688e+01   3.2278459360e+01    0.9461757    0.8981432 -13.69  0.003368545    1.132    0.117
         3 -14.0406    218.8905     10.6845   3.6963447011e+01   2.9133800799e+01      1.00873    0.5268395 -29.66  0.005074316    1.699    0.411
         4 -13.7926    212.8099     11.1749   3.7537737418e+01   3.0481661531e+01    0.9324256    0.3667157 -26.58  0.003827287    2.300    0.565
         5 -11.3954    248.9177      2.1125   3.3084139075e+01   2.3521996773e+01    0.3083512     0.125796  80.47  0.001504519    2.681    0.627
         6 -19.0674     14.0611     99.5641   1.1655780755e+02   5.4133591271e+01     15.73689    0.8590255 -76.54   0.02543411   15.724    0.936
         7 -16.9722     70.0034    144.1203   1.0420263714e+02   3.7190856939e+01     8.468899     3.732431  62.58   0.02926777    3.577    0.720
         8 -13.2514     59.1732    193.5163   1.1237544750e+02   2.7715466066e+01    0.4834284    0.2889411 -52.24  0.002341623    2.104    0.525
         9 -10.9580     43.7616    210.0445   1.1695763263e+02   2.6223939074e+01    0.2518294    0.1665386  75.02  0.001106869    1.415    0.293
        10  -9.8601     44.2059    198.2778   1.1612574499e+02   2.8455684755e+01   0.09447092   0.08531483 -62.09 0.0001919205    1.409    0.290
        11 -10.3084     36.1609    197.9131   1.1789782548e+02   2.9373595864e+01    0.1616699     0.114584  54.49 0.0003671494    1.110    0.099
        12 -11.0110     82.0131    194.6718   1.0723631372e+02   2.4617338061e+01    0.2889171    0.2065537  48.56  0.001097524    1.178    0.151
        13 -10.0034     77.8033    192.6019   1.0799376513e+02   2.5577458811e+01    0.1816972     0.128736  46.67  0.000449544    1.180    0.153
        14 -11.6064     42.8323    206.0058   1.1691508490e+02   2.7092650985e+01    0.2593287    0.2061326 -28.03  0.001198592    1.953    0.488
        15 -12.1963    151.6444    192.9401   9.1654528434e+01   1.4683992733e+01    0.2878615    0.2514254 -72.00  0.001592539    1.536    0.349
        16 -12.9367    148.6391    187.3495   9.1426477042e+01   1.6085748094e+01    0.3524808    0.3076183 -73.09   0.00222924    1.504    0.335
        17 -10.2724      7.1155    192.2822   1.2405258521e+02   3.3180684240e+01    0.1465102   0.07256586  41.43 0.0005307861    1.595    0.373
        18 -12.4669     65.8347    204.8367   1.1180294291e+02   2.4703599946e+01    0.4126627    0.2098895 -62.56  0.001679197    2.220    0.550
        19 -11.5499     90.0445    212.6102   1.0723732134e+02   2.0219659860e+01    0.2586263     0.181147  53.56 0.0006652038    1.266    0.210
        20 -11.5310    187.1037    175.7821   8.1695982547e+01   1.1739967027e+01    0.3018639    0.2597932 -23.70   0.00106009    1.218    0.179
        21 -11.3041    149.0163    176.3259   8.9569555028e+01   1.7927213775e+01    0.1986293    0.1863014 -71.48 0.0004348074    1.300    0.231
        22 -11.7664    146.8392    172.7889   8.9448886869e+01   1.8918840875e+01    0.2417638    0.1988036 -67.79 0.0007938513    1.557    0.358
        23 -10.9018     59.1074    176.7288   1.1090525072e+02   3.1214704378e+01    0.1984313     0.172038 -84.60 0.0004431426    1.194    0.162
        24 -18.0194     36.9728    234.9997   1.1962024772e+02   2.2463239829e+01     8.478685     3.873631  30.45   0.03594609    1.938    0.484
        25 -11.4005     44.2120    172.0165   1.1419684795e+02   3.3951533835e+01    0.5719467    0.1451672  34.83  0.002264615    2.998    0.666
        26 -12.1173    138.5717    170.0705   9.0831200812e+01   2.0804565566e+01    0.3111516     0.210942  35.31  0.001652205    1.340    0.254
        27  -9.7401    193.4813    170.5353   7.9531739433e+01   1.1495237000e+01    0.1287169    0.1103715   9.59 6.958129e-05    1.011    0.011
        28 -11.2628    240.4623    169.4827   7.1315674544e+01   4.4104006017e+00    0.1197423   0.09384895  -2.19 1.753453e-07    1.003    0.003
        29 -10.5042    185.1700    168.9107   8.0815898213e+01   1.3116476103e+01     0.184321    0.1785055  20.66 0.0006943959    1.248    0.199
        30 -11.8427    193.5165    195.6046   8.3881777945e+01   7.8817172600e+00    0.7940671    0.4466867 -60.74    0.0028292    6.430    0.844
        31 -12.0593     90.3782    157.0721   1.0052931184e+02   3.1280283035e+01    0.2633126    0.2485811  25.37 0.0003830575    1.165    0.141
        32 -13.1634     96.4772    150.6582   9.7923746326e+01   3.1759458418e+01    0.5891858    0.5015098   4.95  0.003289259    1.439    0.305
        33 -12.2884    133.8499    145.3447   8.7424784851e+01   2.6462288618e+01     1.065528    0.3020864 -55.16  0.002868052    5.507    0.818
        34 -10.2505    187.3056    151.3486   7.6991393658e+01   1.5551557666e+01    0.1410388   0.09806542   1.82 0.0007042098    1.701    0.412
        35 -11.8860     55.5497    200.9370   1.1377841534e+02   2.6667744547e+01    0.3151241    0.2245876 -38.15  0.001398561    2.103    0.524
        36 -10.7353    174.8881    149.1431   7.9016603954e+01   1.8163592554e+01    0.2000493    0.1914699  71.16 0.0007234185    1.286    0.222
        37 -11.5823    109.0705    147.2862   9.4033746550e+01   3.0436088789e+01    0.2443208    0.2058066 -77.93 0.0003597577    1.298    0.230
        38 -12.4751    107.8427    137.2915   9.2507186619e+01   3.2853208112e+01    0.4611126    0.3578041 -46.61  0.002402482    1.367    0.268
        39 -11.9382    105.9732    130.7294   9.1725542049e+01   3.4658338671e+01    0.3786238     0.331065 -74.86  0.001165414    1.196    0.164
        40 -12.4450     95.9477    136.6111   9.5645183633e+01   3.5026634206e+01    0.2811142    0.2597929 -89.43 0.0004631864    1.079    0.073
        41 -11.1344    136.0000    129.0268   8.3479105009e+01   2.9407662069e+01    0.3917103    0.0839443 -47.00   0.00103629    4.799    0.792
        42 -11.6976    115.0648    128.6196   8.8805620804e+01   3.3487859683e+01    0.3028558    0.2521012  21.96 0.0008337863    1.324    0.245
        43 -10.3515     70.4571    199.5164   1.1032194891e+02   2.5159363099e+01    0.2265702    0.1718549  26.81 0.0006235478    1.388    0.279
        44 -11.2682    102.4890    124.2882   9.1379934374e+01   3.6748476045e+01    0.2757136    0.2405471 -12.94 0.0007621861    1.378    0.274
        45 -11.1053    119.9919    123.1915   8.6298150909e+01   3.3758247152e+01    0.2450828    0.1769097   7.63  0.001078704    2.006    0.501
        46 -10.6292    135.0000    119.9887   8.1660410272e+01   3.1487346545e+01    0.2454074    0.0849691 -46.13 0.0008015038    2.936    0.659
        47 -10.1916    110.1741    117.9244   8.7806912558e+01   3.6799571556e+01    0.2156361    0.1944211  81.22 0.0003020048    1.172    0.146
        48 -10.8162    231.2549    113.7916   6.1318027837e+01   1.3321966504e+01    0.2256497    0.1991007   6.13 0.0007503018    1.123    0.110
        49 -10.5912    167.7001    112.6663   7.2292022110e+01   2.6120479253e+01    0.2961141    0.2174117 -77.22  0.001327369    2.102    0.524
        50 -12.3677    118.7559    110.6624   8.3691421021e+01   3.6761633753e+01    0.6306662    0.3845895  59.77  0.002597407    2.041    0.510
        51 -10.4306    205.5398    110.2251   6.4527355939e+01   1.8722617154e+01    0.2372943    0.1947641  44.53  0.000664794    1.307    0.235
        52 -11.0460     75.6702    247.1639   1.1289631718e+02   1.6270291003e+01    0.3295368    0.1013339 -60.13  0.001662423    3.927    0.745
        53 -11.1594     71.9171    243.8073   1.1338980604e+02   1.7224760052e+01    0.2064124    0.1391198  85.87  0.001008655    1.734    0.423
        54 -13.5539    195.7688     35.5680   4.6017644673e+01   3.1807635158e+01    0.5600294    0.5203837 -61.92  0.001183805    1.033    0.032
        55 -12.1439    198.0526     23.4664   4.2263576246e+01   3.2683663275e+01    0.2587126    0.1935319  -3.88 0.0009141379    1.615    0.381
        56 -11.8070     93.4092    205.6916   1.0582314554e+02   2.1016442955e+01    0.2657518    0.2010788  18.40 0.0008228879    1.502    0.334
        57 -12.3476     96.3954    202.1942   1.0479779486e+02   2.1250328652e+01    0.3254343    0.2563684  60.50  0.001930324    1.230    0.187
        58 -10.2403    189.5176     15.0293   4.0631795160e+01   3.5701068689e+01      0.20667    0.1286538 -27.96 0.0005947747    1.551    0.355
