#   1 NUMBER                 Running object number                                     
#   2 MAG_AUTO               Kron-like elliptical aperture magnitude                    [mag]
#   3 X_IMAGE                Object position along x                                    [pixel]
#   4 Y_IMAGE                Object position along y                                    [pixel]
#   5 X_WORLD                Barycenter position along world x axis                     [deg]
#   6 Y_WORLD                Barycenter position along world y axis                     [deg]
#   7 A_WORLD                Profile RMS along major axis (world units)                 [deg]
#   8 B_WORLD                Profile RMS along minor axis (world units)                 [deg]
#   9 THETA_WORLD            Position angle (CCW/world-x)                               [deg]
#  10 FWHM_WORLD             FWHM assuming a gaussian core                              [deg]
#  11 ELONGATION             A_IMAGE/B_IMAGE                                           
#  12 ELLIPTICITY            1 - B_IMAGE/A_IMAGE                                       
         1 -14.8423    186.8880     88.4032   8.2357068293e+01   2.5506716959e+01     10.21673     4.704744 -54.04   0.03404839    3.270    0.694
         2 -14.7002    128.3651     23.7523   7.2530347082e+01   5.0791677882e+01     4.951191     4.800875 -67.69   0.02754298    1.076    0.071
         3 -14.1722    249.1011      4.7535   5.4156250222e+01   2.2496608997e+01    0.5712101    0.4217409 -21.75  0.001920838    1.462    0.316
         4  99.0000    207.3475     10.1583   5.7963447728e+01   3.1203163596e+01      1.36924    0.5457492 -80.61  0.005137874    3.204    0.688
         5 -15.3639    202.4814     58.6242   7.1727447743e+01   2.6462321284e+01     11.25961     4.600043 -56.49   0.03572767    3.898    0.743
         6 -17.0252    241.8063     27.3911   5.9773770356e+01   2.1623688039e+01     3.374951     2.952407 -27.59   0.01757741    1.217    0.179
         7 -14.0400    230.4908     18.8508   5.8527663540e+01   2.4968308011e+01     1.150082    0.6408619   0.40  0.004930641    3.293    0.696
         8 -10.1599    180.5600     27.8920   6.5664306620e+01   3.6015351082e+01     0.839802    0.2711893 -35.36  0.003016375    2.673    0.626
         9  -9.1892    178.5727     12.8113   6.1228604731e+01   3.8215609302e+01    0.3297958    0.1213369 -28.73  0.001263799    2.551    0.608
        10 -10.4411      5.6922      7.8864   1.2730534836e+02   7.7674434308e+01    0.2181915    0.1195635 -43.81  0.001092128    1.464    0.317
        11 -14.1487    233.0736     10.3816   5.6311371688e+01   2.5289017806e+01    0.8891495    0.6333995 -73.66  0.002859551    1.304    0.233
        12  -9.1038    171.8340      2.3059   5.8579647570e+01   4.1016489278e+01    0.3280004    0.2285426 -71.77  0.001047282    1.350    0.259
        13  -9.1221    167.6809      2.3351   5.8975164639e+01   4.2129556856e+01    0.2944946     0.182137 -75.55  0.001048559    1.591    0.371
        14  -8.0341    184.9645      5.5732   5.8435476265e+01   3.7256518734e+01    0.3446033    0.1677371  52.41 0.0009542691    2.274    0.560
        15 -12.6077    169.5336     71.0413   8.0685702370e+01   3.2637478720e+01    0.8781006    0.7158073 -21.83   0.00145098    1.305    0.234
        16 -13.0680    235.5486    249.0623   1.0523508604e+02  -5.1156967232e+00     1.751442    0.7491474  26.95   0.01094364    1.768    0.434
        17 -12.0304     59.6099    156.5625   1.3157839603e+02   3.5540080381e+01    0.6769034    0.4710883  69.56  0.001799353    1.437    0.304
        18 -11.9589     46.6332    165.8852   1.3624154532e+02   3.4855089190e+01     0.577903     0.413154  -7.73   0.00152585    2.062    0.515
        19 -12.4318     53.9704    160.9010   1.3368743958e+02   3.5189341038e+01    0.8729428    0.6364346  62.56  0.002629798    1.262    0.208
        20 -10.3771    230.2485    166.9076   9.2606580839e+01   4.9992441217e+00    0.2509629     0.153681 -38.58  0.001400842    1.801    0.445
        21  -9.1186    203.9582    161.0943   9.6143688725e+01   1.0042651936e+01    0.2286793    0.1788388 -60.82 0.0009830277    2.091    0.522
        22  -9.0472     37.3217    162.3232   1.3855890738e+02   3.6697644722e+01    0.1263928   0.09813414 -38.88 0.0005896622    1.678    0.404
        23  -8.2291    155.4679    159.5743   1.0609466807e+02   1.8999758067e+01     0.144919    0.1294637  27.45 0.0002952272    1.043    0.041
        24  -8.0924     42.2989    246.7288   1.4225923390e+02   1.9061373482e+01    0.1152964   0.05510327  50.96            0    1.526    0.345
        25  -9.4492    192.1039    143.8354   9.4853827730e+01   1.4925424661e+01     0.197741    0.1928517  29.94 0.0003606488    1.239    0.193
        26  -9.8594    184.9588    141.9836   9.5897125315e+01   1.6599365926e+01    0.2177892    0.1996622   5.54 0.0004366084    1.042    0.041
        27 -10.4190    192.8659    139.6338   9.3785039371e+01   1.5485836231e+01    0.2580426    0.2369633  -2.68 0.0006763272    1.064    0.060
        28 -12.0798    188.3891    137.8520   9.4283906390e+01   1.6649390053e+01    0.6435832    0.3959834  41.90  0.003079201    1.611    0.379
        29 -12.2475    249.9113    233.7541   1.0073458834e+02  -5.2223293663e+00    0.5432606     0.308704   1.11 0.0005495041    1.427    0.299
        30  -8.4095    109.0734    140.3585   1.1439999495e+02   3.1759046403e+01     0.205652    0.1774266  42.97 0.0007222424    1.079    0.073
        31 -11.2744    160.5020    128.8136   9.8278830917e+01   2.3963181475e+01    0.4669292    0.3952333  -4.03  0.002401476    1.258    0.205
        32 -10.8476    135.0038    122.5091   1.0318279863e+02   3.0666796586e+01    0.8598303     0.428404 -58.61  0.002972433    2.811    0.644
        33 -11.1276    218.4565    126.1108   8.6108988909e+01   1.2839567165e+01    0.3971784    0.2851982 -16.91  0.001040714    1.325    0.245
        34  -9.3573    170.2251    127.2124   9.5682867433e+01   2.2231466280e+01    0.1947048    0.1800411  89.92 0.0003372717    1.337    0.252
        35  -8.5512     16.7512    233.2528   1.4688887253e+02   2.3922389140e+01    0.1291566    0.1098313  40.18 0.0003884101    1.304    0.233
        36  -8.1966    201.3098    222.3089   1.0730429614e+02   1.9370919719e+00    0.1216281   0.07309866   6.73 0.0002531023    1.620    0.383
        37  -8.9228    148.0697    115.1954   9.7961813130e+01   2.9386798216e+01    0.2971424    0.2111498 -72.30  0.001228931    2.094    0.522
        38 -10.0365    134.7785    108.6760   9.9747121577e+01   3.3721957317e+01     1.051131    0.1838698 -44.86  0.002334531    5.895    0.830
        39  -9.7682    156.5775    112.3829   9.5156971887e+01   2.8062788809e+01    0.2940576    0.2305833 -69.77 0.0008575586    1.661    0.398
        40  -9.6470    126.9762    111.5472   1.0266966452e+02   3.4806626258e+01    0.3005045    0.2247745 -66.81 0.0009411604    1.630    0.386
        41  -9.2918    139.7101    105.4037   9.7548551459e+01   3.3310731001e+01    0.3327446      0.28947  46.34  0.001642634    1.126    0.112
        42  -9.6744    147.1316    101.2276   9.4494043337e+01   3.2468935236e+01    0.3931956    0.3142068  70.92  0.001797046    1.485    0.327
        43  -9.9835    123.4237    102.6238   1.0132277879e+02   3.7582905949e+01    0.3386641    0.2732532  72.53 0.0009664464    1.473    0.321
        44  -9.0444     92.0263    100.7174   1.1087805613e+02   4.4546904049e+01    0.4100242    0.2160635 -73.74  0.001083147    3.511    0.715
        45  -9.5028    117.8219    100.2456   1.0233599018e+02   3.9355085201e+01    0.2818385    0.2203785 -61.92  0.001128344    1.424    0.298
        46 -10.6645    208.9346     96.1235   8.0582334158e+01   1.9368431740e+01    0.3762123    0.3062988 -68.79 0.0008750406    1.528    0.346
        47  -9.8424    133.0000    142.9802   1.0831814255e+02   2.6639147869e+01    0.8762029    0.2039851 -53.26  0.002054199    6.390    0.843
        48  -9.0135    133.2089     97.1339   9.7007178540e+01   3.6562983719e+01    0.2698223    0.2293444  64.51 0.0002446882    1.264    0.209
        49 -10.6399    156.5386     95.1249   9.0511445444e+01   3.1465546838e+01    0.4955142    0.3323625  37.02  0.002150052    1.588    0.370
        50 -10.0944    140.3154     91.6283   9.3509251382e+01   3.6039446536e+01    0.5811659     0.293839 -49.89  0.002111981    2.208    0.547
        51 -11.2406    170.5367     86.2392   8.4924176935e+01   2.9754894918e+01    0.6461897    0.4939869   7.66  0.002973898    1.671    0.402
        52 -11.2470    153.7381     85.2511   8.8311675227e+01   3.4036962662e+01    0.3575998    0.3003998 -32.27  0.000536175    1.212    0.175
        53 -10.9482    158.6485     84.1623   8.6869325850e+01   3.3033175200e+01    0.6527371    0.5558686  74.06  0.002775316    1.292    0.226
        54  -9.3414     76.3408     88.0139   1.1328246701e+02   5.0561252886e+01    0.3996979    0.2416179 -81.82  0.001450384    2.679    0.627
        55 -10.2351     83.1731     76.1655   1.0708449057e+02   5.2212501396e+01    0.2485269    0.2195541 -13.25  0.001063536    1.246    0.197
        56 -10.0833    163.0438    212.4053   1.1335015063e+02   8.7290175994e+00    0.1941137    0.1717782  -4.57 0.0001809154    1.226    0.185
        57  -9.7804    192.4928    194.0142   1.0445908130e+02   6.9789434657e+00     0.531352    0.2810655 -57.91  0.001764846    6.542    0.847
        58  -9.4441    150.3609     64.8947   8.2748502368e+01   3.8609164204e+01    0.2559905     0.190459 -53.84 0.0006510936    1.439    0.305
        59  -9.6409    122.9533     65.0370   8.9723975538e+01   4.5637560907e+01    0.2372223    0.2337381  69.37 0.0003655516    1.020    0.020
        60 -10.6445    117.5803     60.8428   8.9787658726e+01   4.7791568583e+01    0.5078436    0.3026608 -49.73  0.002025593    1.855    0.461
        61 -10.8178    124.0068     59.8956   8.7597071602e+01   4.6342946103e+01    0.4519502    0.3157933 -60.45  0.001615728    1.741    0.426
        62 -12.9289     17.6259    183.7945   1.4501974333e+02   3.3644325980e+01    0.8621986    0.6415014  60.96   0.00399913    1.061    0.058
        63  -9.5986    176.3704    149.9251   9.9417298501e+01   1.6845739974e+01    0.2320396    0.1830627  43.41  0.001235268    1.307    0.235
        64  -9.4665    190.2273    148.8360   9.6300208699e+01   1.4438097501e+01    0.2172374     0.162339 -84.29 0.0009529185    2.860    0.650
        65  -8.4562    146.9501    157.4931   1.0772008221e+02   2.0987095932e+01    0.2279696     0.133122  39.95 0.0008385828    1.565    0.361
        66  -8.4801     69.3848     34.2019   9.6377943385e+01   6.3945868092e+01     0.204096    0.1374099 -48.44 0.0006065104    1.648    0.393
        67 -10.7567    213.0969    187.7637   9.9473893914e+01   4.7487465331e+00    0.6083249    0.3226209  50.92  0.002125894    3.262    0.693
        68  -9.3963    181.6565     23.1709   6.4085698724e+01   3.6280549842e+01    0.2991554    0.2098017 -53.71 0.0004037739    1.358    0.264
        69  -9.1590    197.8090     29.1066   6.4055089156e+01   3.1463279604e+01    0.2059511    0.1751823 -47.82 0.0006260274    1.085    0.078
        70  -8.8752    110.9168    155.8103   1.1674673892e+02   2.7904652131e+01    0.2048591    0.1861456  13.10 0.0003392356    1.171    0.146
        71  -8.7493    159.7998     19.0338   6.5470515401e+01   4.2618530976e+01    0.1831235    0.1772536 -43.47 0.0003390139    1.120    0.107
        72  -9.1331     56.8696     17.7071   9.3704831063e+01   6.9291042857e+01    0.2527406     0.189671 -35.22 0.0008032011    1.371    0.271
        73  -8.8618    190.8400    180.9380   1.0248528975e+02   9.1801574852e+00    0.1877714    0.1542916 -59.66 0.0005100296    1.921    0.479
        74 -10.3320    221.6586    177.6846   9.6113582155e+01   4.8375488938e+00    0.3257395    0.3025927  83.64  0.002033404    1.967    0.492
        75  -9.9644    198.8348    174.6067   9.9744061972e+01   8.8415763020e+00    0.2014831    0.1592368  61.23  0.001108996    2.046    0.511
        76  -9.9682    228.6901    172.1817   9.3872861457e+01   4.5274796488e+00    0.1832359     0.147861 -31.48  0.001186701    1.441    0.306
        77 -10.1483    215.8539    168.5574   9.5418058584e+01   6.9938650799e+00    0.4677872    0.2107901  51.56  0.001816474    3.871    0.742
        78 -12.2882     69.1959    145.8189   1.2732308695e+02   3.6902235589e+01     1.431258     1.225435 -63.41  0.005647755    1.233    0.189
