#   1 NUMBER                 Running object number                                     
#   2 MAG_AUTO               Kron-like elliptical aperture magnitude                    [mag]
#   3 X_IMAGE                Object position along x                                    [pixel]
#   4 Y_IMAGE                Object position along y                                    [pixel]
#   5 X_WORLD                Barycenter position along world x axis                     [deg]
#   6 Y_WORLD                Barycenter position along world y axis                     [deg]
#   7 A_WORLD                Profile RMS along major axis (world units)                 [deg]
#   8 B_WORLD                Profile RMS along minor axis (world units)                 [deg]
#   9 THETA_WORLD            Position angle (CCW/world-x)                               [deg]
#  10 FWHM_WORLD             FWHM assuming a gaussian core                              [deg]
#  11 ELONGATION             A_IMAGE/B_IMAGE                                           
#  12 ELLIPTICITY            1 - B_IMAGE/A_IMAGE                                       
         1 -11.3482     10.2990     25.4062   9.5248293522e+01   7.0282615632e+01    0.4890222    0.3090207  21.66  0.002442227    1.750    0.428
         2 -10.2999     26.2750     14.1650   8.1585043721e+01   7.0631994447e+01    0.1964593    0.1277825  -8.32 0.0003095094    1.370    0.270
         3 -11.7005     13.1346      2.6846   8.3060441837e+01   7.3617162425e+01    0.3895753    0.3034204  34.80  0.001619086    1.882    0.469
         4 -11.0487     32.4861      1.7439   7.1861125881e+01   7.1468899733e+01     0.232602    0.1455045  32.49 0.0006617594    1.514    0.340
         5 -10.7901     27.2271      3.2236   7.5389742891e+01   7.1980220688e+01    0.2989215    0.2014659  43.97  0.001742418    2.132    0.531
         6 -11.6356     20.1723     16.3896   8.5940107147e+01   7.0941329703e+01    0.6073173    0.4434586  22.28  0.004156451    1.477    0.323
         7 -11.6613     23.5753      7.9185   7.9872768434e+01   7.1809193810e+01    0.2908909    0.2380571  17.12  0.002115275    1.363    0.266
         8 -11.1605     21.1276      3.0609   7.8626976923e+01   7.2726378295e+01    0.3368952    0.2211102 -21.39  0.002268752    1.272    0.214
         9 -11.7211    129.5420     18.8513   4.8458253447e+01   5.0616121210e+01    0.4845126    0.2822255 -11.70  0.001351561    2.130    0.530
        10 -10.8758    128.4465     11.4807   4.6106678633e+01   5.1587355208e+01    0.3604172    0.1847155  62.68  0.000540825    1.711    0.416
        11 -10.4786    127.0124      8.2322   4.5238865591e+01   5.2216577540e+01    0.2225094    0.1876076 -32.87 0.0002087777    1.342    0.255
        12 -11.5170    103.9221     20.3090   5.4778525983e+01   5.6398310668e+01    0.4645222    0.4080732 -45.29  0.002360375    1.361    0.265
        13 -11.4222      9.8689     15.5330   9.1350308813e+01   7.1982333997e+01    0.2365748    0.1486048 -21.12 0.0005164859    1.290    0.225
        14 -11.8657      3.7647     17.7594   9.5856754893e+01   7.2044328581e+01    0.3626004      0.34619  19.45  0.002088467    1.570    0.363
        15 -11.3068     48.7369     14.8929   7.1087369224e+01   6.7547057318e+01    0.6078741    0.3177022  35.10  0.003285435    1.778    0.438
        16 -11.2560     39.9475     12.5184   7.3906182282e+01   6.9133978426e+01    0.5132446    0.2079649 -37.06  0.001518417    2.493    0.599
        17 -11.2557     34.3040     15.7979   7.8269770158e+01   6.9443096539e+01    0.4892105    0.2262437  16.10   0.00221397    2.876    0.652
        18 -10.5299     31.1638     12.8355   7.8384070057e+01   7.0244640181e+01      0.19058    0.1388565 -15.30 0.0003460603    1.128    0.114
        19 -10.7198     60.0863     16.8370   6.7312325342e+01   6.5475216335e+01    0.2765635    0.1795839   3.81 0.0003344318    1.592    0.372
        20 -10.3839     64.4707     13.6201   6.4119562006e+01   6.5086231302e+01    0.3719598    0.1967251  -4.11  0.001545827    2.471    0.595
        21 -10.6336     74.9451     15.8976   6.1461958020e+01   6.2893903058e+01    0.5588598    0.2881961  56.40  0.002660842    2.238    0.553
        22 -10.3996     74.1060      2.4745   5.5577255952e+01   6.4369561989e+01    0.3434255    0.2309441 -22.58  0.001346058    1.596    0.373
        23 -11.5918     75.3749     10.2351   5.8756067069e+01   6.3404049602e+01    0.5192507    0.4074538 -48.53    0.0031334    1.789    0.441
        24 -10.7888     79.4834     10.4853   5.7565400239e+01   6.2567979234e+01    0.3233824    0.1653579  35.53 0.0008762161    1.801    0.445
        25 -12.1780    234.5544     11.5238   3.3397382157e+01   2.6539030055e+01    0.4340153    0.3149208  -5.22  0.002555828    2.173    0.540
        26 -12.0184    241.7173     10.1997   3.2592889469e+01   2.5173326946e+01    0.3230589    0.1793377 -49.28  0.001182971    1.516    0.341
        27 -11.3316    175.3593     11.8245   3.9151486698e+01   4.0139609221e+01    0.3929753    0.2175644  61.89  0.000346872    1.608    0.378
        28 -10.7470    157.9288     12.3542   4.1589047792e+01   4.4344693344e+01    0.5314611    0.1835459 -42.79  0.002068204    3.119    0.679
        29 -10.2904    155.4662     14.5199   4.2601299698e+01   4.4739561954e+01    0.2158184    0.1319251  -2.67 8.679608e-05    2.303    0.566
        30 -10.2126     43.4847      8.6808   7.0313248603e+01   6.9096775906e+01    0.2637453    0.1984007 -10.19  0.001068689    1.166    0.142
        31 -10.5346     98.5940     12.9003   5.3193232622e+01   5.8325051181e+01     0.386605    0.1753543  49.99  0.001797635    1.850    0.459
        32 -10.6835    226.0175     10.7766   3.3900224826e+01   2.8464336613e+01    0.2816407    0.1142007 -30.66  0.001319165    2.515    0.602
        33 -10.7325    117.5690     10.0299   4.7715732076e+01   5.4286858188e+01    0.3750281    0.1910015 -40.81  0.001618683    2.320    0.569
        34 -10.3974    164.5304      9.3457   3.9807099904e+01   4.3013090460e+01    0.2300165     0.167622 -59.17 0.0006838457    1.446    0.308
        35  -9.6962     59.1901      9.8390   6.4306173303e+01   6.6430866495e+01    0.1733632    0.1214847  15.53  0.001049275    1.272    0.214
        36  -9.3294     55.3844      9.7670   6.5771355133e+01   6.7087306083e+01    0.1581903    0.1025134  -9.31 0.0004643163    1.494    0.331
        37 -11.1744      8.3469      9.0538   8.9222423528e+01   7.3121266713e+01    0.4289132    0.1902317  36.44   0.00221494    3.244    0.692
        38  -9.5693    182.6564      8.2656   3.7349739568e+01   3.8721970617e+01    0.1863314    0.1222238 -34.44 0.0008327851    1.612    0.380
        39 -12.2923    178.8326      4.2899   3.6707165264e+01   4.0010352185e+01    0.3256855    0.2160868  66.82 0.0003117324    1.336    0.251
        40 -10.8250    146.5061      6.6946   4.1508438795e+01   4.7647989988e+01    0.3181445    0.2065339  32.50  0.001678431    1.778    0.437
        41  -9.9781     33.9036      7.7032   7.4364891567e+01   7.0566739647e+01    0.2086477    0.1293782  16.17 0.0005463503    1.469    0.319
        42  -9.4234     37.3394      6.2721   7.1927561485e+01   7.0271210837e+01    0.1225001   0.07434656   8.84  0.000272035    1.607    0.378
        43 -10.2591    191.1456      5.9471   3.5864289775e+01   3.6920169030e+01     0.382613    0.1253193 -41.71  0.001604007    2.813    0.644
        44 -11.0994     92.3352      5.7717   5.1861475599e+01   6.0327744908e+01    0.4790834    0.2161657  31.49  0.001694801    2.449    0.592
        45 -10.5241     97.6041      4.5432   5.0031861182e+01   5.9284587570e+01    0.3368043    0.1665998  22.31  0.001496314    2.572    0.611
        46  -9.3991     67.4411      7.5419   6.0167190669e+01   6.5183282079e+01    0.1278159    0.0999428  20.88 5.707741e-05    1.061    0.058
        47 -12.2357    216.1747      6.1773   3.3665529977e+01   3.1123338968e+01    0.4765237    0.2961076 -71.96  0.001625592    1.495    0.331
        48 -11.0214     80.7693      4.2496   5.4381770540e+01   6.2881339686e+01    0.3063166    0.2284663 -28.98 0.0008287721    1.538    0.350
        49  -9.9694    164.4479      5.2010   3.8623079264e+01   4.3408081148e+01    0.1755969    0.1105254 -44.19 0.0009406229    1.678    0.404
        50 -10.5919    203.1534      3.4300   3.4125489424e+01   3.4355604982e+01    0.2035547    0.1697865 -45.47 0.0003276214    1.250    0.200
        51 -10.7386     64.7231      3.9974   5.9409527277e+01   6.6026858717e+01    0.2031369    0.1583268  25.68 0.0003738637    1.043    0.042
        52 -11.1946     68.2835      3.5791   5.7983625444e+01   6.5398769445e+01    0.2236438    0.1719547  24.07 0.0006036832    1.074    0.069
        53 -10.9305    243.3457      3.0734   3.1022570544e+01   2.5591424023e+01     0.167018    0.1255091 -58.59 0.0006535474    1.109    0.098
        54 -10.3433    126.8554      3.5401   4.3629890581e+01   5.2641904209e+01    0.2469726    0.1492862 -40.92 0.0008167605    1.909    0.476
        55 -11.3490    237.2910      3.2765   3.1464651584e+01   2.6830545164e+01    0.2981501    0.2261384  -9.14  0.001749503    1.963    0.491
        56  -9.8495    230.8166      1.6238   3.1561747014e+01   2.8372326117e+01    0.1625235   0.09477906 -86.94 0.0004414017    1.561    0.360
        57 -10.0867    194.0093      1.5399   3.4485680076e+01   3.6658366809e+01    0.1950046    0.1082158  76.62   0.00100928    1.590    0.371
        58 -10.5068    221.0466      1.4205   3.2220064083e+01   3.0514961455e+01    0.1768605    0.1026829  80.43 0.0003685042    1.547    0.354
        59 -10.5407     46.5485    177.8391   1.1343590135e+02   3.2272324001e+01     0.277903    0.2206926  87.46  0.001238024    1.114    0.103
        60 -12.2211    225.9751    245.7784   8.4300320141e+01  -7.7556531554e+00     0.600612    0.3184718  -4.34  0.002998905    2.508    0.601
        61 -12.3798    233.4398    247.1252   8.3177576972e+01  -8.9079458699e+00    0.5778726    0.3336707 -32.78  0.003549332    1.807    0.447
        62  -9.9662     72.5925    250.1148   1.1474082389e+02   1.3725731180e+01    0.1808414    0.1578975   7.46   0.00125896    1.645    0.392
        63 -12.6492     17.4294    238.3341   1.2419473091e+02   2.2326615635e+01    0.9228456    0.2989224  39.18  0.004831187    2.465    0.594
        64 -11.6142      4.1604    237.0526   1.2647710469e+02   2.3845178380e+01    0.4212482    0.2283893 -59.70  0.002655635    2.298    0.565
        65 -13.1668      6.0035    245.0097   1.2650053917e+02   2.2174781291e+01    0.8754934    0.4546753  44.45  0.004779712    1.605    0.377
        66 -12.1791     21.8771    248.8435   1.2394605448e+02   1.9894604653e+01    0.3808101    0.2323225  47.31  0.001604082    1.361    0.265
        67 -11.3619     17.2705    247.4115   1.2467563711e+02   2.0629928777e+01    0.2495909    0.1499981  50.88 0.0007895161    1.321    0.243
        68  -9.3658     69.6161    178.1587   1.0779755462e+02   2.9338531877e+01    0.1865635    0.1144901 -54.56 0.0005362389    1.651    0.394
        69  -9.4264    200.5251    176.4592   7.6612903553e+01   7.0306846907e+00    0.1432599    0.1270768  -2.55 0.0001856917    1.025    0.024
        70 -12.1682     34.0924    174.3114   1.1607860189e+02   3.4443136566e+01    0.2390866    0.1834899 -77.70 0.0004691054    1.141    0.123
        71 -10.9369     17.9933    173.4075   1.1981899088e+02   3.6165963355e+01    0.3372237    0.2399662  60.97  0.001825512    1.317    0.241
        72 -10.8751     36.9440    157.9435   1.1358264081e+02   3.8094078992e+01    0.3021363    0.1794374 -79.64 0.0003455918    1.540    0.351
        73 -11.8596     50.7270    161.9769   1.1048016794e+02   3.5617308797e+01    0.6121215    0.4051777  72.41  0.002027808    1.620    0.383
        74 -11.1082     44.5698    162.6958   1.1217247050e+02   3.6133914922e+01    0.3529544    0.2147522 -69.08  0.001611552    1.455    0.313
        75 -11.2101     40.5917    163.7976   1.1332721301e+02   3.6293145977e+01    0.6102923    0.2122166 -70.42  0.002428868    2.583    0.613
        76 -11.4925     36.5904    166.7901   1.1467806689e+02   3.5985012820e+01    0.4616321    0.2759128  63.58  0.002405274    1.734    0.423
        77 -11.1807     35.7640    163.3723   1.1450949580e+02   3.6893439047e+01    0.2911494    0.2421722   3.60  0.001058856    1.607    0.378
        78  -9.7035     99.1402    164.8937   9.8177658824e+01   2.8117927809e+01    0.2163071     0.187273  75.32 0.0003343845    1.193    0.162
        79  -9.7887     67.2335    165.3967   1.0663020254e+02   3.2731413682e+01    0.1995421    0.1178895  46.37 0.0009490222    1.701    0.412
        80  -9.0518    200.3193    162.6664   7.3755066936e+01   9.6258472554e+00    0.1396768    0.1179371 -79.76 0.0007048918    1.697    0.411
        81  -9.8820      9.2647    162.3967   1.2097820558e+02   3.9454128364e+01    0.3061059     0.042082  36.00  0.001102937    4.610    0.783
        82 -12.1935     21.7730    157.2061   1.1741359799e+02   3.9683653494e+01    0.5061732    0.4749981 -23.69  0.003492372    1.365    0.267
        83  -9.2533    216.3834    155.1842   6.9000189036e+01   7.9943249571e+00    0.1933097    0.1247433 -45.71 0.0003800819    1.591    0.372
        84 -10.1169     11.4262    153.4815   1.1967883876e+02   4.1404149253e+01    0.2252751    0.1234193  23.68  0.001223159    2.210    0.548
        85 -10.0523    177.5542    151.0683   7.6000536472e+01   1.6368138384e+01    0.2936093    0.2158494  59.00  0.001366898    1.652    0.395
        86  -9.4415    143.6952    148.6518   8.3405028916e+01   2.3752124585e+01    0.1601332    0.1217715  -9.90 0.0002796341    1.698    0.411
        87 -10.8674     17.6517    147.0152   1.1743988399e+02   4.2483764723e+01    0.3265781    0.2109723   0.93  0.001200275    2.266    0.559
        88 -10.0716    207.0678    146.3253   6.8813554426e+01   1.1396035534e+01    0.1994744    0.1851711  26.07 0.0006665097    1.129    0.114
        89  -9.1602     41.4598    146.4319   1.1090415429e+02   4.0466611442e+01    0.1343773    0.1159615 -85.12 3.591553e-05    1.043    0.041
        90  -9.7419    220.4607    143.9675   6.5775631898e+01   9.2489063731e+00    0.2170216    0.1289978 -37.44 0.0007415014    1.534    0.348
        91 -10.2895     29.9166    143.7401   1.1374910547e+02   4.2250600202e+01    0.1735933    0.1562928 -87.82 0.0006031114    1.081    0.075
        92  -9.5241    239.5446    140.5285   6.1729419249e+01   6.3359121647e+00    0.1379395    0.1187376 -26.32 0.0005939851    1.008    0.008
        93 -10.0300     56.4664    139.1773   1.0554025203e+02   4.0595870411e+01    0.3534836    0.1558234  47.45  0.001415263    2.600    0.615
        94  -9.5937     15.0038    140.0000   1.1740776252e+02   4.4386763700e+01    0.1811623   0.07330448  21.48  0.000811863    3.008    0.668
        95 -10.9997      2.7409    137.1172   1.2043101342e+02   4.5904105622e+01    0.2965685    0.1331418 -78.50  0.001187539    1.815    0.449
        96 -10.3043      9.3039    136.9049   1.1863667458e+02   4.5536466683e+01    0.1822343    0.1270603 -74.27  0.000408927    1.150    0.131
        97  -9.5623    122.8273    135.5708   8.5833444366e+01   3.0886774078e+01      0.21891    0.1457636  51.47 0.0005151336    1.632    0.387
        98  -9.7589     20.9743    135.2992   1.1521269681e+02   4.5079429609e+01    0.1793569    0.1464327 -75.21 0.0008165679    1.012    0.012
        99 -10.1048    249.4999    134.0330   5.8750147289e+01   5.6647822953e+00    0.2077648    0.1149931 -36.38  0.000566022    1.539    0.350
       100 -10.2501     55.5643    133.0354   1.0476520520e+02   4.2240116181e+01    0.2698115    0.1812966  51.01 0.0008227822    1.651    0.394
       101 -10.3587    110.9545    130.6373   8.7961849820e+01   3.4311877662e+01    0.2169091    0.1998001  43.55 0.0006216138    1.115    0.103
       102 -11.3357     37.1773    129.7612   1.0973564462e+02   4.5036417774e+01    0.4316146    0.2662607 -51.73  0.001922158    1.488    0.328
       103 -11.4588     73.4743    129.1726   9.8645354208e+01   4.0860566540e+01     0.461036    0.2804881  53.87  0.002048024    1.970    0.492
       104  -9.2613      9.4813    129.4248   1.1779121541e+02   4.7332464908e+01    0.1252845    0.1014215 -74.53 7.866713e-05    1.016    0.016
       105 -11.6081     21.8438    121.1203   1.1310796300e+02   4.8489153316e+01    0.4588426    0.2114744 -42.12  0.002092321    2.343    0.573
       106 -11.3698     24.9909    117.1230   1.1155047069e+02   4.9224794622e+01    0.4683304    0.2240899 -77.16  0.001581333    2.063    0.515
       107 -11.2825     13.2952    126.0475   1.1630351972e+02   4.7899416728e+01     0.338532    0.2197296  24.10 0.0006473483    1.857    0.461
       108 -11.3182     10.7894    122.7702   1.1664586271e+02   4.8859691496e+01    0.2902444    0.2088142 -84.56  0.001152119    1.230    0.187
       109  -9.9541     57.5070    125.6560   1.0284259500e+02   4.3848423746e+01     0.276624    0.1689507 -18.50  0.001166953    2.573    0.611
       110  -9.4715     24.3331    126.2712   1.1307122448e+02   4.7030303756e+01    0.1299396   0.08588252 -41.87 0.0002439199    1.592    0.372
       111  -9.6798    220.1965    124.4049   6.1371978959e+01   1.2816043712e+01    0.1787071    0.1412535  63.86 0.0004593073    1.537    0.350
       112 -10.8646      2.7956    123.1591   1.1902454764e+02   4.9244091793e+01    0.2917287    0.1604425 -56.69 0.0006194265    1.540    0.351
       113 -10.0544      1.3635    119.1653   1.1901132594e+02   5.0278084144e+01     0.273909     0.148208  76.42  0.001052124    2.065    0.516
       114  -9.4102     67.3647    120.7485   9.8795629201e+01   4.3798602754e+01    0.1430615    0.1070535  65.37 0.0002610891    1.622    0.383
       115  -9.7961     15.5818    119.5174   1.1479890144e+02   4.9332628453e+01    0.1526678    0.1204621 -20.25 -0.0001238898    1.541    0.351
       116 -10.9364     16.2589    115.8698   1.1409771813e+02   5.0173460043e+01    0.2401285    0.2144474 -18.72   0.00112564    1.331    0.248
       117 -10.4692     72.0479    117.6059   9.6643736999e+01   4.3921457222e+01    0.3995904    0.1815191 -61.67 0.0009157149    2.236    0.553
       118 -10.6470     85.9868    116.7125   9.2069057520e+01   4.2019274404e+01    0.2557251    0.2024574 -50.79 0.0005490185    1.185    0.156
       119  -9.2314    220.2813    116.6740   5.9553934812e+01   1.4177931368e+01    0.1433639    0.1070751 -62.75 0.0002930273    1.597    0.374
       120  -9.9622    213.9762    115.6750   6.0403969068e+01   1.5657894793e+01    0.1935085    0.1838171  35.57 0.0004900746    1.139    0.122
       121  -9.3406    179.4862    116.5192   6.7275756691e+01   2.2972239597e+01    0.1533604    0.1474868 -30.14 5.988146e-05    1.001    0.001
       122 -10.9399    249.3184    112.2807   5.4048920882e+01   9.2714174363e+00    0.2529753    0.1999313 -47.25 0.0006654065    1.175    0.149
       123  -9.7931     94.8022    112.7535   8.8380948974e+01   4.1486711448e+01    0.2081778     0.180829  89.91 0.0008332234    1.351    0.260
       124 -12.5566     14.4858    109.0668   1.1369524800e+02   5.1938939981e+01    0.5530504    0.3218753 -44.96  0.002377181    1.621    0.383
       125 -11.9754     55.2458    110.4291   1.0052623238e+02   4.7884071153e+01    0.2918383    0.2654911 -27.45 0.0003384505    1.145    0.127
       126 -10.7846     35.7180    103.2196   1.0563408844e+02   5.1703313204e+01    0.4767178    0.2511323  -7.00  0.001982443    3.128    0.680
       127 -11.1565     25.6195    105.6127   1.0949178269e+02   5.1981173108e+01     0.693085    0.1901619 -66.94  0.002474584    3.120    0.680
       128  -9.7682     82.5060    108.9654   9.1285910616e+01   4.4437390666e+01    0.2311115    0.1398326 -53.82   0.00102252    1.563    0.360
       129 -11.5423      2.9503    106.4127   1.1702529091e+02   5.3238971591e+01    0.3855584    0.3247299 -56.18   0.00195179    1.133    0.118
       130  -9.8801     70.8328    108.1365   9.4868198442e+01   4.6397420581e+01    0.2181529    0.1916998 -81.20 0.0006204757    1.254    0.202
       131 -10.7689    243.9447    104.6713   5.3124173941e+01   1.1527585546e+01    0.1800352    0.1721183 -43.73 0.0005808792    1.107    0.097
       132 -10.6074    120.6570    100.0707   7.7300446021e+01   3.9406883827e+01    0.6031263    0.2783964 -29.35   0.00184642    3.474    0.712
       133  -9.0813    223.2860    103.7000   5.6000646386e+01   1.5827851629e+01    0.1409308     0.104389 -63.75 0.0002779991    1.554    0.357
       134 -11.5485     36.7205    109.6585   1.0651415837e+02   5.0044502181e+01    0.4786691    0.2889572  74.45  0.001837377    2.420    0.587
       135 -11.4249      3.3908     99.4892   1.1596362979e+02   5.4858261471e+01    0.2722502    0.2154573 -88.14 0.0005511671    1.249    0.200
       136 -11.1460      1.3989     96.1650   1.1616816182e+02   5.5736133976e+01    0.2435126    0.1480259 -73.09 0.0002406316    1.347    0.258
       137 -11.2692    143.6372     98.2996   7.0662670722e+01   3.4769573787e+01     0.501492     0.392317  77.35  0.002299339    1.642    0.391
       138 -10.1631     57.5040     96.5018   9.6582804043e+01   5.0957438912e+01    0.1890074    0.1323329  41.22 0.0007190378    1.623    0.384
       139 -11.0522     61.9820     98.9309   9.5622365800e+01   4.9809369899e+01    0.3397515    0.3121176  16.58  0.001053239    1.182    0.154
       140  -9.9901     66.4766     98.4133   9.3949173226e+01   4.9325212848e+01    0.2188433    0.1802552 -58.98 0.0001208804    1.188    0.158
       141 -11.3722    162.0810     98.3590   6.6285674400e+01   3.0527627006e+01    0.3192833    0.2322847 -48.01   0.00108361    1.389    0.280
       142  -9.7355     50.9510     99.3119   9.9537558409e+01   5.1074753717e+01    0.1789794    0.1709944 -23.84 0.0004396726    1.110    0.099
       143 -10.4479     40.2687     97.7923   1.0294621833e+02   5.2575590689e+01    0.3169129    0.2332824 -89.33  0.001445689    1.661    0.398
       144 -11.1593     14.4953     97.1889   1.1185476567e+02   5.4784082167e+01    0.4611858    0.1887177 -70.06   0.00208321    2.102    0.524
       145 -10.8338     11.2270     90.9564   1.1195813114e+02   5.6451145259e+01    0.3399908    0.1844283  12.87  0.001118565    2.263    0.558
       146  -9.7564    249.8508     95.8259   5.0355593638e+01   1.1821984668e+01    0.1830302    0.1386939 -55.92 0.0004545789    1.291    0.225
       147 -10.4442     92.9903     96.0208   8.4492003141e+01   4.5673279597e+01    0.1912743     0.166324 -41.50 0.0003530941    1.094    0.086
       148 -10.7867     25.7729     91.4645   1.0681963937e+02   5.5353187326e+01    0.3259083    0.2102094 -79.34 0.0009607055    1.693    0.409
       149 -11.0476     20.7729     93.7704   1.0905792355e+02   5.5178046460e+01    0.4589379   0.08988246 -57.20  0.001641842    3.106    0.678
       150 -10.9942     21.8333     87.2563   1.0741978460e+02   5.6633877813e+01    0.3256672    0.2193904 -46.75  0.001891972    1.251    0.201
       151 -11.3303    157.4424     82.1905   6.2757520725e+01   3.4686116449e+01    0.9134837    0.4425052  32.12  0.002901593    3.478    0.713
       152 -12.5691    165.7663     84.3109   6.1553730069e+01   3.2320100126e+01    0.9609456    0.6854027  50.57  0.004524397    1.411    0.291
       153 -12.4281    159.0941     89.5256   6.4491375452e+01   3.2929111430e+01    0.5357099    0.4255459  -1.47  0.001525333    1.574    0.365
       154  -9.6317     46.9329     92.6844   9.9419807867e+01   5.3094594732e+01    0.1776698    0.1696372 -15.50 0.0004152224    1.130    0.115
       155 -10.2563     31.4074     92.9157   1.0507778455e+02   5.4551147561e+01    0.1862528    0.1744985 -77.72 0.0003924786    1.175    0.149
       156 -10.3453     35.8393     91.2057   1.0310430287e+02   5.4560209036e+01    0.2176048    0.2042326  40.81 0.0007704131    1.259    0.206
       157 -10.3047    135.4231     92.2163   7.1017015003e+01   3.7855649621e+01    0.3044739     0.150468 -36.79  0.001044684    2.095    0.523
       158 -10.9302     96.6717     89.4514   8.1419262573e+01   4.6453001903e+01    0.3668245    0.2499953  18.39  0.001636025    1.811    0.448
       159  -9.8898     83.0346     88.9471   8.5735973889e+01   4.8966807371e+01    0.2293122    0.1682584 -17.04 0.0005242335    1.586    0.369
       160 -11.0320     78.6503     87.8777   8.6914759056e+01   4.9920516888e+01    0.3303039    0.2281151 -54.49  0.001601012    1.469    0.319
       161 -10.9585     46.4547     86.1006   9.7986613318e+01   5.4677605325e+01    0.5162182    0.2488884 -66.16  0.002140533    2.412    0.585
       162  -9.8210     43.6722     83.3131   9.8323574918e+01   5.5615765433e+01    0.2577199    0.1608018  52.97  0.001229776    2.289    0.563
       163 -11.5858      5.7184     83.6045   1.1269979337e+02   5.8453813148e+01    0.6065491    0.2432341 -52.91  0.003002031    1.843    0.458
       164 -11.1779      3.0846     78.4318   1.1278568884e+02   5.9762173956e+01    0.5691546      0.24383 -77.23  0.002612204    2.434    0.589
       165 -10.6600     10.7164     62.8612   1.0651979301e+02   6.2840850316e+01    0.3299716    0.1819673 -39.03  0.000931915    1.527    0.345
       166 -12.4594      3.7891     64.7589   1.0986681342e+02   6.2782640829e+01    0.6765977    0.3677017 -65.81  0.002663595    1.564    0.361
       167 -11.7295      4.9790     58.6438   1.0800289933e+02   6.4050012546e+01    0.3600976    0.2815369  72.46 0.0009837303    1.789    0.441
       168 -12.2352     13.0809     75.9816   1.0845653011e+02   5.9797264790e+01    0.5971079    0.2679408 -52.58  0.001740297    1.677    0.404
       169 -13.7076     16.3000     67.6607   1.0530994683e+02   6.1454939393e+01    0.6378289    0.2789968 -55.64 0.0006923215    1.754    0.430
       170 -11.6838     22.0883     66.8511   1.0270004765e+02   6.1230827641e+01    0.3779628    0.2421097  48.75  0.001192521    2.230    0.552
       171  -9.1707    120.6996     87.3154   7.3556793231e+01   4.2080462003e+01    0.1514824    0.1241267 -82.82 0.0004466866    1.614    0.380
       172 -10.1900     64.9906     87.2998   9.1535082411e+01   5.2097118032e+01    0.2213176     0.184048 -20.64  0.001222062    1.204    0.169
       173 -10.2890     67.7988     84.0566   8.9616544818e+01   5.2424999641e+01    0.3264765    0.1934589 -32.17  0.001472385    1.808    0.447
       174 -10.8006    116.0681     84.8010   7.4115100268e+01   4.3575137515e+01     0.361477    0.2592136 -20.43  0.001638377    1.628    0.386
       175 -12.0756     31.1611     81.2737   1.0259521802e+02   5.7281842799e+01    0.5388791    0.2997944 -24.33 0.0006968965    2.130    0.531
       176 -11.3939      8.3178     73.9994   1.0992811797e+02   6.0509793920e+01    0.3542425    0.2466643   6.60  0.001724003    1.695    0.410
       177  -9.2941    146.2935     81.6781   6.5182530356e+01   3.7412595926e+01    0.1543058    0.1214634 -74.67 0.0007016204    1.613    0.380
       178 -10.9395     22.0000     73.9842   1.0447836714e+02   5.9659865464e+01    0.5350815    0.1884406 -62.15  0.002247222    2.452    0.592
       179 -10.9159     21.4649     81.4774   1.0636264678e+02   5.7997908272e+01     0.433018    0.1971386 -34.50  0.001878984    2.318    0.569
       180 -10.7814     18.7049     79.3117   1.0696351445e+02   5.8685001434e+01    0.2969437    0.1596507 -57.08  0.001574564    1.469    0.319
       181  -9.9931     86.4525     80.3266   8.1998015191e+01   5.0244274810e+01     0.229523    0.1833628  20.61 0.0005164446    1.312    0.238
       182  -8.9463    112.2797     79.6908   7.3634450020e+01   4.5393898477e+01    0.1451269    0.1217158 -79.71 0.0001882772    1.560    0.359
       183  -9.5692     71.0770     79.5232   8.7105646615e+01   5.2931048644e+01    0.1927975    0.1397764  30.93 0.0003161826    1.455    0.313
       184  -9.6772     47.1657     56.8599   8.9129192040e+01   6.0883738912e+01    0.2198599    0.1644974  -5.60 0.0009000744    1.345    0.257
       185 -11.7961     50.1319     68.6618   9.1717968767e+01   5.8110824833e+01    0.4001344    0.2780627  -3.93 0.0003253619    1.635    0.388
       186 -11.1074     51.6170     62.8532   8.9289009683e+01   5.9131820485e+01    0.3820024    0.2866366 -58.02  0.002066285    1.513    0.339
       187 -10.6188     60.9123     78.2234   9.0437817060e+01   5.4674069181e+01     0.356462    0.2398441 -55.37 0.0009638123    1.491    0.329
       188 -10.6979     54.0469     73.7177   9.1709073559e+01   5.6548628897e+01    0.2754636    0.2447688 -16.05  0.000959734    1.077    0.071
       189  -9.8264     57.9880     74.2123   9.0346284704e+01   5.5933673807e+01    0.1929849    0.1900747  30.20 0.0004611713    1.216    0.178
       190 -12.0528     62.3275     71.5457   8.7878696301e+01   5.5907368236e+01    0.4150031    0.2712242 -17.51 0.0001466974    1.807    0.447
       191 -11.0566    161.7416     93.2783   6.4953493354e+01   3.1592417173e+01    0.3381046       0.2875  60.21 0.0008226551    1.228    0.186
       192 -10.7283     41.5737     37.4302   8.4401910033e+01   6.5160224406e+01     1.019222    0.6090624  -8.67  0.005253344    1.946    0.486
       193 -12.8201     44.7215     75.2753   9.5783419726e+01   5.7306192625e+01    0.4560869    0.3714577  64.18 0.0005426386    1.699    0.411
       194 -10.7165     31.7564     68.0023   9.8987730453e+01   6.0188580813e+01    0.2551872    0.1763251 -21.59 0.0003329708    1.457    0.314
       195  -9.7622     28.4057     60.1834   9.8193289423e+01   6.2151643533e+01     1.093327    0.4957668  37.59  0.005096001    2.782    0.641
       196 -11.8084     26.7884     49.6480   9.5664395903e+01   6.4442508424e+01    0.7352208    0.5003474 -34.68  0.003674356    1.208    0.172
       197 -11.5375     37.3597     67.0875   9.6420209099e+01   5.9855062516e+01    0.3773832    0.3089324  39.74  0.001530758    1.510    0.338
       198 -10.7375     33.5070     64.4393   9.7256846635e+01   6.0792838507e+01    0.3290337    0.2108551  18.29  0.001830622    1.719    0.418
       199 -12.8580     38.8067     50.2156   9.0441556132e+01   6.3144911972e+01    0.7305028    0.5633195 -41.92  0.004501861    1.206    0.171
       200 -11.7213     33.9554     49.7323   9.2437935774e+01   6.3749148906e+01    0.3839341     0.269116 -46.53  0.001076911    1.307    0.235
       201 -11.0111     91.5207     74.9660   7.8607409075e+01   5.0434526053e+01    0.3521552    0.2873147  21.26  0.001852474    1.257    0.204
       202 -10.6661     74.4861     75.4938   8.4642600588e+01   5.3258053832e+01    0.2762897    0.1875058 -35.39 0.0008764428    1.399    0.285
       203  -9.2725     59.6537     89.6881   9.4090614276e+01   5.2270734302e+01    0.1492869   0.09959209 -24.23 0.0007046141    1.711    0.415
       204 -10.5318    145.0203     73.7900   6.3107464636e+01   3.9149145016e+01    0.3671902    0.2572147  38.77  0.001694541    1.493    0.330
       205  -9.5613    137.4727     73.9948   6.4999388048e+01   4.0883268405e+01    0.2252771    0.1497027 -34.55 0.0004545616    1.533    0.348
       206 -10.4438    102.5688     73.2256   7.4498523113e+01   4.8648613532e+01    0.2718333    0.2042002  40.81 0.0007962934    1.341    0.254
       207 -10.4398    173.0602     69.9545   5.6008981113e+01   3.3059832135e+01    0.2123974    0.2085973 -87.55            0    1.016    0.016
       208 -11.0715    167.9042     69.9258   5.7002600438e+01   3.4313511237e+01    0.2265565    0.2077421  58.73 0.0002988541    1.084    0.077
       209 -10.9154     77.3135     64.5115   8.0020166239e+01   5.5007868654e+01      0.40907    0.3219289 -40.23  0.002228061    1.243    0.196
       210 -10.9836     94.2673     66.0864   7.4755336118e+01   5.1641083822e+01    0.4085456    0.2925363   5.20  0.001242323    1.722    0.419
       211  -9.6856    121.5731     65.5422   6.6425031704e+01   4.6021007454e+01    0.1469773    0.1413439  11.06 8.755856e-05    1.010    0.010
       212 -10.6616     85.5414     60.6399   7.5782232704e+01   5.4290001374e+01    0.4584905    0.2938003  10.75  0.002029622    2.109    0.526
       213 -11.5340     78.6408     69.5076   8.1229548061e+01   5.3803229518e+01     0.566284    0.2731819  38.03  0.002392434    2.142    0.533
       214 -10.1897    120.9914     61.3844   6.5199589186e+01   4.6866633754e+01    0.3293335    0.1390306  50.73  0.001162033    2.333    0.571
       215  -9.9403     98.1711     60.3216   7.1507954836e+01   5.1922586305e+01     0.236329    0.1823739 -22.57 0.0002855799    1.308    0.236
       216 -11.4097     63.4733     60.0731   8.3654421695e+01   5.8058385395e+01    0.2927876    0.2449435  11.57  0.001054016    1.177    0.150
       217 -11.2435     58.7867     58.6941   8.5015307782e+01   5.9002395054e+01    0.3611554    0.2552329 -60.68  0.001861045    1.857    0.461
       218 -10.2136    155.6722     60.6645   5.6740272846e+01   3.8791747869e+01    0.2476416     0.180774 -31.33 0.0009910036    1.426    0.299
       219 -12.0261    147.1245     56.7546   5.7346322630e+01   4.1480251902e+01    0.2608989    0.2590355 -31.75 0.0002448587    1.041    0.039
       220 -11.7780     75.1789     56.1093   7.7831359527e+01   5.6943088068e+01    0.2483325    0.2068694 -35.11 0.0002841689    1.193    0.162
       221 -10.1945     73.8052     51.1566   7.6509662853e+01   5.8057458050e+01    0.2901772    0.2038932  11.04 0.0006810455    1.563    0.360
       222 -11.1827     78.5922     47.5627   7.3407974941e+01   5.7832211268e+01    0.3644175    0.2231382 -29.23  0.001508661    1.621    0.383
       223 -10.7132     98.4573     55.9557   6.9871311391e+01   5.2621150154e+01     0.311488    0.1943822  37.08 0.0003706185    1.585    0.369
       224 -10.0703    132.4279     54.6487   6.0031987579e+01   4.5322194822e+01    0.4287831    0.1584381  44.07  0.001471408    2.796    0.642
       225 -11.8208    129.6634     49.6626   5.9033313149e+01   4.6731334550e+01    0.5703427    0.4468292  -5.47  0.002010398    1.466    0.318
       226  -9.9974    109.7390     55.3018   6.6247798291e+01   5.0363375142e+01    0.2162853    0.1798846 -39.10  0.000152242    1.265    0.210
       227 -11.5154    105.2543     52.4415   6.6541258407e+01   5.1789852808e+01    0.4271839    0.2467632  43.71   0.00101964    1.663    0.399
       228 -10.9401     11.2020     44.3445   1.0132657205e+02   6.6666362957e+01    0.4219688    0.1805502 -56.40  0.001550955    1.964    0.491
       229 -10.7326      4.1694     46.1222   1.0521252083e+02   6.6702524683e+01    0.3448479    0.1639378 -62.74  0.001531997    1.909    0.476
       230 -12.3271      8.0887     51.5655   1.0484778198e+02   6.5381500849e+01    0.3257199    0.2360875  -8.09 0.0004595131    1.436    0.304
       231 -10.8130     12.4049     51.1862   1.0275780875e+02   6.5207991303e+01    0.3834147    0.1945208 -64.90   0.00151042    2.033    0.508
       232 -10.5320    120.1564     52.8086   6.2506101755e+01   4.8450752435e+01    0.2848488    0.2070627  26.00 0.0003452605    1.508    0.337
       233 -11.0188     87.8424     51.6972   7.1763115241e+01   5.5430287745e+01     0.313905    0.2529705  20.00 0.0007056383    1.203    0.169
       234  -9.7643     62.0683     53.2692   8.1782618831e+01   5.9553495675e+01    0.1880827    0.1648478   1.01 0.0005732037    1.072    0.067
       235  -9.4459     52.6772     50.3083   8.4510147905e+01   6.1433689824e+01     0.117992    0.1080098  82.74 0.0007035567    1.646    0.393
       236 -10.7226    112.8441     47.3846   6.2566359095e+01   5.0925275592e+01    0.4027334    0.3015062 -68.70  0.001324658    1.945    0.486
       237 -10.1396    151.9481     47.9895   5.3595583215e+01   4.1606024673e+01     0.234633    0.1675779  26.91 0.0005659828    1.704    0.413
       238  -9.3903    166.9456     48.7738   5.1010631903e+01   3.7806771837e+01     0.186337    0.1130578  59.95 0.0003681295    1.573    0.364
       239 -11.0779     57.2979     46.4955   8.1167542730e+01   6.1477153212e+01    0.2540527    0.1715073  23.46 0.0009473673    1.486    0.327
       240 -10.6131    142.9883     45.6281   5.4685660064e+01   4.4125224525e+01    0.2996091    0.2546466 -75.83 0.0009646976    1.343    0.256
       241 -10.8970     91.8863     42.4497   6.6938133613e+01   5.6108940706e+01    0.4113292     0.254377 -39.96  0.001994699    1.734    0.423
       242 -10.5468     96.0942     41.5257   6.5263344085e+01   5.5389473434e+01    0.4165004    0.2107854 -30.19  0.001819203    2.047    0.512
       243 -11.4633    101.1573     36.8197   6.1949128619e+01   5.4990842519e+01     0.542271    0.3116277  22.18  0.002335184    2.290    0.563
       244  -9.8260     51.2473     45.0258   8.3129320800e+01   6.2585282883e+01    0.1827923    0.1459213 -24.31 0.0004379769    1.091    0.084
       245  -9.6326     73.5300     44.1794   7.3934546325e+01   5.9280987847e+01     0.373046    0.1565343  40.01  0.001561739    2.356    0.576
       246 -10.9434     83.2736     40.6495   6.9080190421e+01   5.8063146287e+01    0.3584286    0.2150363  17.86  0.001373656    2.100    0.524
       247 -11.1261     81.3695     35.2240   6.7554028127e+01   5.9222160890e+01    0.5097064    0.2461303 -28.90  0.002148036    2.138    0.532
       248 -12.4706     68.0137     39.4923   7.4139402077e+01   6.0972850535e+01     0.875953    0.5276709  -5.03  0.003160699    2.212    0.548
       249 -11.1199     78.0097     32.4878   6.7589457547e+01   6.0241301995e+01    0.6819732    0.3450093  -8.30   0.00249998    3.616    0.723
       250 -10.5396    123.5913     41.7248   5.7779884660e+01   4.9290591923e+01    0.3137835    0.2945848 -45.02  0.001658854    1.171    0.146
       251  -8.9832    163.3266     42.2685   4.9719201327e+01   3.9593324567e+01    0.1429601    0.1033852  35.78 0.0003491705    1.574    0.365
       252 -11.6971     53.0720     40.0037   8.0380971103e+01   6.3202258888e+01    0.5482513    0.3488839  33.53  0.001988888    1.618    0.382
       253 -12.6032     57.5227     34.4667   7.6234668913e+01   6.3443830136e+01    0.3577549    0.3035062 -44.05  0.002222129    1.480    0.324
       254 -10.9541     47.8859     31.5946   7.9135012191e+01   6.5299160802e+01    0.3786213    0.2045566  33.59 0.0008125388    1.861    0.463
       255  -9.9936     50.2491     27.5984   7.6350432617e+01   6.5575924442e+01    0.2515312     0.191749   5.58   0.00117387    1.158    0.136
       256 -11.4161     30.1710     33.0328   8.8011321420e+01   6.7211406050e+01    0.2804696    0.1927748  10.63  0.000370993    1.426    0.299
       257 -12.1012     24.5688     35.0041   9.1546288600e+01   6.7412943538e+01    0.4320487    0.2378241   1.32 0.0008345981    2.092    0.522
       258 -11.7686     27.5447     38.4265   9.1385541913e+01   6.6513300334e+01    0.2482772    0.2172571 -58.47  0.001301832    1.517    0.341
       259 -11.2780     30.5766     37.4740   8.9564888141e+01   6.6386722448e+01    0.2163908    0.1873304 -25.40 5.429191e-05    1.171    0.146
       260 -10.9089      7.0721     41.0949   1.0235482554e+02   6.7554598154e+01    0.2223197     0.122215 -44.20 0.0006295121    1.370    0.270
       261  -9.6430    138.4784     41.0630   5.4152070214e+01   4.5843402344e+01    0.2027408    0.1421291 -27.84 0.0007322679    1.524    0.344
       262  -9.1165    109.6853     41.2508   6.1207985477e+01   5.2518895638e+01    0.1298981     0.111329 -89.29 0.0002525306    1.522    0.343
       263 -10.7471     73.5104     37.6668   7.1335505494e+01   6.0307534497e+01     0.256069    0.1862313 -15.30 0.0009608506    1.347    0.258
       264 -10.5659    222.6106     38.2690   4.0487133200e+01   2.5982794623e+01    0.2948023    0.1976112  80.10  0.001367588    1.490    0.329
       265  -9.7740    152.8750     39.1156   5.0646007868e+01   4.2585424578e+01     0.209721    0.1840094 -75.96 0.0005374491    1.214    0.176
       266  -9.7489    171.3726     36.7488   4.6760533249e+01   3.8326352199e+01    0.2447444    0.1447396  47.11 0.0008083574    1.762    0.433
       267  -9.6051      1.7181     37.3985   1.0391680023e+02   6.8559889350e+01    0.1526022   0.09205342 -14.67 0.0009428663    1.625    0.385
       268 -10.6661    249.4553    247.6087   8.0462102284e+01  -1.0979331064e+01    0.3538908    0.1783977  -2.76  0.001830736    2.446    0.591
       269  -9.9870      1.5919     25.9045   1.0021903078e+02   7.0736332388e+01    0.1590519    0.1082548 -41.34 0.0003898468    1.138    0.121
       270 -11.9616     37.0113    243.4101   1.2092938230e+02   1.9285835862e+01     0.629459    0.2861155  87.56  0.003269213    2.345    0.574
       271 -11.4393     22.2962     25.8243   8.9008646914e+01   6.9219857511e+01    0.3657841    0.2496461 -19.44  0.001013864    1.219    0.179
       272 -12.7342     74.5730    238.1750   1.1331600070e+02   1.5698357820e+01    0.7447186    0.4777128 -73.39  0.004514724    1.664    0.399
       273 -10.4985     88.8849    241.4165   1.1076100071e+02   1.3139191020e+01    0.2212798    0.1511697 -44.75  0.001299202    1.971    0.493
       274 -11.9868      8.6306     32.6423   9.8812539787e+01   6.9082782160e+01    0.3803962    0.3569348  -3.52  0.001518681    1.360    0.265
       275 -10.9079     17.6439     31.3472   9.3650260036e+01   6.8669216880e+01    0.3928888    0.2544317  10.66  0.002472012    1.570    0.363
       276  -9.6370    149.6685    240.6830   9.8308332632e+01   4.2167442117e+00    0.1268015    0.0921361   5.55 0.0007047168    1.687    0.407
       277  -9.1898     50.3136    240.3156   1.1822911073e+02   1.8342583102e+01   0.09953741   0.09035286 -35.18 0.0004836837    1.642    0.391
       278 -10.0728    195.4109    238.7523   8.8909045683e+01  -2.4722115058e+00    0.2547975    0.1736534  17.08  0.001512399    1.334    0.250
       279 -10.3085    243.7142    237.5908   7.9805695592e+01  -9.0395068108e+00    0.1754138    0.1378758 -39.36 0.0009086707    1.789    0.441
       280 -10.1657     95.1283     34.8542   6.2972991903e+01   5.6530767706e+01    0.2584893    0.1924341 -22.58 0.0009171126    1.370    0.270
       281 -10.1969     97.9006     31.1112   6.0678912617e+01   5.6440134126e+01    0.2926438    0.2597645  49.03  0.001757662    1.179    0.152
       282 -11.1901    101.5243     28.5467   5.8645208673e+01   5.5981221148e+01    0.3096789    0.2558134 -69.28 0.0005276762    1.675    0.403
       283 -10.2598    201.8068     34.0736   4.1832853164e+01   3.1297565046e+01    0.2144894    0.1797094  77.44 0.0004210553    1.135    0.119
       284 -10.6879    246.0059     32.8079   3.7005458912e+01   2.1646221810e+01    0.2180621    0.1152237 -72.35 0.0008853647    2.102    0.524
       285 -11.2946    234.7178     30.8978   3.7600830512e+01   2.4259316217e+01     0.430454    0.2766192  34.62  0.001312057    2.592    0.614
       286  -9.6943    225.6833     33.3378   3.9021897763e+01   2.5925756569e+01    0.2138244    0.1237361 -64.20 0.0008525972    1.751    0.429
       287  -9.1847    184.3260     33.3341   4.3893969594e+01   3.5579906680e+01    0.1388192    0.1010151  34.39 0.0007051403    1.715    0.417
       288 -10.7175    165.4863     31.7473   4.6230281923e+01   4.0394756369e+01    0.3370027    0.2213665  78.64  0.001189107    1.578    0.366
       289  -9.2503    139.2109     30.9279   5.0642229707e+01   4.6949394874e+01    0.1661631    0.1122351 -29.65 0.0004113875    1.589    0.371
       290  -9.8351     89.3436     31.5874   6.3457819225e+01   5.8155204200e+01    0.2278768    0.1249549  50.87 0.0007480811    1.809    0.447
       291  -9.7210     60.7425     28.3336   7.2282165767e+01   6.3849932106e+01    0.2314496    0.1466724 -41.80  0.001240099    1.821    0.451
       292 -10.5242     59.4675     21.5317   6.9740063402e+01   6.4988125089e+01    0.1850394    0.1498988   6.68  0.001174973    1.027    0.027
       293 -11.2322     69.5678     26.3425   6.8004947592e+01   6.2618755399e+01    0.3541935    0.2321274  19.44  0.001916367    1.534    0.348
       294 -10.6595     62.5984     23.6701   6.9471933291e+01   6.4183127093e+01    0.3504463    0.2220524   9.59   0.00171411    1.723    0.420
       295 -10.0458     68.9755     22.0286   6.6315872673e+01   6.3281833146e+01    0.3052417    0.1627858  48.67  0.001247669    1.955    0.488
       296 -11.9758    194.6935     25.8166   4.0570330998e+01   3.3979000609e+01      0.40119    0.2718161 -87.37  0.002151238    1.489    0.329
       297 -11.1306    130.4112     26.1457   5.0809090218e+01   4.9626467630e+01    0.6133852     0.454666 -81.55  0.003181031    1.731    0.422
       298 -11.7791     30.0718    233.9031   1.2162719963e+02   2.1880630647e+01     0.418165    0.1807408  83.86  0.002111339    2.476    0.596
       299 -10.3796    159.9731    236.0127   9.5550096338e+01   3.3879295577e+00     0.198674    0.1435629   4.18 0.0004935737    1.642    0.391
       300 -10.8698     88.6504    249.8436   1.1161920896e+02   1.1629625539e+01    0.2949513    0.1811891  33.97  0.001119131    1.542    0.352
       301 -10.5341    118.7371     26.1637   5.3376402951e+01   5.2381531087e+01    0.3248662    0.1974286  -2.87  0.001024807    2.180    0.541
       302 -10.7319    111.7580     26.1178   5.5031388907e+01   5.3991896800e+01    0.4980766    0.2129834 -21.20  0.001999432    2.797    0.643
       303 -10.5011    213.7318     26.1573   3.8553157930e+01   2.9488147511e+01     0.226482     0.191397 -74.34 0.0006566581    1.030    0.029
       304 -10.2034    218.9294     25.9707   3.7985800155e+01   2.8330789679e+01    0.1864898    0.1620697 -75.68 0.0002950257    1.028    0.027
       305 -11.4279     96.0365     22.9050   5.7940057306e+01   5.7829540909e+01    0.5476586    0.2907423  58.95  0.002451699    1.993    0.498
       306  -9.6911    107.2920     18.3461   5.3168302843e+01   5.5851093069e+01    0.1853833     0.120626  63.92 0.0009509288    1.576    0.366
       307  -9.8115    186.8601     22.8422   4.0735190557e+01   3.6197478744e+01    0.1900801    0.1406645 -72.25 0.0005128214    1.345    0.257
       308 -10.4024     23.6423     41.6420   9.4433404993e+01   6.6268933314e+01    0.5141516     0.252083  36.62  0.002463668    2.615    0.618
       309 -10.7499    168.0850     21.4467   4.2826443317e+01   4.0928523010e+01     0.304372    0.1771896 -81.14  0.001373027    2.171    0.539
       310 -10.1378    120.9326     20.6960   5.0897152256e+01   5.2467062309e+01    0.2262347    0.1759968  17.42  0.001268649    1.390    0.281
       311  -9.9442    177.3921    234.8215   9.1847556991e+01   8.6372829783e-01    0.1697335     0.113713 -26.66 0.0009481927    1.696    0.410
       312 -10.6092    153.6870    233.5072   9.6476455057e+01   4.7969492222e+00    0.1965377     0.119915 -48.15 0.0002058449    1.904    0.475
       313 -10.2510    109.5038    242.8933   1.0676002035e+02   9.9197073265e+00    0.2630087    0.1653597  61.88 0.0009181919    1.730    0.422
       314 -10.2841      5.2231     13.4356   9.3140167529e+01   7.2665815586e+01    0.1776955    0.1508069  -6.09 0.0007124123    1.289    0.224
       315  -9.9015    139.9309     19.8648   4.6842402261e+01   4.8004213101e+01    0.2091479    0.1603753  43.28 0.0005782461    1.262    0.208
       316  -9.7147    142.9719     17.0032   4.5372046842e+01   4.7553469976e+01    0.2054572    0.1401906  38.33  0.001078374    1.532    0.347
       317 -10.1480     24.0018    232.5112   1.2267708610e+02   2.2792102111e+01    0.1875777    0.1344765 -70.66 0.0006565697    1.502    0.334
       318 -11.1312     41.6030     19.2165   7.6402372723e+01   6.8005407352e+01    0.4167863     0.212739  37.74  0.002216827    2.031    0.508
       319  -9.8830     38.2524    232.8146   1.2000633894e+02   2.1200311702e+01    0.1703744    0.1220985  68.64 0.0006454689    1.120    0.107
       320 -12.1795     28.9591    248.2927   1.2267118274e+02   1.9250622246e+01    0.5390227    0.2647184  72.57  0.003195419    1.861    0.463
       321 -10.4766    154.8631    227.3436   9.5325398349e+01   5.6730421655e+00    0.2818802   0.09950462  43.01  0.001106814    2.601    0.616
       322  -9.0485    151.6621     18.7347   4.4486664994e+01   4.5251600614e+01    0.1393698   0.09101968  42.10 0.0005230795    1.591    0.372
       323  -9.9750    228.9537     16.7041   3.4968480940e+01   2.7175659610e+01    0.1850239    0.1710797  22.90 0.0006553549    1.494    0.330
       324  -9.6911    204.4256     17.2858   3.7357406056e+01   3.2643031905e+01    0.1753816    0.1075173 -45.36 0.0009450003    1.546    0.353
       325 -10.9804    120.3645    226.3009   1.0248925623e+02   1.1352117281e+01     0.210074    0.1704435 -82.58 0.0008471376    1.445    0.308
       326 -10.0317     65.9834    226.2224   1.1396320912e+02   1.9183567972e+01    0.1967641    0.1626625 -87.75 0.0006434468    1.188    0.159
       327 -10.0736    186.8745     16.0154   3.8924536168e+01   3.6932800841e+01    0.2530815    0.1394548  47.31  0.001180226    2.044    0.511
       328 -10.7781      4.4079    226.1186   1.2594091588e+02   2.5951083018e+01    0.2602221    0.1167704  52.79   0.00140533    1.768    0.434
       329 -11.4440     21.0084    222.3200   1.2264134469e+02   2.5139597520e+01    0.2667752    0.1582908  89.15  0.001173016    1.457    0.314
       330  -9.5653    126.5466    221.5157   1.0051436431e+02   1.1293800224e+01    0.2121289    0.1080352  46.33 5.636256e-06    1.818    0.450
       331  -9.7865    190.5502    226.6434   8.7915125977e+01   1.0775731974e-01    0.2151664    0.1201492 -34.86 0.0008753732    1.930    0.482
       332  -9.3783     41.6835    220.6935   1.1845782743e+02   2.3270631737e+01    0.1056569   0.09068463 -43.71 0.0007028271    1.629    0.386
       333  -9.4727    174.9622    219.6882   8.9932146893e+01   3.7364925675e+00    0.2235226   0.09800081  20.95 0.0007045681    4.320    0.769
       334 -11.3773      9.5339    217.1776   1.2454140216e+02   2.7290823657e+01    0.3140466    0.1712471  58.37  0.001802765    1.504    0.335
       335 -11.4761    235.9069    214.9035   7.7252840484e+01  -4.9338573167e+00    0.3728604     0.319025  -0.19  0.001855308    1.157    0.136
       336 -11.6905    239.7231    211.0816   7.5879248262e+01  -4.9289418397e+00    0.4016654    0.3700117  20.49  0.002780011    1.421    0.296
       337  -9.6450     37.9651    217.5162   1.1896955018e+02   2.4349762005e+01    0.1688216    0.1063406  38.80  0.000720306    1.548    0.354
       338 -11.4061     30.1041    215.9547   1.2044328703e+02   2.5525115040e+01    0.3472546    0.2596919  10.30  0.002184323    2.066    0.516
       339  -9.3422    194.6506    215.2962   8.5173198966e+01   1.2802622746e+00    0.1230422    0.1036985  60.71 0.0002684204    1.681    0.405
       340  -9.4416    137.0001    216.0000   9.7443891534e+01   1.0662538786e+01    0.2272699   0.06971956  37.42 0.0007981096    2.913    0.657
       341  -9.8477     67.0009    215.5069   1.1272232605e+02   2.1271686667e+01     0.184363    0.1137543  38.01 0.0005968312    1.538    0.350
       342  -9.3040    107.5016     10.4809   5.0070247646e+01   5.6563699682e+01    0.1333383    0.1121355  40.70 0.0008101613    1.033    0.032
       343 -10.6292     21.5850    212.5922   1.2192262396e+02   2.7100471679e+01    0.2885041    0.1466507  54.18  0.001656804    1.680    0.405
       344 -10.0990    208.9347    212.0310   8.1776424154e+01  -4.6292741129e-01     0.201344    0.1651085   3.20 0.0005217741    1.054    0.051
       345  -9.4814     76.3317    212.3038   1.1036082703e+02   2.0703500390e+01    0.1192121    0.1014434 -21.44 0.0004321748    1.657    0.396
       346 -12.3713      4.3058    208.2563   1.2507098294e+02   2.9608143860e+01    0.5787668    0.3154004 -85.30  0.003581528    1.518    0.341
       347  -9.6155    184.8315    208.3689   8.5953234864e+01   4.0551243920e+00    0.1949553    0.1145525  26.02 0.0004110508    1.706    0.414
       348  -9.3413    188.2422    205.3513   8.4710007699e+01   4.0075303105e+00     0.135604   0.09670827  -7.97 0.0004274455    1.579    0.367
       349 -10.8556     19.8377    200.7085   1.2148486693e+02   2.9821530648e+01    0.2834973    0.1147931 -61.92  0.001340779    2.387    0.581
       350 -10.3045    175.3403    202.7578   8.6942761153e+01   6.6634698260e+00    0.2203462    0.1990213  44.81 0.0005262095    1.222    0.181
       351  -9.9303    177.7166     15.3427   3.9831769653e+01   3.9215113543e+01    0.2149542    0.1471078 -50.90 0.0006299023    1.487    0.327
       352  -9.5556    243.3263    202.2816   7.3618536287e+01  -4.1685881502e+00    0.1291791   0.08324607   0.66 0.0002300276    1.598    0.374
       353 -10.0860     10.7453    208.5866   1.2382855909e+02   2.8970939532e+01     0.200177    0.1506603 -53.69 0.0007277225    1.709    0.415
       354  -9.0649    223.4966    201.4981   7.7061079442e+01  -1.0794748423e+00    0.1287336    0.1130828  -1.51 0.0001804149    1.114    0.102
       355  -9.2563     34.3255    201.3091   1.1846181501e+02   2.8233094529e+01    0.1130845    0.0897151 -45.98 0.0007038231    1.654    0.396
       356  -9.3724    238.6530    200.7198   7.4150012596e+01  -3.2565447794e+00    0.1321466   0.08515421   2.09 0.0007011414    1.639    0.390
       357  -9.4848    215.5155    194.5446   7.7250624476e+01   1.3103469209e+00    0.1367101    0.1143676  -0.47  7.82541e-05    1.042    0.040
       358 -10.7281     16.4598    193.0729   1.2166638702e+02   3.1818480612e+01    0.2568624    0.1962444  20.11  0.001044145    1.740    0.425
       359  -9.4904    211.5912    188.2126   7.6777408422e+01   3.0234574021e+00    0.1965129     0.118169 -25.88 0.0009464194    1.699    0.412
       360  -9.4656      1.7612    188.0136   1.2444988477e+02   3.4182009475e+01    0.1527905   0.07892102 -82.38 0.0005816105    1.572    0.364
       361 -11.0073     16.6814    184.1707   1.2097139680e+02   3.3801012668e+01    0.3772163    0.1775434 -82.99  0.001941214    1.858    0.462
       362 -10.0056     14.7116    180.6603   1.2114620067e+02   3.4773612930e+01    0.1882899    0.1482435 -67.33 0.0006561285    1.290    0.225
       363  -9.8243    167.4942    183.5007   8.5059815440e+01   1.1735552352e+01    0.1447954    0.1347638  12.37 0.0008106689    1.002    0.002
       364  -9.7026     58.8324    182.1701   1.1095320872e+02   2.9787327107e+01    0.1747977    0.1543268 -47.18 0.0008325055    1.333    0.250
       365  -9.4185      1.5428    180.5052   1.2403832901e+02   3.5871837311e+01    0.1185907   0.09087805  85.27 0.0001850698    1.004    0.004
       366  -9.7923    244.3720    178.3954   6.8818079428e+01  -6.9206879893e-01    0.2509887    0.1009565 -25.68  0.000943868    3.058    0.673
