#   1 NUMBER                 Running object number                                     
#   2 MAG_AUTO               Kron-like elliptical aperture magnitude                    [mag]
#   3 X_IMAGE                Object position along x                                    [pixel]
#   4 Y_IMAGE                Object position along y                                    [pixel]
#   5 X_WORLD                Barycenter position along world x axis                     [deg]
#   6 Y_WORLD                Barycenter position along world y axis                     [deg]
#   7 A_WORLD                Profile RMS along major axis (world units)                 [deg]
#   8 B_WORLD                Profile RMS along minor axis (world units)                 [deg]
#   9 THETA_WORLD            Position angle (CCW/world-x)                               [deg]
#  10 FWHM_WORLD             FWHM assuming a gaussian core                              [deg]
#  11 ELONGATION             A_IMAGE/B_IMAGE                                           
#  12 ELLIPTICITY            1 - B_IMAGE/A_IMAGE                                       
         1 -14.5510    208.0636      5.5575   4.6149372584e+01   3.2165922898e+01     2.136818     1.471092  13.17  0.007710044    1.896    0.472
         2 -12.9269    189.6326     14.7507   5.1224840229e+01   3.6060227362e+01    0.6018293    0.4950549 -72.30  0.002202554    1.295    0.228
         3 -14.0367    171.6606     50.5431   6.5674670550e+01   3.6087049770e+01     1.812818     1.215648  23.70  0.005547364    1.898    0.473
         4 -14.2675    186.2946     36.1201   5.8433073918e+01   3.4343827479e+01     1.183133     1.012116  35.87  0.003929714    1.209    0.173
         5 -13.6725    190.3483     29.9410   5.5847677209e+01   3.4078459966e+01     0.801387    0.6075721  48.24  0.001246784    1.309    0.236
         6 -11.7197     58.6318      3.7368   7.7597350084e+01   6.6374289863e+01    0.2227631    0.1339403  26.10  0.001283956    1.702    0.412
         7 -12.0320    141.8154    199.1790   1.0646932852e+02   1.5020252746e+01    0.2902135    0.2196494  66.40  0.001129273    1.258    0.205
         8 -18.3432     48.8150    246.0700   1.2636967343e+02   2.0834082934e+01     6.307801     4.074794  44.14   0.04922565    1.695    0.410
         9 -12.6639    150.9842    191.0110   1.0356429385e+02   1.4768086138e+01    0.5696663    0.3360558 -88.43  0.002208145    3.644    0.726
        10 -11.7915     97.0185    188.8016   1.1350663764e+02   2.4223227117e+01    0.3672849    0.2835635  77.26  0.001182814    1.121    0.108
        11 -12.7783     72.6301    188.6506   1.1804879602e+02   2.7731540310e+01    0.7354699    0.5103762  34.74  0.004312848    1.855    0.461
        12 -10.7928     87.7398    202.7831   1.1675720263e+02   2.3018556852e+01    0.2919542    0.2267267 -82.65  0.002063549    1.246    0.197
        13 -11.8578    149.7144    181.1185   1.0225719891e+02   1.6713376126e+01    0.3307925    0.2156223 -84.62  0.001440385    2.347    0.574
        14 -11.4981     99.3331    180.7746   1.1206712337e+02   2.5397640315e+01    0.2430762    0.2011119  71.05  0.000573375    1.025    0.024
        15 -12.1221    193.8307    196.2104   9.6481986029e+01   6.0187877811e+00     1.117942    0.5872787 -64.86  0.003579151    6.503    0.846
        16 -10.3010     58.8719    188.1195   1.2051694528e+02   2.9603950371e+01    0.2265165    0.1666131 -45.27  0.001470877    2.157    0.536
        17  -9.7220    169.0150    177.9591   9.7983538531e+01   1.3604488058e+01     0.204258    0.1565096  80.17 0.0005615323    1.645    0.392
        18 -10.6145    164.9397    171.5332   9.7641251007e+01   1.5504903975e+01    0.2188366    0.1908188 -68.85 0.0003627056    1.284    0.221
        19 -12.7485     64.6205    200.1471   1.2058063891e+02   2.6629809893e+01     0.371214    0.2278967 -51.57  0.001208148    2.331    0.571
        20 -10.3715    201.6650    169.3130   9.0167194946e+01   8.5563431242e+00     0.317868    0.2270204 -64.69  0.001527923    2.095    0.523
        21 -10.9723    204.8697    166.2007   8.8956517892e+01   8.3974632313e+00    0.4260696    0.3293849 -39.76   0.00153944    1.427    0.299
        22 -10.8564    154.5471    187.5066   1.0234552702e+02   1.4712585856e+01    0.2793842    0.1138528  45.42   0.00120522    2.146    0.534
        23 -11.0898    230.2928    167.2602   8.4579815268e+01   3.1869805744e+00    0.2587102    0.1571206 -52.80  0.001185845    2.524    0.604
        24 -10.4971    139.8107    168.0696   1.0207085538e+02   2.0939751318e+01    0.2049667    0.1686323  78.38 0.0005260965    1.241    0.194
        25 -11.7269    193.0763    165.0873   9.0958046829e+01   1.0968071451e+01    0.4919532    0.3207768 -56.95  0.001389535    2.040    0.510
        26 -12.2122     73.5159    182.4925   1.1723804365e+02   2.8798117441e+01    0.4419213    0.3344577  75.36  0.002223015    1.077    0.071
        27 -11.3003    159.6603    163.9640   9.7315342066e+01   1.7897319176e+01    0.3228948    0.2284583 -60.59  0.001225959    1.629    0.386
        28 -10.1406      7.2183    162.0632   1.2788070055e+02   4.0020329678e+01    0.1428483    0.1064803 -85.54  0.000445229    1.152    0.132
        29  -9.7838      2.9757    161.7660   1.2863770979e+02   4.0420261207e+01    0.1375197    0.0979831  77.74 0.0004537223    1.108    0.098
        30 -11.3678    189.0183    154.9158   8.9689497902e+01   1.3508842523e+01    0.4579841    0.3918658  59.48  0.002566304    1.215    0.177
        31 -12.5447     98.9220    153.1942   1.0823126620e+02   3.1013975273e+01    0.5548012    0.4097338 -38.70  0.003077394    1.822    0.451
        32 -11.5957    133.7670    145.1031   9.9190590568e+01   2.6592030767e+01     1.046296    0.2600789 -55.22  0.002759448    5.701    0.825
        33  -9.7033    113.3897    151.2198   1.0476288783e+02   2.9032358849e+01    0.1974244    0.1206309 -70.06 0.0009549294    1.803    0.445
        34 -10.7965    174.5721    148.9011   9.1320849895e+01   1.7606685122e+01    0.2876453    0.2381382  57.06  0.000793472    1.194    0.163
        35 -19.1603     23.0099    100.7938   1.1831847614e+02   5.1557840178e+01     16.11045     1.460081 -68.22   0.03691793    9.708    0.897
        36 -11.0562    143.6457    146.7079   9.7358720239e+01   2.4354675306e+01    0.3053343    0.1792242 -56.81   0.00139539    1.854    0.461
        37 -11.9667    109.2819    139.0971   1.0352825753e+02   3.2282480914e+01    0.4751707    0.3067495 -36.88  0.002282526    2.074    0.518
        38 -12.5063     97.8906    138.8139   1.0607904773e+02   3.4228693761e+01    0.2602048    0.2333284 -85.72  0.000488378    1.027    0.026
        39 -11.4447    105.9666    130.7534   1.0272410378e+02   3.4635634098e+01    0.3750962    0.2848841 -76.02  0.001185028    1.332    0.250
        40 -11.5228    103.8559    125.7921   1.0225361320e+02   3.6066484378e+01    0.2658654    0.2416994  -2.83 0.0006406453    1.436    0.304
        41 -11.3207    135.6624    128.2022   9.5295168905e+01   2.9696969030e+01    0.6009659    0.1329816 -49.82  0.001628027    4.766    0.790
        42 -10.9423    116.1418    129.6698   1.0012334072e+02   3.3088799731e+01    0.2928555    0.2532088  10.09 0.0007518728    1.539    0.350
        43 -10.6060    160.4923    127.6561   8.9627841011e+01   2.4643045479e+01    0.3282099    0.2381171 -80.28  0.001480254    1.920    0.479
        44 -10.4206    120.4085    123.8374   9.7902010472e+01   3.3552571664e+01    0.2040051     0.128528 -40.80 0.0009416075    1.749    0.428
        45 -10.1935    111.0124    118.9344   9.9104561168e+01   3.6315342878e+01    0.2058538    0.1906157 -83.20 0.0003402397    1.020    0.020
        46 -10.5286    168.0170    112.8891   8.4436551499e+01   2.5849240075e+01    0.3352897    0.2597932 -74.03 0.0009654925    1.631    0.387
        47 -10.8682    135.0000    112.0445   9.1737831538e+01   3.3192604156e+01    0.4070308   0.08233075 -45.97  0.001043373    4.862    0.794
        48 -11.3145    119.0314    110.4306   9.5220986958e+01   3.6675682996e+01    0.5308599    0.2405718  57.86  0.001869545    3.147    0.682
        49 -10.5580    205.5067    110.1489   7.6130290043e+01   1.7603715924e+01    0.3270304    0.2130988  42.02 0.0009327301    1.551    0.355
        50 -10.0533    134.6243    105.8309   9.0293990839e+01   3.4561067811e+01    0.2206252     0.134812 -55.36 0.0009535182    1.734    0.423
        51  -9.3540     73.3327    103.2687   1.0539941510e+02   4.5680548854e+01    0.1246878    0.0979626 -29.41 0.0002588496    1.587    0.370
        52  -9.5640    128.5252     95.4318   8.9095522948e+01   3.7967382357e+01    0.1467715     0.140646 -68.25 0.0001610786    1.037    0.035
        53 -12.6279    132.9632    203.1957   1.0863735535e+02   1.5863859056e+01    0.4516196    0.2643895 -84.52  0.002201749    2.695    0.629
        54  -9.4756    152.5277     80.5236   7.9094413441e+01   3.5651776491e+01    0.1520984    0.1493431 -22.18 0.0001181815    1.003    0.003
        55  -9.3046     73.4781     73.4656   9.8293047980e+01   5.2117411410e+01    0.1332178    0.1160148 -50.47 0.0001078092    1.023    0.023
        56 -12.3651    167.5861     67.4199   7.1802207937e+01   3.4373674358e+01     1.214959    0.6442927 -62.53  0.003674435    3.659    0.727
        57 -10.7116    248.8772    249.6743   9.5678328374e+01  -9.3144110864e+00     0.227064    0.0660995  38.33  0.001089585    2.567    0.610
        58 -12.8033    136.4801    199.7655   1.0753477493e+02   1.5843924453e+01    0.4279847    0.2739232  65.72  0.002401333    1.615    0.381
        59 -10.4395    168.9739    235.6481   1.0653685254e+02   4.9545330842e+00    0.1698326    0.1558625  79.70 0.0003818077    1.296    0.229
        60  -9.4426    220.6723    229.0023   9.7084562393e+01  -2.8669624770e+00    0.1558418   0.09071277 -58.63 0.0007051181    4.332    0.769
        61 -10.8052     82.1194    195.1301   1.1697779219e+02   2.5212314301e+01    0.2807905    0.2322202  50.53  0.001995353    1.338    0.253
        62 -11.2753    220.1014     16.8354   4.7967537071e+01   2.7825553087e+01     0.228289    0.1812732 -67.08 0.0006534379    1.267    0.211
