#   1 NUMBER                 Running object number                                     
#   2 MAG_AUTO               Kron-like elliptical aperture magnitude                    [mag]
#   3 X_IMAGE                Object position along x                                    [pixel]
#   4 Y_IMAGE                Object position along y                                    [pixel]
#   5 X_WORLD                Barycenter position along world x axis                     [deg]
#   6 Y_WORLD                Barycenter position along world y axis                     [deg]
#   7 A_WORLD                Profile RMS along major axis (world units)                 [deg]
#   8 B_WORLD                Profile RMS along minor axis (world units)                 [deg]
#   9 THETA_WORLD            Position angle (CCW/world-x)                               [deg]
#  10 FWHM_WORLD             FWHM assuming a gaussian core                              [deg]
#  11 ELONGATION             A_IMAGE/B_IMAGE                                           
#  12 ELLIPTICITY            1 - B_IMAGE/A_IMAGE                                       
         1 -13.7014     68.4704    144.6843   9.3893488478e+01   3.7366514909e+01      4.38292     2.385062  86.49  0.002895057    4.169    0.760
         2 -13.5221    209.3544     42.6477   3.5126409745e+01   2.8564929414e+01     1.660311     1.363258  32.30  0.008724053    1.817    0.449
         3 -13.0085    225.7319     28.9606   3.0713700164e+01   2.6939383418e+01    0.7964792    0.6815924  87.73  0.004013353    1.218    0.179
         4 -11.8366    248.4634      9.0956   2.5402954017e+01   2.4893218307e+01    0.6017068    0.3835203 -35.61    0.0041406    1.778    0.438
         5 -11.5268    246.4910      4.9855   2.4802369478e+01   2.5696108046e+01    0.3604243    0.2889928 -33.41  0.002771111    1.676    0.403
         6  -9.0848      2.4771      2.4909   7.9039124950e+01   7.4542761189e+01    0.1130157   0.08078025  -4.78 -6.076185e-05    1.014    0.014
         7 -12.5831     31.1642    197.5711   1.1190077549e+02   2.8048952805e+01    0.6260794     0.473993 -36.87  0.001419455    1.658    0.397
         8 -16.2601     16.6710    241.9071   1.1846572378e+02   1.9322450541e+01     7.830072     6.788333  43.37   0.05614914    1.263    0.208
         9 -11.3625     59.8897    172.2904   1.0117024928e+02   3.1214129182e+01    0.5180182    0.3283327 -25.89  0.001645941    2.216    0.549
        10 -11.2495     65.1750    167.5196   9.8910571913e+01   3.1773684015e+01    0.3784062    0.2895161 -37.85 0.0007981704    1.425    0.298
        11  -9.7597    103.4453    171.8850   8.8719300374e+01   2.4797996792e+01    0.3431566    0.2974401  78.14  0.001374952    1.306    0.234
        12 -11.9308     82.7170    152.4615   9.0998054798e+01   3.3195335570e+01     1.397076    0.6222209 -52.07  0.005173126    2.099    0.524
        13 -12.8724     62.0972    154.3629   9.7647338337e+01   3.5670978297e+01    0.5599119    0.4192565 -37.41  0.001152093    1.424    0.298
        14 -11.7599     75.0264    158.6520   9.4486824839e+01   3.2730469732e+01     0.583991    0.5658492 -33.84 0.0003973597    1.062    0.058
        15 -15.2184      9.0464    207.7073   1.1796006336e+02   2.7708193843e+01     7.578058     1.337704 -75.02   0.02398559    4.714    0.788
        16  -8.7014    123.5052    201.0591   8.8648739562e+01   1.4367189955e+01    0.2173573    0.1471697 -53.50  0.000446156    1.540    0.351
        17  -8.6263    110.8011    167.8038   8.5886051082e+01   2.4566241988e+01    0.2146596    0.1860373  86.23 0.0005596948    1.338    0.253
        18  -8.7360     41.0120    164.6761   1.0553452467e+02   3.5460023739e+01    0.1912443    0.1790261  59.21 0.0003800899    1.117    0.105
        19 -11.4074     33.8803    157.5614   1.0667597135e+02   3.8078284378e+01    0.8382743     0.396714  66.05  0.003006847    3.256    0.693
        20  -8.6741    174.4796    149.4692   6.5811332475e+01   1.6817329797e+01    0.1528443     0.141963 -28.20 0.0002022739    1.003    0.003
        21  -9.7127    134.0000    144.9852   7.4614574607e+01   2.5849765207e+01    0.4816034    0.1370782 -47.40  0.001361638    3.388    0.705
        22  -9.6075     28.8878    143.3000   1.0623653317e+02   4.2323074864e+01    0.2737819    0.2208307 -68.58  0.001162868    1.093    0.085
        23 -10.1938     98.2043    138.8340   8.3391087749e+01   3.4139123634e+01    0.6221263    0.3956571 -19.36  0.002355274    2.340    0.573
        24 -11.6499     85.1573    137.9482   8.7227312632e+01   3.6586624798e+01    0.3249407    0.2868304 -38.19 0.0004597113    1.109    0.098
        25 -10.1887    107.2323    130.2942   7.8657124238e+01   3.4621569436e+01    0.5401679    0.3749704  16.22  0.002277009    1.790    0.441
        26 -10.5738    230.8801    170.9950   5.9344458019e+01   2.7838004499e+00    0.3631915    0.1660724  35.85  0.001640739    2.561    0.610
        27  -8.8422     96.7833    124.7953   8.0502736262e+01   3.7910989603e+01    0.2329335    0.2020604 -27.44 0.0007504629    1.168    0.144
        28  -8.6877     48.1290    145.8494   1.0055212778e+02   3.9668023380e+01     0.212157    0.1642837 -39.38 0.0007121582    1.322    0.243
        29 -10.6163    240.3356    169.1192   5.7385633302e+01   1.7271861911e+00    0.2094584    0.1940548  21.55 0.0005586757    1.306    0.234
        30  -8.8164    162.0243    119.4850   6.1501505495e+01   2.5790283844e+01    0.3392806    0.1861713 -59.95  0.001240019    2.465    0.594
        31  -9.0634    106.0041    118.4428   7.6049615356e+01   3.7723462860e+01    0.2244899    0.2047699 -37.57 0.0001923184    1.068    0.064
        32 -10.0457    231.2519    113.7907   4.7585441335e+01   1.3043694072e+01    0.2853431    0.2308349 -42.56 0.0007644229    1.068    0.064
        33  -8.5877    159.0408    115.1659   6.1096110120e+01   2.7339446756e+01    0.2415445    0.1836141 -77.77 0.0006579584    1.723    0.420
        34  -9.4903     35.0063    111.2883   9.8685381711e+01   5.0083544671e+01    0.4129084    0.2081198  46.25   0.00170187    2.570    0.611
        35  -8.4546     75.9518    111.4312   8.3984303468e+01   4.4762367681e+01    0.2173942    0.1484432  34.82 0.0004332884    1.514    0.340
        36  -9.1863    205.3979    110.2457   5.0825967036e+01   1.8570104463e+01    0.2725195    0.2037161  47.58  0.001295964    1.506    0.336
        37 -10.2435    192.2131    193.2244   7.1157086115e+01   4.6141393179e+00    0.7460073    0.3955653 -64.70  0.002101768    6.204    0.839
        38  -8.6614     59.5414    100.0366   8.6917671556e+01   4.9970582483e+01    0.2191387    0.1375572 -52.21 0.0004008012    1.506    0.336
        39  -9.9705     53.4176     92.2079   8.7162198016e+01   5.2639538636e+01    0.4803078    0.1397213 -55.92   0.00150446    3.500    0.714
        40  -9.6566    250.3843     92.2075   4.0750044871e+01   1.3293107915e+01    0.1911526   0.09053398 -48.66 0.0009575157    1.728    0.421
        41  -8.0781    184.3163     77.3083   4.6577940079e+01   2.8863827041e+01    0.1338606      0.11174  17.87 0.0007030123    1.632    0.387
        42  -8.2068     46.2127     69.0453   8.3271576259e+01   5.8643758428e+01    0.1762882    0.1023871 -45.62 0.0003814961    1.617    0.381
        43  -8.8896     36.0332     63.3657   8.5911054739e+01   6.1029174224e+01    0.1851878    0.1516809  10.67 0.0005772426    1.200    0.167
        44 -12.5905    200.4391     48.7780   3.7508443182e+01   2.9643649575e+01    0.7610632     0.616137 -64.84  0.002030121    1.091    0.084
        45  -8.6953    169.2537    235.9668   8.3760513913e+01   3.4708789525e-02     0.181616    0.1543433 -21.68 0.0004583823    1.170    0.146
        46 -11.7817    219.3786     34.5618   3.2410231893e+01   2.7527732180e+01    0.3905112    0.3182156  73.90  0.001095868    1.295    0.228
        47 -10.3254    139.7574    217.2011   8.7389544470e+01   8.1830839380e+00    0.5075593    0.1843475 -59.82  0.001553715    4.483    0.777
        48  -8.7908     39.8704     58.1729   8.2447155597e+01   6.1600794242e+01    0.1843358    0.1684555  11.15 0.0004729001    1.229    0.186
        49 -10.1274     19.6932     55.6708   9.1128583770e+01   6.4193870100e+01    0.4280966    0.1382114  35.18  0.001648485    3.800    0.737
        50 -10.3268      5.0027     50.0000   9.6768316912e+01   6.6388441118e+01    0.2516023    0.1311206  19.92  0.001367738    2.032    0.508
        51 -11.4502     12.6035     59.9203   9.5849827741e+01   6.3871923665e+01    0.4043921    0.2876173   6.49 0.0009804508    1.425    0.298
        52  -9.3520    197.9584     23.6928   3.2161150055e+01   3.3341334786e+01    0.1841293    0.1656689 -36.94 0.0005364376    1.373    0.272
        53 -14.1718     42.3464    187.5489   1.0799414132e+02   2.9364658890e+01      2.28853     1.538807  64.84   0.00884591    1.540    0.350
        54  -8.7670    189.4952     15.0371   3.1064645424e+01   3.6136362220e+01    0.1644293    0.1123505 -40.21 0.0004955353    1.534    0.348
        55  -9.0006     99.6052    180.8643   9.1415275114e+01   2.3166468274e+01    0.2436201    0.2115492  13.69 0.0005324986    1.232    0.189
        56 -10.2775    119.3358    212.1448   9.1509449027e+01   1.2527046429e+01    0.2321039     0.179443 -31.08 0.0007953485    1.433    0.302
