#   1 NUMBER                 Running object number                                     
#   2 MAG_AUTO               Kron-like elliptical aperture magnitude                    [mag]
#   3 X_IMAGE                Object position along x                                    [pixel]
#   4 Y_IMAGE                Object position along y                                    [pixel]
#   5 X_WORLD                Barycenter position along world x axis                     [deg]
#   6 Y_WORLD                Barycenter position along world y axis                     [deg]
#   7 A_WORLD                Profile RMS along major axis (world units)                 [deg]
#   8 B_WORLD                Profile RMS along minor axis (world units)                 [deg]
#   9 THETA_WORLD            Position angle (CCW/world-x)                               [deg]
#  10 FWHM_WORLD             FWHM assuming a gaussian core                              [deg]
#  11 ELONGATION             A_IMAGE/B_IMAGE                                           
#  12 ELLIPTICITY            1 - B_IMAGE/A_IMAGE                                       
         1 -14.9319      6.5714     70.8626   7.5627382179e+01   6.1209863643e+01     1.005105    0.6503245 -46.06  0.004212598    1.226    0.184
         2 -13.3910      9.0208      2.9564   5.1225503698e+01   7.2935203520e+01    0.6375027    0.3337484  38.06  0.003787055    2.540    0.606
         3 -15.9493     11.2963     23.3121   5.9079538754e+01   6.9825679216e+01     1.819915    0.9210878 -23.63   0.01031896    1.879    0.468
         4 -13.8637    122.2656     36.8325   2.3895844097e+01   4.9295037482e+01      0.97085    0.4798543  35.78  0.003631984    2.506    0.601
         5 -14.2193    166.5312     29.0937   1.3499477767e+01   3.9804617670e+01    0.9363455    0.6646854  69.90  0.003765039    1.258    0.205
         6 -12.8162    140.1318     21.3532   1.5520006126e+01   4.6927397030e+01     1.075715    0.4422325  73.61  0.002715201    2.923    0.658
         7 -14.1709    148.2314     29.7071   1.6576591487e+01   4.4082531356e+01    0.9491699     0.557223  64.20  0.003968327    1.523    0.343
         8 -13.7496    188.3167     24.6785   9.5039718771e+00   3.5212476818e+01     1.193634     0.491591 -53.67    0.0051085    2.669    0.625
         9 -12.6989    188.3224      9.8982   5.9877090405e+00   3.6820814027e+01    0.3938735    0.2711807  68.97  0.001754916    1.300    0.231
        10 -15.1405     99.0878     11.6501   2.0636493186e+01   5.7198923130e+01     1.340916     0.740107  54.31  0.004718625    1.518    0.341
        11 -12.1494     85.4073     13.6685   2.4909212414e+01   5.9874790049e+01    0.3420534     0.297492  16.04  0.001763949    1.125    0.111
        12 -12.1266     60.1270     15.3299   3.3629310711e+01   6.4479042342e+01    0.4522548    0.2429472  24.80  0.002343442    1.964    0.491
        13 -13.6986    214.8290     10.0868   3.5541008789e+00   3.0909715727e+01    0.5292006    0.3375159 -85.11  0.002206416    1.370    0.270
        14 -12.1217    123.0219     11.0789   1.5404834078e+01   5.1914799990e+01    0.2756488    0.2205276 -65.28   0.00111173    1.470    0.320
        15 -13.9683     41.8046      4.5512   3.5871053440e+01   6.8607714355e+01    0.6768951    0.4521435  11.29  0.003350779    1.344    0.256
        16 -11.9777     46.4356     12.7709   3.7775241695e+01   6.7008764226e+01    0.2504204     0.219997  24.37  0.001800019    1.274    0.215
        17 -11.6501     75.1206     10.0791   2.6451311414e+01   6.2260230794e+01    0.2031595    0.1411884  27.21  0.001237385    1.309    0.236
        18 -12.3747    152.2158      8.6635   9.9908296611e+00   4.5335545614e+01    0.3276405    0.1860971  51.84  0.001744477    1.659    0.397
        19 -14.4567     26.7631     12.2932   4.6388357287e+01   6.9796825126e+01    0.8109695    0.4896187  -2.78  0.004931327    1.661    0.398
        20 -10.6336     80.5062      7.4893   2.3836629597e+01   6.1437303219e+01    0.1227029    0.1025326  37.22 4.191243e-05    1.030    0.029
        21 -12.0984    119.4596      2.8095   1.3379320251e+01   5.3431632123e+01    0.5384879    0.2431856  84.32  0.002038677    3.725    0.732
        22 -11.8717     80.9630      1.4063   2.1272376342e+01   6.1855656951e+01    0.5975478   0.06623805  52.38  0.001959775    4.357    0.770
        23 -11.1972     67.5125      2.9741   2.5804033260e+01   6.4350278346e+01    0.2488046     0.128929  37.42  0.001366461    1.642    0.391
        24 -10.6869    232.5357      1.5119   4.9132446717e-01   2.8103243460e+01    0.1158248   0.08750205 -75.20 0.0003103871    1.004    0.004
        25 -11.3585     61.4860      1.4988   2.7098215849e+01   6.5588930498e+01    0.3357127    0.1036308  53.27  0.001418974    2.994    0.666
        26 -11.2224    121.7836    180.3703   6.1428030384e+01   2.0036763550e+01    0.3705346    0.2112903  74.75  0.001155677    4.078    0.755
        27 -13.9773    107.2625    246.6100   7.4505488465e+01   8.3294766670e+00    0.9358894    0.6202424  83.34  0.005001772    2.025    0.506
        28 -14.5493     92.2415    231.0023   7.5884141352e+01   1.3654265518e+01    0.8510898     0.681105 -80.32  0.005151926    1.326    0.246
        29 -13.0243     57.8045    246.5555   8.4632692745e+01   1.5267443511e+01    0.5164979     0.337169  32.04  0.003071375    1.624    0.384
        30 -11.2595     41.2957    250.0172   8.8117286624e+01   1.6629283700e+01    0.1695959    0.1298817  71.68  0.001165735    1.074    0.069
        31 -13.4470     28.5719    246.0858   9.0265046601e+01   1.8876523113e+01    0.4834226     0.308835  80.31  0.002828123    1.362    0.266
        32 -12.2299      2.8480    249.6371   9.5132428890e+01   2.0869372555e+01    0.3542857    0.2186543  66.65  0.001742099    1.220    0.180
        33 -13.8978      9.8290    245.7049   9.3699798607e+01   2.0944622052e+01    0.8339727    0.3901013  57.12  0.003632598    1.700    0.412
        34 -12.6263    124.1274    166.6998   5.8247676022e+01   2.2803794024e+01    0.6576198    0.4303436 -71.91  0.002786768    1.968    0.492
        35 -11.3968    177.9716    167.4692   4.5662086934e+01   1.2283290395e+01      0.20738     0.129017  64.30 0.0008097345    2.556    0.609
        36 -12.2870     24.0346    159.4767   8.3890234747e+01   3.8959453205e+01    0.2664891    0.1518809 -58.03   0.00121411    1.594    0.373
        37 -11.7527    111.6649    155.9317   5.9339658374e+01   2.7669112035e+01     0.459479    0.3003288 -89.58  0.001789769    2.446    0.591
        38 -11.8897     77.3140    156.8919   6.8923863379e+01   3.3165036993e+01    0.3919359    0.2918127  24.15  0.001200397    1.536    0.349
        39 -13.0851     73.5922    153.2507   6.9325184222e+01   3.4628604791e+01    0.6516383    0.4726144  31.80  0.002429398    1.480    0.324
        40 -11.4649    103.5735    149.5841   6.0234693704e+01   3.0668447289e+01    0.3283777     0.251412 -28.35  0.001208111    1.557    0.358
        41 -13.0766      7.8794    149.9250   8.7136370694e+01   4.2632620652e+01      0.72543    0.4318449  61.52  0.003948927    1.802    0.445
        42 -13.3246     22.2633    165.8119   8.5044417518e+01   3.7571209943e+01    0.4401388    0.3384253   7.94  0.001755181    1.736    0.424
        43 -12.2585    246.8893    135.2974   2.6210972880e+01   5.6848151245e+00    0.3104769    0.2081416  82.18  0.001481814    2.694    0.629
        44 -12.3642     44.7186    132.7155   7.4223938815e+01   4.3525233440e+01    0.3312178    0.2584671  26.56  0.001192024    1.442    0.306
        45 -11.1401      5.4839    128.6263   8.5446034606e+01   4.7956661746e+01    0.2759018    0.1185845 -48.12  0.001297211    2.183    0.542
        46 -14.5548    105.9367    104.6870   4.8943538925e+01   4.0823064881e+01     1.294221     1.261009  -0.55  0.005733173    1.025    0.024
        47 -13.1876    112.4764    116.5818   5.0155188758e+01   3.6863937877e+01    0.6279859    0.3669285  33.88   0.00230586    1.868    0.465
        48 -13.3153     28.9458    121.8258   7.7300515168e+01   4.7811051931e+01    0.7035117    0.2793891 -56.65  0.003045645    2.032    0.508
        49 -11.7552    181.0229    120.5315   3.4456432354e+01   2.1340160961e+01    0.2267815    0.1495273  50.19  0.001027359    1.581    0.367
        50 -12.3417      4.7723    119.4028   8.4509099426e+01   5.0217232426e+01    0.4783982     0.256492   8.86  0.002499243    2.422    0.587
        51 -12.8701     84.4634    114.8248   5.8067084337e+01   4.2393769306e+01    0.9942881    0.5835378  28.92  0.004289053    1.903    0.474
        52 -12.1014     78.5300    110.4975   5.8884646023e+01   4.4381040108e+01    0.3677638    0.2696407 -73.44   0.00158725    1.653    0.395
        53 -11.9816     42.6009     90.4375   6.6268495933e+01   5.3886289681e+01    0.3316996    0.2348383 -58.68 0.0005826976    1.353    0.261
        54 -12.6162     36.7561     92.9135   6.8988138038e+01   5.3943658005e+01     0.533837    0.3144066   9.48  0.001889208    2.089    0.521
        55 -12.9384     20.6696     86.1519   7.3443930499e+01   5.6911105130e+01    0.6475638    0.4263634   7.73  0.003689687    1.740    0.425
        56 -13.4846      2.2402     96.9415   8.2125796046e+01   5.5642703773e+01    0.8181373    0.3124285 -69.04  0.003530799    2.185    0.542
        57 -14.3588     18.3885    111.7248   7.9051226666e+01   5.1132840458e+01     0.739811    0.5594479  -7.34  0.003226248    1.577    0.366
        58 -11.3328    121.9579    112.0619   4.6355839396e+01   3.5961303292e+01    0.2364848    0.2320966   3.19 0.0005822909    1.034    0.033
        59 -11.7311     62.3670    110.2475   6.4088206508e+01   4.6841185042e+01    0.4707465    0.2997026  65.55  0.002017194    2.430    0.588
        60 -14.5725     13.1045    103.4876   7.9458270561e+01   5.3465521197e+01    0.9516218    0.6078913  28.56  0.005449217    1.820    0.450
        61 -14.4585     22.7772     95.0501   7.4516518873e+01   5.4719496161e+01     1.358412    0.6346705  17.41  0.006396581    2.520    0.603
        62 -10.6058     42.6720    106.6865   6.9932488223e+01   5.0111130440e+01    0.1446707   0.09358495 -31.93  0.000584567    1.670    0.401
        63 -12.1061    136.6371    103.0510   4.0110421367e+01   3.4753251601e+01    0.4935566    0.2278143  48.10  0.001835105    2.181    0.541
        64 -13.9817    104.6607    122.0364   5.3749890296e+01   3.7105788403e+01     1.329428    0.9851125  52.74  0.006272153    1.463    0.317
        65 -10.9369     64.5150    101.5323   6.1283519937e+01   4.8584368946e+01    0.2215663    0.1872066  12.87 -8.957311e-06    1.268    0.212
        66 -12.0194     61.5211     97.5510   6.1308555365e+01   4.9916646576e+01    0.4218376    0.3352006 -89.99  0.001894127    1.680    0.405
        67 -11.9683     48.9845     93.2972   6.4657573730e+01   5.2503913182e+01    0.4710138    0.3490074 -65.32   0.00208594    1.435    0.303
        68 -10.8690     42.1442     96.1640   6.7792989211e+01   5.2632215296e+01    0.2131594    0.1771619  -5.95 0.0003800627    1.289    0.224
        69 -11.7931     47.8526    100.0150   6.6664318519e+01   5.1095674272e+01    0.4724385    0.3328835  59.85  0.002385861    1.913    0.477
        70 -11.7562     52.7319     97.6952   6.4404393176e+01   5.1041200935e+01    0.4233621    0.2486729 -20.73   0.00182767    2.363    0.577
        71 -11.3409    163.9490     97.9629   3.2404010285e+01   2.9610747568e+01    0.2251247    0.2198464 -73.99  0.000370627    1.014    0.014
        72 -12.7402     29.7039     89.4378   7.0789598303e+01   5.5410548865e+01    0.4463737    0.3379638 -86.87  0.001997772    1.673    0.402
        73 -12.4590    136.9370     94.7262   3.7775053466e+01   3.6382253334e+01    0.4554276    0.3195656  51.08  0.001126102    1.427    0.299
        74 -12.1762      7.5699    113.1800   8.2785049378e+01   5.1530258464e+01    0.5143116     0.256853  74.65  0.002191645    3.106    0.678
        75 -12.6034    188.4228     84.0970   2.4146085923e+01   2.6542072909e+01    0.5544887    0.2596011  44.06  0.002082132    2.567    0.610
        76 -13.0993    163.8508     71.5377   2.5418582717e+01   3.4400317567e+01    0.9928464    0.5596163  53.54  0.004423989    1.721    0.419
        77 -13.7247    169.2749     76.8500   2.5788596422e+01   3.2226182011e+01     1.172767    0.4471883  50.69  0.004169866    2.584    0.613
        78 -11.8746    158.4487     83.5028   2.9747396645e+01   3.3587733246e+01    0.3570875    0.2620338  63.01 0.0008243367    1.398    0.285
        79 -12.6125    161.0587     80.1991   2.8312493787e+01   3.3568878655e+01    0.4716039    0.3376631  33.00  0.001488248    1.701    0.412
        80 -12.4621     41.4976     68.0095   6.0650539896e+01   5.8810393680e+01     0.867577    0.1983019  31.57  0.002938828    4.304    0.768
        81 -13.9297     54.0687     66.9788   5.5403744946e+01   5.7435004652e+01     1.310793    0.9577737  -8.06  0.007237926    1.458    0.314
        82 -13.5959     91.6616     57.9909   3.9222514905e+01   5.2767903289e+01    0.5102646    0.4796889 -24.02  0.002688829    1.119    0.107
        83 -13.8499     74.2308     73.7015   5.0127984114e+01   5.3070271019e+01     1.450263    0.7170562  16.58  0.004696249    4.214    0.763
        84 -13.0857     87.4441     65.2344   4.2970410450e+01   5.2324720097e+01    0.5051813    0.3871029  -2.40   0.00103094    1.484    0.326
        85 -12.8923     55.0166     81.1394   5.9252694675e+01   5.4415742911e+01    0.6030223    0.3863692 -36.16   0.00237631    1.491    0.329
        86 -13.7963     61.1408     75.6037   5.5391451806e+01   5.4719983617e+01    0.7021542    0.4385285 -33.35  0.001637713    1.594    0.372
        87 -12.7871    216.1544     80.5587   1.8941222087e+01   2.1003046869e+01     0.383855    0.2649042 -81.26  0.001960239    1.694    0.410
        88 -12.0385    114.1772     79.8410   3.9504913351e+01   4.4262697532e+01    0.4125022    0.3313573 -47.35   0.00134429    1.297    0.229
        89 -11.2921     42.6173     79.7773   6.3534273584e+01   5.6231039048e+01    0.3512032    0.2094359 -57.58  0.001704884    1.665    0.400
        90 -11.1349     41.6166     75.7439   6.2820194997e+01   5.7201852212e+01    0.2385855    0.1866293 -44.58  0.000682926    1.154    0.134
        91 -12.3727    236.7807     79.9996   1.6075899836e+01   1.6837118824e+01     0.308047     0.162483  75.22  0.001412479    2.482    0.597
        92 -12.4043    135.5454     79.3658   3.3790555820e+01   3.9634317739e+01    0.6633374    0.3182725  53.71  0.002364012    2.105    0.525
        93 -13.6908    171.6094    242.4657   6.0531540573e+01  -8.3246459256e-01    0.6632749    0.4475196  23.67  0.003765848    1.365    0.267
        94 -14.2478      4.9401     63.5552   7.4640104300e+01   6.2838932286e+01    0.6940297    0.5409264 -19.27  0.003889434    1.236    0.191
        95 -11.3933     27.5007     76.3348   6.8515797157e+01   5.8500740214e+01    0.2566667    0.1972332  78.67  0.001253728    1.933    0.483
        96 -12.8803    199.4910     69.5969   1.8824023249e+01   2.6438998595e+01      0.61048    0.3680876  49.25  0.002516752    1.837    0.456
        97 -12.2794    134.7325     66.4311   3.0199069344e+01   4.2078625000e+01    0.5280592    0.3139495  41.89  0.002218253    1.731    0.422
        98 -11.5252    158.4126     63.6423   2.4321413325e+01   3.6972221468e+01    0.3591523    0.1486659 -49.93  0.001291593    2.870    0.652
        99 -11.5153    100.0119     65.0770   3.9007236851e+01   4.9896612195e+01    0.2227487    0.2106157  24.20 0.0009740018    1.029    0.029
       100 -13.0413     78.7965     60.0125   4.4108038729e+01   5.4828275430e+01    0.6204147    0.4562819 -42.40  0.003359629    1.421    0.296
       101 -13.3083    178.0654     57.6758   1.9213124414e+01   3.3235693067e+01    0.6776793    0.5104139 -57.76  0.002365254    1.329    0.247
       102 -11.7600     38.7031     59.7351   5.9256116387e+01   6.0759996842e+01    0.2589264    0.2090264  62.77  0.001507298    1.923    0.480
       103 -11.2734     34.4599     60.5467   6.1275254729e+01   6.1068119456e+01    0.3749604    0.1839785 -32.03  0.001767985    2.088    0.521
       104 -12.3161     36.2507     54.7379   5.8679974517e+01   6.1983381342e+01    0.3394516    0.1574188 -38.21  0.001626797    1.967    0.492
       105 -11.7700     24.7538     59.2191   6.4993509338e+01   6.2278015523e+01    0.3655484    0.2022514 -44.11  0.001998111    1.513    0.339
       106 -14.3511    119.6711     54.5425   3.0204622902e+01   4.7406013924e+01    0.9240824    0.5561815  39.56  0.001876545    1.688    0.407
       107 -13.3118     66.0712     49.0310   4.4783878509e+01   5.8860282064e+01    0.9595861    0.5717747 -35.03  0.004960171    1.660    0.398
       108 -11.3809     17.7657     55.3030   6.6895485547e+01   6.3637561969e+01    0.3001678    0.1562178 -57.59  0.001581935    1.886    0.470
       109 -12.0212    100.6114     43.7904   3.1704045652e+01   5.3134178894e+01    0.4158306    0.2630377  47.93  0.001792522    1.457    0.314
       110 -13.6956    103.4181     50.5385   3.3216769124e+01   5.1556092998e+01    0.5942087    0.4032288 -34.63  0.001305131    1.555    0.357
       111 -13.1945     97.9618     49.9787   3.4592810441e+01   5.2778155102e+01    0.5929378    0.3653309 -41.10  0.002076591    1.757    0.431
       112 -12.0877    135.9585     50.5728   2.5159874412e+01   4.4260805945e+01    0.4314308    0.3771584 -12.50  0.001839344    1.303    0.233
       113 -12.8731    156.7774     43.9908   1.9150284165e+01   4.0247858209e+01    0.8830977    0.3982651  42.19  0.003435924    2.786    0.641
       114 -13.3732      6.3812     42.9720   6.8458899604e+01   6.6805479891e+01    0.7962465    0.3647571  18.26  0.004360071    2.305    0.566
       115 -12.1345    147.4947    238.9595   6.5019562106e+01   3.5240415666e+00    0.1810234    0.1318655 -51.03 0.0008917643    1.583    0.368
       116 -12.8431     23.3327    216.3675   8.9262618397e+01   2.5667133882e+01    0.6752434    0.2999728  48.83  0.003486184    1.959    0.490
       117 -13.1482    204.9960     39.8750   1.1099737729e+01   2.9519885517e+01     1.082842    0.4555255  88.47  0.003514419    4.674    0.786
       118 -12.4851    212.4870     43.0113   1.0936973578e+01   2.7434919392e+01    0.4333397    0.2379274  57.87   0.00187657    1.879    0.468
       119 -13.2902    219.5627     41.4499   9.8049118135e+00   2.6101456786e+01    0.5476756    0.3577049  81.41  0.001914016    1.479    0.324
       120 -11.6641    134.8165     39.4622   2.2015494227e+01   4.6051725926e+01     0.441715    0.2573855  70.62  0.001680271    1.882    0.469
       121 -12.0697    109.8494     41.9440   2.8585602746e+01   5.1405953708e+01    0.4024707    0.1813619  55.33 0.0008946332    2.126    0.530
       122 -12.7949    113.7576     37.9570   2.6266424968e+01   5.1071922597e+01    0.3769264    0.3348362  10.61  0.001387179    1.191    0.160
       123 -13.9478     26.2173    226.5245   8.9406435611e+01   2.3163478332e+01    0.7510259    0.3751176 -56.43  0.003960949    2.336    0.572
       124 -12.6474    131.4240     33.3457   2.0821289714e+01   4.7611683477e+01    0.4595511    0.3526146  29.43  0.001502971    1.458    0.314
       125 -11.7395     40.3972     40.2481   5.1805925164e+01   6.4033813055e+01    0.4794453     0.243412  31.18  0.002494889    1.950    0.487
       126 -12.7715     33.0288     40.1995   5.5037577875e+01   6.4926777001e+01    0.3251012    0.2257499  -1.24 0.0006136109    1.386    0.278
       127 -12.5445     75.8541     37.0664   3.6893450242e+01   5.8968087439e+01      0.39469    0.2484304  28.28  0.001299382    1.575    0.365
       128 -11.6473     71.1432     36.3633   3.8242629198e+01   5.9917637409e+01    0.2998974    0.2023365  52.19  0.001257033    1.711    0.416
       129 -12.4970    242.2640     36.1599   6.4867899452e+00   2.2072022082e+01    0.4189759    0.2371842  79.32  0.001876104    1.753    0.429
       130 -11.0711    104.4398     36.7156   2.8211853670e+01   5.3276038918e+01    0.2441599    0.1263374 -36.46  0.001134976    2.092    0.522
       131 -12.9881     44.6726     33.3686   4.7305225087e+01   6.4547228197e+01      0.70456    0.4720381  34.59  0.004225531    1.516    0.340
       132 -14.0078     20.7394    223.9360   9.0327070260e+01   2.4298467994e+01    0.5883014    0.5073892  83.48  0.002797835    1.166    0.142
       133 -13.8253     65.5174    223.1841   8.0852804861e+01   1.9105688697e+01    0.8399898    0.5806528  42.44  0.004845454    1.333    0.250
       134 -14.4328     62.9676    213.9578   8.0446991577e+01   2.1481046852e+01    0.9515566    0.4948557  38.67  0.004697384    1.787    0.440
       135 -12.9431    142.6796     29.9991   1.7640711668e+01   4.5364270425e+01    0.5686798    0.4084122  88.98  0.002519131    1.555    0.357
       136 -11.3075    195.0154     23.0409   8.3471791604e+00   3.3865626213e+01    0.2425485    0.1986848  54.21  0.001530442    1.393    0.282
       137 -12.6756     94.3492    218.2993   7.3856395419e+01   1.6019956086e+01    0.2740077    0.2216366  62.67  0.001365201    1.169    0.144
       138 -11.2914    156.6801    214.6782   5.9266272685e+01   6.5677574266e+00    0.1413744     0.104861  -3.01 0.0007044407    1.670    0.401
       139 -12.1127    216.7231     28.1493   7.2208234250e+00   2.8421337349e+01    0.2291125    0.1511553 -35.68  0.001333808    1.631    0.387
       140 -13.4909     57.6071     26.7747   3.9389524967e+01   6.3523297993e+01    0.9642313    0.3085957  39.45  0.003339338    2.890    0.654
       141 -12.5011    120.4497     26.1480   2.0818982834e+01   5.0982245625e+01    0.5185384      0.31563  46.79  0.002517548    1.486    0.327
       142 -12.0300     30.5524     25.4651   5.0384700041e+01   6.7534178698e+01    0.3035933    0.1857748  11.10  0.001657768    1.608    0.378
       143 -12.7283     35.3715     23.3362   4.7254409266e+01   6.7241744004e+01    0.2831822    0.1947424   4.20 0.0008323694    1.332    0.250
       144 -12.9150      4.5653    212.0160   9.2811408682e+01   2.8452506583e+01    0.4318732    0.1872571 -69.95  0.002292433    2.028    0.507
       145 -11.0466    136.6056    210.8099   6.3114386344e+01   1.0750687831e+01    0.1892948    0.1365195 -68.03 0.0009473684    1.690    0.408
       146 -11.4005    223.8553     20.9015   5.0269120195e+00   2.7761443002e+01    0.1743563    0.1562752  76.28 0.0008631828    1.298    0.230
       147 -11.5670     50.8858     20.3556   3.9320674981e+01   6.5415508999e+01    0.4247154    0.2330751  56.46  0.001941739    3.276    0.695
       148 -11.2358     45.8114     20.4073   4.1422030495e+01   6.6183124539e+01    0.2670939    0.1748906  38.36  0.001624729    1.521    0.342
       149 -11.6297     71.0310     16.5492   3.0394275560e+01   6.2386549810e+01    0.2222285    0.1780006 -13.78 0.0006368496    1.294    0.227
       150 -12.6387     72.4003    207.0209   7.7498360606e+01   2.1757456903e+01    0.3451873    0.2612606 -78.39     0.001951    1.303    0.232
       151 -13.5588     17.1631    195.7091   8.9007415771e+01   3.0939198323e+01    0.6125762    0.2335509 -58.36  0.002790524    2.569    0.611
       152 -12.4439     57.5364    202.0980   8.0392317535e+01   2.4902494148e+01    0.7804597     0.291467 -74.33  0.002959742    3.055    0.673
       153 -13.8424     40.1929    196.0322   8.3792728723e+01   2.8441895801e+01    0.8361635    0.4269489  58.00  0.004015981    1.986    0.496
       154 -14.1671     29.8835    169.2902   8.3476340692e+01   3.5986204939e+01     2.291011    0.9458795 -43.34  0.008808528    3.444    0.710
       155 -14.1412     22.1607    180.7971   8.6564755890e+01   3.3961009871e+01    0.9836368     0.363282 -58.69  0.004309146    2.461    0.594
       156 -15.4811      8.2699    183.2495   9.0027247896e+01   3.4636802446e+01     1.233949     1.034352 -71.86  0.008431171    1.207    0.171
       157 -15.5834     15.1778    174.9474   8.7701347730e+01   3.6002856234e+01     2.213855     1.068965  62.50   0.01057835    2.231    0.552
       158 -12.5707    164.4508    195.8134   5.4233110732e+01   8.9649736613e+00    0.3560956    0.2465419 -81.28  0.001520407    2.583    0.613
       159 -11.7787     98.0035    187.7514   6.8621437898e+01   2.2370484861e+01    0.1961514    0.1194684  37.28  0.000892344    1.606    0.377
       160 -11.6660    200.7861    191.4367   4.5723842693e+01   3.4646389783e+00    0.2652155    0.2450913  18.97   0.00110425    1.118    0.105
       161 -11.8870     48.5914    181.4827   8.0162916718e+01   3.0933632845e+01    0.3899416    0.2159061 -52.92  0.001872649    1.866    0.464
       162 -12.5526    198.6358    181.4186   4.4193580936e+01   5.7100223185e+00    0.2832805    0.2771759 -43.50  0.001713764    1.181    0.153
