#   1 NUMBER                 Running object number                                     
#   2 MAG_AUTO               Kron-like elliptical aperture magnitude                    [mag]
#   3 X_IMAGE                Object position along x                                    [pixel]
#   4 Y_IMAGE                Object position along y                                    [pixel]
#   5 X_WORLD                Barycenter position along world x axis                     [deg]
#   6 Y_WORLD                Barycenter position along world y axis                     [deg]
#   7 A_WORLD                Profile RMS along major axis (world units)                 [deg]
#   8 B_WORLD                Profile RMS along minor axis (world units)                 [deg]
#   9 THETA_WORLD            Position angle (CCW/world-x)                               [deg]
#  10 FWHM_WORLD             FWHM assuming a gaussian core                              [deg]
#  11 ELONGATION             A_IMAGE/B_IMAGE                                           
#  12 ELLIPTICITY            1 - B_IMAGE/A_IMAGE                                       
         1 -15.0921      5.0018    139.6478   1.3417649807e+02   4.4860084610e+01     4.707374     1.556069 -83.60    0.0201861    3.412    0.707
         2 -14.9224      3.3275    106.0111   1.3083041440e+02   5.1940683528e+01      6.93458          nan -68.45   0.01562761   11.163    0.910
         3 -13.4952    201.8367     30.6603   6.1305053343e+01   3.0834470535e+01     1.340794     1.115975  64.54  0.005638527    1.119    0.107
         4 -13.5920    219.1719     11.8127   5.4216327985e+01   2.8674048563e+01     1.042097     0.862417  47.52  0.002057446    1.337    0.252
         5 -13.1877     59.1620    173.3739   1.2658867719e+02   3.2442532045e+01    0.4587602    0.2503587 -49.57    0.0017315    2.235    0.553
         6 -12.5373    247.2163    247.5367   1.0185026512e+02  -1.1417009080e+01    0.5251195    0.3979364  37.29    0.0037343    1.268    0.211
         7 -12.6563    168.9680    248.9126   1.1541257706e+02   1.3558454249e+00     0.714377    0.2098539  43.52  0.003005062    2.678    0.627
         8 -13.4660    141.6395    248.4138   1.2004913791e+02   6.0268632542e+00    0.9948108    0.3904275  49.92  0.004897821    2.037    0.509
         9 -14.1075     30.9894    222.9124   1.3612937661e+02   2.6099170480e+01    0.7207109     0.465008  71.93  0.002633204    1.154    0.134
        10 -10.7407     80.8486    249.1500   1.3019040270e+02   1.5285944604e+01    0.1918274    0.1509555  23.23  0.001288088    2.318    0.569
        11 -11.2686     46.0298    248.0027   1.3547852430e+02   2.0022040206e+01    0.3018084    0.1605939  81.78  0.002039891    1.644    0.392
        12 -10.9002     62.6281    245.8048   1.3279195800e+02   1.8301783688e+01    0.2684039    0.1534445  73.56  0.001489302    1.486    0.327
        13 -14.0181      8.4715    241.1071   1.4053750820e+02   2.5308803909e+01      1.59344     1.036467  87.55    0.0133791    1.190    0.160
        14 -11.8400    217.3593    249.0326   1.0710471816e+02  -6.8192189488e+00    0.4433329    0.1956715  29.77  0.002116254    2.442    0.591
        15 -12.6417    107.9015    230.6943   1.2389728912e+02   1.4346481614e+01    0.9490403    0.1221658  47.18  0.002808726    5.722    0.825
        16 -11.7882     89.3579    226.7420   1.2672377413e+02   1.7868071291e+01    0.6587585    0.1284635  51.38  0.002171546    4.960    0.798
        17 -12.6422      9.7245    207.0680   1.3849042496e+02   3.1165751851e+01    0.5664985    0.4021325  36.35  0.002778138    1.902    0.474
        18 -10.9018      1.9731    215.6862   1.4018876972e+02   3.0321627510e+01    0.3410505    0.1469589  81.51  0.001758806    1.949    0.487
        19 -11.3083      6.8052    215.2150   1.3942606273e+02   2.9957469305e+01    0.1933264    0.1528325 -79.63 0.0007951056    1.425    0.298
        20 -11.9584     58.9010    213.5954   1.3077030533e+02   2.4484433522e+01    0.6788123    0.2398464  59.36  0.003073016    3.001    0.667
        21  -8.9067    152.6154    213.1807   1.1343965955e+02   9.7202640076e+00    0.1501044    0.1250529 -38.11 0.0002467146    1.503    0.335
        22 -13.1002     41.9463    211.7315   1.3351882100e+02   2.6907358205e+01    0.9749036     0.647236 -78.68  0.005555592    1.333    0.250
        23 -10.3876     90.3848    167.9036   1.1930402498e+02   2.9241714018e+01    0.3486701    0.2152075  80.77 0.0007538595    1.998    0.499
        24 -11.9041     80.6398    166.8945   1.2125378219e+02   3.0910941057e+01    0.5380844    0.4532909 -58.50  0.003422583    1.292    0.226
        25 -13.0108     33.3759    246.4154   1.3725117693e+02   2.1769979857e+01       1.0757    0.7734928 -57.94  0.008264073    2.146    0.534
        26 -10.4011     94.6188    151.2993   1.1571139176e+02   3.2152309172e+01    0.2980057    0.2567187 -73.89 0.0009008268    1.079    0.073
        27 -12.0585     83.0212    150.1313   1.1817908152e+02   3.4181863964e+01    0.2766941    0.2241063 -55.20 0.0006228988    1.264    0.209
        28  -9.2643     98.0854    147.1966   1.1419281960e+02   3.2488777077e+01    0.1872016     0.181322 -49.59 0.0003338739    1.196    0.164
        29 -11.7989     68.3928    143.1940   1.2045474541e+02   3.7740078849e+01    0.5219293    0.3485571 -86.97  0.001878657    1.593    0.372
        30 -11.1148     64.9911    141.7590   1.2102464258e+02   3.8495991877e+01    0.3308995    0.2479754 -61.25   0.00103991    1.217    0.178
        31  -9.8008    107.4329    136.7682   1.1000702954e+02   3.3194067243e+01    0.3616672    0.2576925 -11.20  0.001218359    2.498    0.600
        32 -11.7913     54.7176    196.4565   1.2992205600e+02   2.8307108329e+01     0.287271    0.2002672 -61.24  0.000472646    1.576    0.365
        33 -10.5005     94.4599    133.8051   1.1257159336e+02   3.6011206366e+01    0.2266252     0.216465 -61.87   0.00040936    1.108    0.098
        34  -9.2669    105.4896    123.4514   1.0771893956e+02   3.6440002826e+01    0.1394346    0.1324362 -69.16 0.0001093186    1.019    0.018
        35 -11.9737     61.7486    188.0819   1.2773945975e+02   2.9088429901e+01    0.2328269    0.2027052 -87.60 0.0004212363    1.187    0.157
        36 -11.0695      5.1986    184.5353   1.3778389329e+02   3.5833969876e+01    0.4369011    0.1574444  62.48  0.002285219    2.833    0.647
        37  -9.7142    160.0036     78.0062   8.2561672432e+01   3.4226158285e+01    0.1859092    0.1803538  41.40 0.0004221941    1.008    0.008
        38 -12.9685     25.8790    229.0683   1.3732160508e+02   2.5564436694e+01    0.2637227     0.204528  85.84 0.0007611966    1.230    0.187
        39 -10.8946     73.0268    175.4558   1.2400727229e+02   3.0180215329e+01    0.2208151     0.186488  85.83 0.0003589674    1.026    0.026
        40 -10.0288     88.5018    249.5101   1.2899861953e+02   1.4140618138e+01    0.1131764   0.08218053  65.54 0.0008105533    1.016    0.016
