#   1 NUMBER                 Running object number                                     
#   2 MAG_AUTO               Kron-like elliptical aperture magnitude                    [mag]
#   3 X_IMAGE                Object position along x                                    [pixel]
#   4 Y_IMAGE                Object position along y                                    [pixel]
#   5 X_WORLD                Barycenter position along world x axis                     [deg]
#   6 Y_WORLD                Barycenter position along world y axis                     [deg]
#   7 A_WORLD                Profile RMS along major axis (world units)                 [deg]
#   8 B_WORLD                Profile RMS along minor axis (world units)                 [deg]
#   9 THETA_WORLD            Position angle (CCW/world-x)                               [deg]
#  10 FWHM_WORLD             FWHM assuming a gaussian core                              [deg]
#  11 ELONGATION             A_IMAGE/B_IMAGE                                           
#  12 ELLIPTICITY            1 - B_IMAGE/A_IMAGE                                       
         1 -12.5580    119.7454     38.1105   4.0635927000e+01   4.9913580945e+01    0.9529239    0.5909531 -44.04   0.00311516    1.809    0.447
         2 -11.5870    106.0914     20.8385   3.7121191336e+01   5.5101360258e+01    0.4074649    0.3537694 -70.71  0.002013535    1.606    0.377
         3 -11.9239    113.4945     25.3009   3.7127467824e+01   5.2971337952e+01     0.665841    0.3153214  45.64  0.002195976    2.014    0.503
         4 -12.4433     20.3215     21.8139   6.7248956055e+01   6.8316314168e+01    0.5251161     0.227948 -39.10  0.001876536    1.712    0.416
         5 -11.7164     35.6068     17.8091   5.8932144169e+01   6.7357134970e+01    0.6529372    0.2093396 -32.50  0.002570935    2.769    0.639
         6 -12.3410     26.9128     27.7497   6.6945339324e+01   6.6695228681e+01    0.4899684    0.4331581 -26.75   0.00260624    1.291    0.225
         7 -11.8625    135.8529     22.5774   3.1141766334e+01   4.8131202580e+01    0.9080424    0.3600464  46.46  0.003512725    2.372    0.578
         8 -10.8868    127.1383     11.8665   2.8789416023e+01   5.1303432205e+01    0.3129666    0.2200292 -56.75  0.001490883    1.897    0.473
         9 -11.1650    134.6971     14.8604   2.8469606765e+01   4.9219210714e+01    0.6523462    0.3063974  54.65  0.002724447    1.932    0.482
        10 -11.1301    179.0813     20.7427   2.3220725479e+01   3.7512997983e+01    0.5686758     0.251954  38.39   0.00207568    2.847    0.649
        11 -10.8451     13.1316      9.4349   6.4846217988e+01   7.0926699706e+01    0.3528209    0.2176064 -50.01  0.002181955    2.002    0.500
        12 -11.8710     22.6092     11.1608   6.1325123050e+01   6.9768259500e+01    0.3994054    0.2435065 -13.89  0.001414016    1.485    0.327
        13 -13.0287    164.0856     18.8030   2.4813281654e+01   4.1540429746e+01    0.5334213     0.297176  36.94  0.002326329    1.972    0.493
        14 -11.7496     67.9336     18.1719   4.7021169976e+01   6.2706435072e+01    0.4236634    0.3770256  -3.40  0.002102615    1.201    0.167
        15 -12.4982    227.5402     15.2330   1.5994601490e+01   2.5972124991e+01    0.5670064    0.3265842 -67.25  0.002122412    1.930    0.482
        16 -11.1720     85.9869     14.3277   3.9663074556e+01   5.9920166455e+01    0.4296221    0.2499032 -19.64  0.001652412    1.583    0.368
        17 -12.0903    104.8322     13.2104   3.4218821112e+01   5.6196388088e+01     0.464186    0.2985936 -14.01  0.001533966    1.495    0.331
        18 -12.0565     48.4084     12.9772   5.1499285848e+01   6.6378591070e+01    0.4919604    0.2778859  39.24   0.00279318    1.991    0.498
        19 -11.2781      5.1179     11.1469   6.9485098143e+01   7.1309135999e+01    0.3858574    0.2380309 -30.29   0.00238739    1.162    0.139
        20 -11.5335    211.8683      9.7152   1.6053766525e+01   3.0375706269e+01    0.5707338     0.313597   2.06   0.00237187    2.845    0.649
        21 -11.8378    192.1758      8.4810   1.7806818764e+01   3.5426478171e+01    0.6036529    0.3319365   6.78  0.002504487    2.717    0.632
        22 -10.8818    169.3894      9.3788   2.0930228474e+01   4.1123425138e+01    0.4551997    0.1722222  51.63  0.001636234    2.398    0.583
        23 -10.8010    145.4277      9.5893   2.4617906140e+01   4.7107152462e+01    0.2716389    0.2044791  28.67  0.000520477    1.320    0.243
        24 -10.8122    163.4399      6.8052   2.0908760412e+01   4.2860234182e+01    0.4468557    0.2331283 -11.19  0.001598082    2.189    0.543
        25  -9.8576      1.2406      8.1246   6.9986877569e+01   7.2070349759e+01    0.2278164   0.05769625 -43.28  0.001055402    2.622    0.619
        26 -10.1084     88.8057      7.3593   3.5711288848e+01   6.0088468650e+01    0.2528316    0.1391173  11.71 0.0008906309    2.030    0.507
        27 -11.7087    236.6645      4.6782   1.2525264093e+01   2.4918660803e+01    0.2577728    0.2339073  42.90  0.001650925    1.304    0.233
        28 -11.5593    233.3940      2.4789   1.2243981914e+01   2.5904345947e+01    0.3143813    0.2149876  87.03 0.0001197197    1.430    0.301
        29 -11.6940    183.8156      5.7356   1.7954345020e+01   3.7797800118e+01    0.4292632    0.2915507 -65.53  0.001787316    1.648    0.393
        30 -11.4799    177.0536      5.8962   1.8822005011e+01   3.9496754497e+01     0.381929    0.2074537  75.89  0.000655891    1.880    0.468
        31 -11.2261    122.2165      5.2693   2.7162646244e+01   5.3041379917e+01    0.2557096    0.2011866  -0.06 0.0004552469    1.243    0.195
        32  -9.8116     62.4687      7.0655   4.3494195600e+01   6.4930814898e+01    0.1921545     0.105119 -19.35  0.001028536    1.603    0.376
        33 -10.8259    247.1515      5.9015   1.2004102199e+01   2.2380624849e+01    0.2078347    0.1485612 -60.38 0.0005499053    1.265    0.209
        34 -10.7357    137.5367      4.4887   2.4080007382e+01   4.9474088870e+01    0.4319182    0.1957391  54.81  0.001034738    1.916    0.478
        35 -12.0399    133.3638      2.5712   2.4075426362e+01   5.0633503748e+01    0.7431863    0.2814887  63.59  0.002440226    2.453    0.592
        36 -10.4400     22.0814      4.2200   5.8018832340e+01   7.0802529193e+01    0.2339648    0.1367889 -39.26 0.0009231616    1.710    0.415
        37 -11.0303    218.6620      3.7707   1.3817942557e+01   2.9298122447e+01    0.2792929     0.226534  83.42 0.0007638915    1.179    0.152
        38 -11.5616    206.6873      2.9199   1.4701551882e+01   3.2316791068e+01    0.4933324    0.2672408  85.05  0.002292746    1.949    0.487
        39 -10.7648    157.9516      3.0330   2.0415707304e+01   4.4560460683e+01    0.3146378    0.1727521   8.37    0.0013688    2.341    0.573
        40 -10.8182    105.4470      2.4088   2.9462041556e+01   5.7051732878e+01    0.3145871    0.2259281 -43.84  0.001733977    1.747    0.428
        41 -10.5622     74.3514      3.5277   3.7978255715e+01   6.3217743095e+01    0.3871617    0.1956615  51.17  0.001968678    2.066    0.516
        42  -9.8827     41.3596      4.2881   4.9802572158e+01   6.8442176812e+01    0.1929051    0.1116215   0.38 0.0008051258    1.764    0.433
        43 -10.8369    223.8151      2.5181   1.3043059402e+01   2.8175036798e+01    0.2365938    0.1771515 -30.44 0.0007237252    1.340    0.253
        44 -11.1414    115.5385      2.4460   2.7347705399e+01   5.4804163302e+01    0.3768975    0.1913258  52.31  0.001804999    1.739    0.425
        45 -11.1745      2.6230      1.9444   6.6262675312e+01   7.2914992396e+01    0.2637593      0.15257  -4.70  0.001441936    1.764    0.433
        46 -10.1058    152.2991      1.3853   2.0658454977e+01   4.6102357139e+01    0.2444322    0.1168643  63.13 0.0004799267    1.880    0.468
        47 -10.3457     82.1310      1.3055   3.4691863355e+01   6.1952889429e+01    0.1682968    0.1074718  49.30 0.0003690227    1.558    0.358
        48 -12.5104     16.0211     14.2351   6.5783734061e+01   6.9929201641e+01     0.905834    0.4104896 -16.74  0.003437226    3.123    0.680
        49 -11.8576     12.4243    136.5654   9.5890094936e+01   4.4624007214e+01    0.4150241    0.2640625 -54.61  0.002675952    1.578    0.366
        50  -9.6225     90.3229    250.3130   9.2476407218e+01   1.3176841629e+01   0.09055854    0.0825986  28.18 0.0007039988    1.657    0.397
        51  -9.3458     22.9304    126.7647   9.2278563485e+01   4.5958457949e+01    0.1185665    0.1040662  36.40 0.0003214965    1.500    0.333
        52  -9.9426      2.0457    126.0369   9.7096057742e+01   4.7726384587e+01    0.1828475    0.1074839  79.52 0.0007373256    1.658    0.397
        53 -12.4529    103.9545    122.4932   7.1164550029e+01   3.6508254553e+01    0.3171608    0.2932864 -45.81 0.0004617966    1.089    0.082
        54 -10.6324     49.6929    123.0389   8.5096968167e+01   4.4162729029e+01    0.2307199    0.1767614 -12.54  0.001326484    1.971    0.493
        55 -10.8158     43.8049    116.7858   8.5521393983e+01   4.6254738525e+01    0.3219071    0.1661014 -72.44 0.0009041035    1.817    0.450
        56 -10.5988      7.1932    114.8581   9.4559206890e+01   4.9868946088e+01    0.3046186    0.1663212 -64.97 0.0008467697    1.343    0.255
        57 -12.2354      2.4229    111.7441   9.5351510458e+01   5.0882619189e+01    0.4613532    0.2005763 -72.35 0.0008530043    1.671    0.402
        58 -11.3537      4.5093    105.0726   9.3948450416e+01   5.2241214328e+01    0.3316102    0.2712758  75.68  0.002443898    1.351    0.260
        59  -9.9907     79.1156    114.8495   7.5835043955e+01   4.2255081827e+01    0.2128114    0.1788523 -76.01 0.0008924915    1.182    0.154
        60  -9.8149     68.0362    115.1902   7.8839991450e+01   4.3730084819e+01    0.2222967    0.1478732  71.52  0.001086588    2.033    0.508
        61 -10.5358     34.2510    103.8769   8.5758135924e+01   5.0184672024e+01    0.2639717    0.1749513  -3.75  0.001044746    2.433    0.589
        62 -12.4461     17.4399    100.8426   8.9855162019e+01   5.2296260034e+01     0.501023    0.3315401 -76.81  0.001086893    1.286    0.222
        63 -11.9671      9.4814     97.3949   9.1489380934e+01   5.3638462063e+01    0.4022702    0.3579183 -85.79  0.003040569    1.247    0.198
        64 -12.1320     25.3254    107.0244   8.8737125200e+01   5.0259392370e+01    0.7216762    0.3954452 -60.22  0.003866833    1.381    0.276
        65 -11.0946     28.0428    113.1470   8.9014871871e+01   4.8622746712e+01    0.2565844    0.2156318 -48.84 0.0009658283    1.293    0.227
        66 -11.6091     22.5993     94.5347   8.7310591653e+01   5.3324132207e+01    0.2958737    0.2467197 -40.36  0.001300836    1.314    0.239
        67 -11.9609     18.1216     90.6712   8.7892672257e+01   5.4539912574e+01    0.5644635    0.2572385 -61.01 0.0009099722    1.580    0.367
        68  -9.4968     93.5457    112.4919   7.1484897785e+01   4.0548253752e+01    0.1459435    0.1288227 -60.90  0.000257555    1.047    0.045
        69 -10.0943     48.8790    112.1787   8.3341637581e+01   4.6771664642e+01    0.1986898    0.1597904 -85.43 0.0009067482    1.246    0.197
        70  -9.7534     65.9817    110.7002   7.8439746025e+01   4.5042469276e+01    0.1814615    0.1678808 -67.24 0.0006704419    1.107    0.097
        71  -9.4385    170.5184    110.4460   5.2347317320e+01   2.5348950600e+01    0.1576989    0.1488802 -14.99 8.281999e-05    1.037    0.036
        72 -10.0203    102.0228    109.2295   6.8454553652e+01   3.9845142373e+01    0.1807508    0.1249237  40.96  0.000401124    1.610    0.379
        73 -11.3992     79.9845    108.1223   7.4065910215e+01   4.3674728528e+01     0.396996    0.2955937  24.83 0.0006354866    1.690    0.408
        74  -9.3672    175.5768    107.1834   5.0380668004e+01   2.4811415923e+01    0.2209992    0.1478048 -25.14 0.0005968192    1.589    0.371
        75  -9.6042    143.3760    106.1394   5.7270562661e+01   3.2325691295e+01    0.2295993    0.1379617 -50.98 0.0008345839    1.726    0.420
        76 -11.5759     21.4985    114.4173   9.0898008609e+01   4.8890289470e+01    0.3488165    0.2530816 -11.70  0.001329605    2.121    0.528
        77 -10.7797     51.6383     99.4499   7.9981116533e+01   4.9396227352e+01    0.5926913    0.1369771 -48.90  0.001965267    3.588    0.721
        78 -11.2289     29.9244     96.8942   8.5658599306e+01   5.2173708515e+01    0.6857761    0.2059582 -51.12  0.002863579    2.577    0.612
        79 -11.4119     35.0429     92.0949   8.3211585736e+01   5.2797500534e+01    0.6626199    0.2732873 -67.56  0.002873395    2.351    0.575
        80 -11.4629     27.5706     85.5552   8.4065542467e+01   5.4936265909e+01    0.5070223    0.3582268 -48.13  0.001864695    1.211    0.174
        81 -11.5118     44.3757     85.2635   7.8869189456e+01   5.3405592027e+01    0.3728748    0.3159873  -1.51  0.001539237    1.465    0.317
        82 -10.5369     37.3923     85.8546   8.1141414156e+01   5.3979215879e+01     0.237215    0.2081216  -3.20  0.001130621    1.421    0.296
        83 -12.0063    248.4972     97.6676   3.4932630373e+01   9.7409506687e+00    0.4834594    0.2757227   1.76  0.001749214    3.208    0.688
        84 -11.4665     68.7481     95.8108   7.4221393311e+01   4.8084468693e+01    0.3715005    0.2877616  -3.75  0.001874793    1.724    0.420
        85 -10.7301     42.9107     94.8150   8.1487267188e+01   5.1404040884e+01    0.3567976    0.2206474 -60.25  0.001834734    1.294    0.227
        86 -11.9537    125.7401     94.9688   5.8407314774e+01   3.8410391557e+01    0.2790323    0.2537218 -28.30  0.000237504    1.057    0.054
        87 -10.4868    122.0000     93.4741   5.8924389943e+01   3.9490864867e+01    0.3057679    0.2049958 -42.32  0.001040733    1.375    0.273
        88 -10.7513     83.0094     93.0617   6.9418497346e+01   4.6618125494e+01    0.2312617    0.2061899  11.38 0.0003406057    1.305    0.234
        89 -11.1289     78.5612     92.6160   7.0572120756e+01   4.7397194111e+01    0.5540651    0.3031647 -46.30  0.002568082    1.575    0.365
        90 -11.2219     98.5207     91.0370   6.4489397131e+01   4.4483222990e+01    0.2414712    0.2304805  36.65  0.001386325    1.176    0.150
        91 -11.4141     89.4858     89.9238   6.6706380554e+01   4.6269418437e+01    0.4913035    0.2905472 -36.74  0.002238767    1.664    0.399
        92 -10.8889     49.3929     91.3784   7.8808322355e+01   5.1486854411e+01    0.2525819    0.2157154 -71.07  0.001593259    1.178    0.151
        93 -12.0520      6.9776     88.9115   9.0817878400e+01   5.5695455808e+01    0.3990606    0.3511304   2.95   0.00145883    1.560    0.359
        94 -10.2311     66.1638     88.7739   7.3177369749e+01   5.0013713110e+01    0.3147689     0.198005 -18.63  0.001429764    2.413    0.586
        95  -9.8574    104.0621     87.6414   6.1967095728e+01   4.4208466304e+01    0.2084647    0.1933399 -20.37  0.001158489    1.085    0.078
        96 -10.8999    143.2224     84.5259   5.0965011780e+01   3.6714291518e+01    0.2763249    0.2440447 -31.81 0.0003182149    1.063    0.060
        97 -10.9031     80.2808     84.0235   6.7682429190e+01   4.9022255299e+01    0.3807559    0.2795271 -48.13  0.001848014    1.184    0.155
        98 -11.2415     74.9019     78.5514   6.7687713926e+01   5.1011453141e+01    0.5032426    0.4688921 -88.00  0.003054235    1.307    0.235
        99 -10.6199    113.0196     82.8615   5.8078663956e+01   4.3490141481e+01    0.3384419    0.2959997 -67.67   0.00120892    1.323    0.244
       100 -10.1928     67.0075     81.7844   7.1025899583e+01   5.1439490897e+01     0.354096    0.2616396  -7.51  0.001887261    1.754    0.430
       101 -11.5214     53.5014     76.6838   7.3802777071e+01   5.4272397955e+01    0.4665406    0.3287884 -55.38   0.00253611    1.233    0.189
       102 -11.2333     58.2506     77.8350   7.2625646416e+01   5.3443499339e+01    0.3076021    0.1904372 -44.49 0.0007488779    1.339    0.253
       103 -12.9871    247.3070     75.5646   2.9459246566e+01   1.3376283984e+01    0.6186393    0.4363678 -66.63  0.003032026    1.754    0.430
       104 -10.5579     14.2229     67.6655   8.4350218018e+01   5.9880442349e+01    0.2651924    0.2023606  16.24  0.001680224    1.726    0.421
       105 -10.4258     95.1779     76.5566   6.1060904116e+01   4.8125874506e+01    0.4042269    0.2410259  55.07   0.00162847    2.265    0.558
       106 -11.9501     13.9355     74.4335   8.5950674361e+01   5.8435670414e+01    0.5131695    0.3110083 -63.36  0.002629201    1.264    0.209
       107 -10.0345     92.0374     72.0236   6.0516337560e+01   4.9597091274e+01    0.2557063    0.2093188  23.76 0.0003593166    1.358    0.264
       108 -11.0801     84.4093     73.8008   6.3353446438e+01   5.0524631326e+01    0.3569721    0.3232261   5.64  0.002097253    1.196    0.164
       109 -11.0553     88.4948     73.4791   6.2032402515e+01   4.9911399544e+01    0.3362087    0.2275471 -47.28  0.001016934    1.361    0.265
       110 -11.2829    187.2760     71.1267   3.7580678395e+01   2.8464747475e+01    0.5874597    0.3263461 -34.26  0.002115864    1.689    0.408
       111  -9.8120    103.8324     74.6336   5.7983127044e+01   4.6928229764e+01    0.2016736    0.1418037  55.34 0.0009534493    1.760    0.432
       112 -10.4263     24.7891     73.6203   8.2262930761e+01   5.7802485436e+01    0.2254388       0.1725 -54.85 0.0007479903    1.023    0.022
       113 -11.6746     35.0182     71.6328   7.8418399406e+01   5.7335276605e+01    0.4432882    0.2450815  29.60  0.002420335    2.265    0.558
       114 -10.7249     41.1639     72.8522   7.6727047126e+01   5.6466575253e+01    0.2726901    0.1725838 -46.81 0.0007993835    1.248    0.199
       115 -10.9881     39.9117     69.4798   7.6220277356e+01   5.7317972639e+01     0.239102    0.2043438 -15.55 0.0007676334    1.303    0.232
       116 -11.0914      2.0082     71.6561   8.9204129210e+01   5.9772141534e+01    0.3402567     0.140757 -62.18  0.001389742    1.660    0.398
       117 -11.1526    122.8923     69.0880   5.1010323914e+01   4.4142811342e+01    0.4196588    0.3033197  36.41  0.001447294    1.481    0.325
       118 -11.1130     79.5353     68.0944   6.2993852718e+01   5.2468665485e+01    0.4794512    0.3308955  61.68  0.002309106    2.248    0.555
       119 -10.8432    220.3819     66.9749   3.0930676851e+01   2.0935951837e+01    0.4473529    0.2327532  66.22  0.001805928    2.244    0.554
       120 -11.9340      9.8920     62.3197   8.4564980084e+01   6.1304770487e+01    0.5274748    0.2634161 -55.95   0.00142786    1.407    0.289
       121 -12.2549      4.5528     61.8116   8.6285400222e+01   6.1734077243e+01    0.4607083    0.3297002 -60.40  0.001751515    1.090    0.082
       122 -11.0055     92.5445     62.9662   5.7314396558e+01   5.1277031217e+01      0.48818    0.2786053  57.21  0.001971767    2.631    0.620
       123 -10.3921     58.7909     63.1238   6.8018131786e+01   5.6463769852e+01    0.2750149    0.1951178 -63.22  0.001273886    1.696    0.411
       124 -11.2589     40.7961     57.0124   7.2219326477e+01   5.9817985657e+01    0.3217881    0.2141527  38.94  0.001873237    1.950    0.487
       125 -11.3363     43.4612     62.4176   7.2972802667e+01   5.8430138041e+01    0.3114962    0.1856492 -49.13 0.0005694861    1.333    0.250
       126 -10.6601     51.3453     61.5851   7.0023683386e+01   5.7704603325e+01    0.3318907    0.2152825  44.88  0.001803625    2.060    0.515
       127 -11.2734     46.4688     59.1283   7.0911153038e+01   5.8770151095e+01     0.313201    0.2229759 -54.07 0.0008882544    1.325    0.245
       128  -9.8445    157.9568     63.2267   4.0844138894e+01   3.7057815415e+01    0.4570732    0.1341978  43.08  0.001229239    4.283    0.767
       129 -11.8227    234.9398     60.7273   2.7206474201e+01   1.8389467219e+01    0.3432661    0.3204189  53.42   0.00198023    1.179    0.152
       130 -12.0317     75.9110     54.5117   5.9440234000e+01   5.5669218758e+01    0.8909848    0.3068038 -41.77  0.002004502    2.520    0.603
       131 -10.3573    121.9375     60.2059   4.8204156801e+01   4.5944541319e+01    0.2884455      0.20667  26.30  0.001361022    1.563    0.360
       132 -12.5983     25.3018     57.2903   7.7817201181e+01   6.1226048187e+01    0.6971136    0.5499241 -51.31  0.004725712    1.110    0.099
       133 -10.5756     34.8053     51.7366   7.2671741580e+01   6.1484050367e+01    0.3789951    0.2134737 -16.28  0.001893116    2.415    0.586
       134 -10.1390    106.3482     58.6411   5.1815290362e+01   4.9463177871e+01    0.2158115    0.1742518 -65.50  0.001019228    1.658    0.397
       135 -10.1107     91.6836     57.1518   5.5509185979e+01   5.2512282826e+01    0.2213453    0.2011662  55.94 0.0006683058    1.380    0.275
       136 -10.2245     87.6459     56.3627   5.6441549520e+01   5.3372467976e+01     0.384431    0.1468213 -37.21  0.001313404    2.360    0.576
       137  -9.8994     51.0221     56.6573   6.8526740344e+01   5.8732632490e+01    0.1808819    0.1539807 -19.64  0.001153218    1.152    0.132
       138 -10.8478    117.0986     55.0163   4.7609628526e+01   4.7873520778e+01    0.5363562    0.2413858 -47.72  0.001926321    2.749    0.636
       139 -10.4838    112.2439     50.4309   4.7212807097e+01   4.9660607466e+01    0.3111134    0.3064209   9.41  0.001820297    1.170    0.145
       140 -10.5086    116.2078     48.5687   4.5478917221e+01   4.9119596442e+01    0.3584603    0.2788651  47.38  0.001107564    1.370    0.270
       141 -11.6380    117.5736     43.8228   4.3350263277e+01   4.9559080928e+01    0.4731274    0.4232124 -83.66  0.001652791    1.471    0.320
       142  -9.7786    142.6696    249.6862   8.3992885387e+01   5.5886826002e+00    0.1061927    0.0810523  21.81 0.0007044643    1.677    0.404
       143 -10.1610    157.8181     54.6089   3.8024728774e+01   3.8471352749e+01    0.4154207    0.2522437 -71.81  0.001466832    3.091    0.676
       144  -9.5480     67.2338     55.0053   6.2450792447e+01   5.6896068788e+01    0.1834792   0.09747909 -41.77 0.0008687401    1.592    0.372
       145 -10.4612      7.6226     54.6301   8.3466322220e+01   6.3053175668e+01    0.2094505    0.1545866 -59.02 0.0006604371    1.145    0.127
       146 -11.5219     60.6672     48.1658   6.2179974627e+01   5.9103847967e+01    0.7930112    0.2709951 -38.16  0.003110751    2.560    0.609
       147 -11.6077     45.3810     48.5748   6.7743072937e+01   6.0968410267e+01    0.4331268    0.3077598 -41.84  0.002401304    1.151    0.131
       148 -11.9338     42.5203     43.9244   6.7113296397e+01   6.2169601569e+01     0.519062    0.2638203  27.80 0.0002824384    2.364    0.577
       149 -10.3469     51.7800     48.3569   6.5366807645e+01   6.0240365037e+01    0.2527478    0.1755255 -33.13 0.0007597258    1.173    0.147
       150 -10.1399      2.2149     49.0037   8.3998903157e+01   6.4519266761e+01    0.1779103    0.1496557 -31.70 0.0008352352    1.272    0.214
       151 -10.0240    146.2881     47.2750   3.7923217695e+01   4.2405177049e+01    0.2737216     0.179853 -23.53  0.001240967    1.511    0.338
       152 -11.8670     20.9063     46.2095   7.6084572506e+01   6.3817674908e+01    0.3270336    0.2032979 -52.74 0.0009619992    1.305    0.234
       153 -10.9143     72.8104     48.4135   5.8182765726e+01   5.7265110142e+01    0.4945484    0.2656286 -52.53  0.001791174    2.396    0.583
       154 -10.0220    133.8743     45.8173   4.0150460816e+01   4.5576609057e+01    0.2487618    0.1763373  49.30 0.0003738613    1.433    0.302
       155 -10.0829    138.8179     44.1602   3.8440370141e+01   4.4654822410e+01    0.4259996    0.2041129  29.67  0.001431084    3.175    0.685
       156 -10.1320    200.6486     45.3179   2.7629064656e+01   2.8978419588e+01    0.1597117    0.1077772 -62.54 0.0002218838    1.739    0.425
       157 -10.7645    109.4387     41.5163   4.4581511938e+01   5.1646449946e+01    0.5865842    0.2544992 -21.86   0.00213473    2.719    0.632
       158 -10.5930    155.8449     42.3743   3.4279372766e+01   4.0755658702e+01     0.294032    0.2340326  -0.33 0.0009777702    1.340    0.254
       159 -10.8333     26.5246     42.9986   7.2857400882e+01   6.3963260451e+01    0.2126795     0.145345 -18.07 0.0007685787    1.502    0.334
       160 -11.4460      4.6536     36.1140   7.9298505654e+01   6.6923193127e+01    0.3854662    0.2576418 -35.42  0.002479883    1.212    0.175
       161 -10.3838     12.0140     30.0032   7.4109945556e+01   6.7570160008e+01    0.2857735    0.1416512 -31.47  0.001391578    1.762    0.433
       162 -10.4828      7.5101     30.4836   7.6202409281e+01   6.7798878910e+01    0.2756191    0.1496959  -5.08  0.001548348    2.349    0.574
       163 -10.6985    235.7398     42.0114   2.2150404626e+01   2.0785807831e+01    0.2031549    0.1752995 -40.60 0.0006947877    1.057    0.054
       164 -10.2257     92.4686     41.6364   4.9391677602e+01   5.5007654918e+01    0.2605912    0.1768953  47.48  0.001333721    1.662    0.398
       165 -10.2373     13.2271     47.2671   7.9345042133e+01   6.4183693509e+01    0.3212417   0.08544406 -46.86  0.001408419    2.495    0.599
       166 -10.4035     79.4680     38.9624   5.2308274347e+01   5.7768229286e+01     0.374644    0.2738264  78.40  0.001738298    2.931    0.659
       167 -11.0362     79.9127     32.8192   4.9623196397e+01   5.8637149795e+01    0.5526393    0.3386953  13.01  0.002650568    2.014    0.503
       168 -10.4355    231.3478     38.6460   2.1763603648e+01   2.2269522540e+01    0.2945382    0.1721245 -26.91  0.001370103    1.657    0.397
       169 -11.3560     60.7598     36.4920   5.7570429838e+01   6.1126893681e+01    0.3889643    0.2369782 -35.14  0.001267052    1.386    0.279
       170 -10.1743     66.9480     32.5926   5.3788981193e+01   6.0820366669e+01    0.4237259    0.3060006  42.95  0.002447563    1.675    0.403
       171 -11.5664     57.6480     30.1349   5.5998213363e+01   6.2598013142e+01    0.4096986    0.2638626 -12.50  0.001510309    1.547    0.354
       172 -11.5119     48.4777     30.6239   5.9592012692e+01   6.3771503864e+01    0.5564505    0.2243672  30.44  0.002503727    2.982    0.665
       173 -10.4575     43.0116     28.0629   6.0588804259e+01   6.4874522054e+01    0.1863846    0.1410525 -22.34 0.0002973038    1.019    0.019
       174  -9.8285     54.3619     26.7543   5.5714930483e+01   6.3587185854e+01    0.1902311    0.1303044 -27.00 0.0005827991    1.194    0.162
       175 -10.8282     22.0670     37.0187   7.2510575379e+01   6.5480748798e+01    0.3943179    0.2318109  45.21  0.002183929    2.825    0.646
       176  -9.1977    183.6606     38.2870   2.8064274859e+01   3.4248038713e+01    0.1531502     0.110392 -64.94 0.0005898518    1.637    0.389
       177  -9.8270    133.2782     37.2828   3.7163453060e+01   4.6929256901e+01    0.2873469    0.1900312  89.55  0.001177992    2.597    0.615
       178  -9.9190     12.7621     37.1881   7.6335765823e+01   6.6180240006e+01    0.1745171    0.1170447 -59.41 0.0006232976    1.505    0.336
       179 -10.0048    176.8565     36.0674   2.8444580665e+01   3.6275215568e+01    0.2359055    0.1918647 -57.78  0.001205431    1.335    0.251
       180  -9.5660     93.8868     35.6154   4.6553742661e+01   5.5653391231e+01     0.171266    0.1348118  58.48 0.0005050011    1.636    0.389
       181 -12.2027    160.0058     29.9250   2.9249482957e+01   4.1322516862e+01    0.5445168    0.4661132 -22.00 0.0004513137    1.167    0.143
       182 -12.1023    164.2921     27.6663   2.7752664122e+01   4.0506171662e+01    0.3298393    0.3129284  69.62 0.0004242189    1.084    0.078
       183 -10.7981    239.9507     32.6022   1.9249223516e+01   2.0996219361e+01    0.2628692    0.1942527  -5.07  0.001371614    1.667    0.400
       184  -9.6271    174.5192    246.4907   7.8325017400e+01   1.0168512954e+00    0.1152164   0.09179731  38.28  1.53256e-05    1.025    0.024
       185 -11.3643    107.4555     31.2056   4.1027289601e+01   5.3524969142e+01    0.5364643    0.2939975  11.96  0.002092539    2.755    0.637
       186 -12.0037    126.5234    241.8054   8.5771732707e+01   9.2200737108e+00    0.3289501    0.2124292  59.17  0.001920728    1.387    0.279
       187 -11.5432     67.7856    240.8050   9.5224108075e+01   1.7703285385e+01    0.2068656    0.1640051  31.12  0.001198172    1.889    0.471
       188 -10.2372     38.6246     22.2130   5.9736937018e+01   6.6330407683e+01    0.2130591     0.140996 -23.82  0.000422178    1.197    0.165
       189  -9.7518    167.6203    238.2268   7.8379456091e+01   3.2250937527e+00    0.1418431    0.1102995 -27.16 0.0009397333    1.631    0.387
       190 -12.0331    125.8718     28.2464   3.5407071503e+01   4.9821588127e+01    0.4811664    0.4363121  79.21  0.002743691    1.333    0.250
       191 -11.4898    146.8019    237.6563   8.1856594883e+01   6.6643583476e+00    0.4223434    0.2182623  53.69  0.002317002    1.810    0.447
       192 -10.3702     89.7955     29.4311   4.5178488817e+01   5.7315237609e+01    0.2100639    0.1797538 -27.54  0.001245985    1.217    0.178
       193 -10.3429    197.7856     29.1650   2.3238309449e+01   3.1776320922e+01    0.3115126    0.1901583  64.46   0.00144871    1.624    0.384
       194 -10.8914    189.1706     27.6776   2.3961382834e+01   3.4149545166e+01    0.3678302    0.2863264  16.46   0.00145905    1.492    0.330
       195  -9.9348    150.3178     27.3210   3.0087701750e+01   4.4056403479e+01     0.155128    0.1031357  27.09 0.0003178166    1.664    0.399
       196 -10.9872    242.0282     26.2691   1.7432421750e+01   2.1282268136e+01    0.1941072    0.1710486 -66.79   0.00117384    1.067    0.063
       197 -10.5476    231.0155     26.3359   1.8549215099e+01   2.3874006892e+01    0.2168769    0.1635338  53.21  0.001176723    1.444    0.307
       198 -11.4609    183.5770     25.2550   2.4000116106e+01   3.5861053381e+01    0.5622848    0.2350041  49.82  0.002169406    2.363    0.577
       199 -11.5736    143.5538     25.0222   3.0536406053e+01   4.5989369480e+01    0.3942875    0.1840359  55.87   0.00163121    2.011    0.503
       200 -10.1587    233.4689    227.4772   6.5570863544e+01  -6.0803948969e+00    0.1187462   0.09429576  19.19  9.07312e-05    1.029    0.028
       201  -9.5861    153.2836    219.3447   7.8256964842e+01   8.3952796525e+00    0.1164786   0.09348289   7.90 0.0003182926    1.642    0.391
       202 -10.2557    164.7182    212.0131   7.5077262221e+01   7.5944682020e+00    0.2190249    0.1627592  44.31 0.0006073216    1.182    0.154
       203 -10.1391    127.4768     16.2059   3.0406703004e+01   5.0797690525e+01    0.2838843    0.1815943  45.91 0.0009058511    1.450    0.310
       204  -9.9077     59.5506     23.8827   5.2547240571e+01   6.3257575776e+01    0.1888703    0.1065078 -31.32 0.0004275372    1.516    0.340
       205 -10.4507    152.7343    207.1388   7.6538807102e+01   1.0480863709e+01    0.2787909    0.1983133 -78.44   0.00151725    1.972    0.493
       206 -10.5396     90.8706     22.1068   4.1725399835e+01   5.8063158951e+01    0.3400848     0.212654 -18.19  0.001554858    1.484    0.326
       207  -9.9697     13.9026     23.1226   7.0614185167e+01   6.8643129456e+01    0.1786606    0.1218407 -31.71 0.0006161907    1.072    0.067
       208 -11.4705    246.1339     19.8506   1.5456822694e+01   2.1085425496e+01    0.2577087    0.1635382 -65.41 0.0008562572    1.604    0.377
       209  -9.5254    223.6833     22.3112   1.8247248838e+01   2.6114964178e+01    0.1474323   0.09331045 -59.56 0.0003834212    1.639    0.390
       210  -9.1427     61.4952    206.4957   9.3300327149e+01   2.4652444171e+01    0.1162101   0.09010552  78.58 0.0008106548    1.007    0.007
       211  -9.6609    233.7737    196.9543   6.0009187754e+01  -2.3618444724e+00    0.1658058   0.09859147 -27.60 0.0008820829    1.680    0.405
       212  -9.9301    171.7911    190.3807   7.0109088526e+01   9.8852866547e+00    0.1947263    0.1161809  34.68 0.0009416197    1.690    0.408
       213 -12.1616      5.0024    185.9024   1.0155329993e+02   3.4791598271e+01    0.4252083    0.2826392  89.27   0.00258896    1.070    0.066
       214  -9.5661    216.5173     20.5248   1.8526081317e+01   2.8074614411e+01    0.1370785    0.1279816 -64.61 2.960338e-05    1.001    0.001
       215 -11.0933    157.0044     20.4891   2.6526702159e+01   4.3149975228e+01    0.3839486    0.1352362  63.49  0.001367497    2.748    0.636
       216  -9.8068     74.3904     19.5940   4.5569649379e+01   6.1425046446e+01    0.2037852    0.1402913  26.98 0.0005727165    1.412    0.292
       217 -10.2046     46.8844     19.2911   5.5126868115e+01   6.5720429196e+01    0.2282109    0.1696514  -8.05   0.00146765    1.131    0.116
       218  -9.4010     85.9973    185.7401   8.6367089455e+01   2.5435985898e+01    0.1591073    0.1011989  45.83 0.0008902973    1.553    0.356
       219 -10.5149    148.0941     16.2926   2.6566668091e+01   4.5808513353e+01    0.3896661    0.1515789  42.98  0.001326979    2.626    0.619
       220  -9.6993     28.1693    175.8170   9.6558457850e+01   3.4676827081e+01    0.1500416    0.1150699 -69.52 0.0006365859    1.317    0.241
       221 -10.1303     89.2351     16.6049   3.9766623399e+01   5.9034501260e+01    0.2659253    0.1849413  28.07  0.001065952    1.352    0.260
       222  -9.9791    117.1002     16.5260   3.2746431070e+01   5.3153971062e+01    0.2036363    0.1314302  56.12  0.001019464    1.558    0.358
       223 -10.7681    186.8172     14.9788   2.0397202204e+01   3.6144314701e+01    0.2379182    0.1967572  66.63 0.0005273845    1.170    0.145
       224  -9.5405     51.5633    173.5254   9.1748668802e+01   3.2587047550e+01    0.1224432   0.09603546  89.88 0.0001346702    1.017    0.017
       225  -9.3884    170.4750    172.4218   6.6961813287e+01   1.3317018777e+01    0.1384258    0.1309448  32.19 0.0002515735    1.011    0.011
       226  -9.6292     35.6374    169.3037   9.4474634166e+01   3.5284278509e+01    0.1256058   0.07151762  72.42 0.0007037353    1.731    0.422
       227  -9.5391    198.1876    167.8204   6.0569631626e+01   8.6455657948e+00    0.1944558    0.1571534   7.96 0.0005183996    1.295    0.228
       228 -11.9335      9.5783    166.8267   9.9325553968e+01   3.8301096475e+01    0.2556919    0.2236031  80.93  0.001422221    1.303    0.233
       229 -10.2811    121.0921     11.5812   2.9902131815e+01   5.2736176866e+01     0.324203    0.1189765  57.69  0.001108617    2.508    0.601
       230 -10.1882     18.8883    164.8504   9.7355187487e+01   3.7893351323e+01    0.1730036      0.13205 -67.50  0.001240298    1.328    0.247
       231 -10.2819    205.0279    163.3559   5.8306398662e+01   8.0362991435e+00    0.2545257    0.2027829 -36.55 0.0006627731    1.283    0.220
       232  -9.8131     65.6186     10.3923   4.4082873131e+01   6.4034564714e+01    0.2081345    0.1194841  49.04  0.001106909    2.029    0.507
       233 -11.9376     12.9512    160.2163   9.8109227237e+01   3.9412825134e+01     0.345009     0.192314 -53.68  0.002096049    2.011    0.503
       234 -10.1909     28.5976    160.7887   9.5016148137e+01   3.7842951426e+01    0.1716049   0.08959576 -83.30 0.0009489853    1.646    0.393
       235 -10.7164      9.2884    155.8694   9.8453074059e+01   4.0654020321e+01    0.2226415    0.1043904 -71.95  0.001206569    1.595    0.373
       236 -10.1465    104.6961    154.9935   7.7646039596e+01   2.9075903314e+01    0.2038472    0.1751625 -68.40  0.001179473    1.082    0.076
       237 -12.5711     22.7635    149.0544   9.4993311347e+01   4.0970466867e+01    0.4589628    0.2722894 -40.38  0.002568397    2.499    0.600
       238 -10.7498     30.5680    152.1711   9.3671275987e+01   3.9539653205e+01    0.2174515    0.1771995 -65.82  0.001357292    1.266    0.210
       239 -10.7083      3.4079    152.9021   9.9374133706e+01   4.1760243929e+01     0.239913    0.1290445  67.37  0.001476223    1.803    0.445
       240 -10.1215    141.3047    152.3261   6.8970153454e+01   2.2994933572e+01    0.2744079    0.1804497  48.69 0.0007302239    1.541    0.351
       241 -11.1756     47.4407    146.9915   8.9320576780e+01   3.8917316496e+01    0.4871389    0.3741579 -34.13  0.002973243    1.830    0.454
       242 -11.2265     16.0448    147.9696   9.6308182992e+01   4.1803628333e+01    0.2423371     0.189116  75.32 0.0008126051    1.224    0.183
       243 -10.6593      3.0903    147.5015   9.8968416784e+01   4.2947059334e+01    0.1789026    0.1139045 -79.95 0.0007457682    1.133    0.117
       244  -9.6229     74.1789    145.8742   8.3029784509e+01   3.5804753924e+01    0.1767252    0.1445798 -50.03 0.0005101513    1.309    0.236
       245 -11.1988     33.1482    144.4171   9.2187552420e+01   4.1015099197e+01    0.2557234     0.194527 -88.48 0.0007208672    1.105    0.095
       246 -11.2198      5.8622    142.1531   9.7892552598e+01   4.3900852050e+01     0.264458    0.1532449 -89.52  0.000591443    1.408    0.290
       247 -11.2486      1.9512    141.3405   9.8645983030e+01   4.4368513585e+01    0.3546819    0.1586099 -75.05  0.002026683    1.621    0.383
       248  -9.7570    217.4603    138.5321   5.0279926970e+01   9.6869184935e+00    0.1484605    0.1345531  -9.64 0.0001406446    1.004    0.004
       249  -9.4898     79.0135    138.0212   8.0521453685e+01   3.6916174774e+01    0.1694739    0.1434897 -70.40 0.0008794647    1.023    0.023
       250 -10.2177     40.3260    137.9655   8.9700041917e+01   4.1743780376e+01    0.2186002    0.1480434  75.03 0.0007755337    1.543    0.352
       251 -10.0584     32.0682    137.5210   9.1552562958e+01   4.2678608047e+01     0.200076    0.1613282  75.08 0.0009343487    1.242    0.195
       252 -11.8665     22.2209    136.0286   9.3621168604e+01   4.3925324603e+01    0.4854061    0.2758852  49.70  0.002885249    1.956    0.489
       253 -11.5844     30.1481    133.2202   9.1429320531e+01   4.3839113905e+01    0.3505566    0.2331312 -52.72  0.000697805    1.499    0.333
       254  -9.8553     39.3578    133.4441   8.9284275833e+01   4.2878042629e+01    0.1755898    0.1282099  27.44   0.00068951    1.826    0.452
       255  -9.7367     93.0015    129.7747   7.5495930491e+01   3.6678287039e+01    0.2149568    0.1508324 -78.39  0.001052049    1.620    0.383
       256 -11.0526     11.0629    126.9393   9.5108899365e+01   4.6878674337e+01    0.2944086    0.1474527 -65.46  0.001087169    1.485    0.326
