#   1 NUMBER                 Running object number                                     
#   2 MAG_AUTO               Kron-like elliptical aperture magnitude                    [mag]
#   3 X_IMAGE                Object position along x                                    [pixel]
#   4 Y_IMAGE                Object position along y                                    [pixel]
#   5 X_WORLD                Barycenter position along world x axis                     [deg]
#   6 Y_WORLD                Barycenter position along world y axis                     [deg]
#   7 A_WORLD                Profile RMS along major axis (world units)                 [deg]
#   8 B_WORLD                Profile RMS along minor axis (world units)                 [deg]
#   9 THETA_WORLD            Position angle (CCW/world-x)                               [deg]
#  10 FWHM_WORLD             FWHM assuming a gaussian core                              [deg]
#  11 ELONGATION             A_IMAGE/B_IMAGE                                           
#  12 ELLIPTICITY            1 - B_IMAGE/A_IMAGE                                       
         1 -14.4361     68.5761    144.4896   1.0022024659e+02   3.7360536278e+01     5.045116     2.736928  75.90  0.005992205    3.662    0.727
         2 -14.3694    206.9742     38.9299   4.0491737093e+01   2.9105321209e+01     1.922986     1.447735   8.71  0.008131032    2.116    0.527
         3 -13.9315    222.4846     24.0744   3.5485009235e+01   2.7510694623e+01    0.9778294    0.9111572  51.38  0.003461292    1.389    0.280
         4 -12.2957    247.7947      4.4175   2.9548559159e+01   2.4488246504e+01    0.3758671    0.3541262 -30.74  0.002932348    1.491    0.329
         5 -12.1480    243.1734      3.1826   2.9595755253e+01   2.5533724992e+01    0.4072246    0.3001561 -66.69  0.002259503    1.051    0.048
         6 -10.1106     49.4851      2.9940   6.1501666335e+01   6.8141661798e+01    0.2051828    0.1587486  52.21 0.0007510306    1.600    0.375
         7  -9.6096     44.8723      1.3381   6.2514172330e+01   6.9067356091e+01    0.2526571    0.1113521  54.57  0.001139727    3.178    0.685
         8  -9.2495      1.7006      2.6415   8.5886731990e+01   7.4333612609e+01    0.1186019   0.06233444 -17.36 0.0007035936    1.710    0.415
         9 -10.1878     58.7042    196.1478   1.1027131322e+02   2.5975906051e+01    0.2098711    0.2035946  85.62 0.0002560957    1.180    0.153
        10 -10.9776    140.2376    249.4507   9.8959863993e+01   3.2056544352e+00    0.2325062    0.2020102  57.43  0.001462176    1.270    0.213
        11  -9.7740    117.9140    250.5646   1.0363615571e+02   6.3307424407e+00    0.1882222    0.1039859  36.96 0.0004476808    1.522    0.343
        12 -15.5784      3.6967    182.0104   1.2166673013e+02   3.4995298103e+01     9.648124    0.7154182 -74.07  0.001153101    7.238    0.862
        13 -15.1261      9.2519    207.3252   1.2215123964e+02   2.8817548064e+01     1.617656     1.021717 -56.28  0.004256694    1.841    0.457
        14 -13.2222     34.7152    201.8135   1.1632167710e+02   2.7507196586e+01    0.4778278    0.3577325 -46.27  0.001284357    1.700    0.412
        15 -15.7959     44.1197    192.6516   1.1331413440e+02   2.8566682405e+01     5.341916     2.351877  63.94   0.02170681    2.868    0.651
        16 -16.1214     33.5776    249.2292   1.2005240452e+02   1.7702886961e+01     11.25625     3.629961  23.86   0.02635611   13.611    0.927
        17  -9.5613     82.5111    182.4218   1.0266778434e+02   2.5938572546e+01    0.2452749    0.1898324 -41.58 0.0007659137    1.481    0.325
        18  -9.0467     79.4623    181.4671   1.0329561422e+02   2.6616609542e+01    0.2908417    0.2125323 -88.75  0.001485914    1.472    0.321
        19  -9.6417     99.3612    180.8595   9.8174442178e+01   2.3693361954e+01    0.2323317    0.1897095  51.42 0.0005854071    1.201    0.167
        20 -12.1573     62.4850    175.4041   1.0675834987e+02   3.0446287891e+01    0.4435921    0.3031433 -35.36  0.001538614    1.919    0.479
        21 -12.0382     67.3051    170.3454   1.0479181634e+02   3.1047029944e+01    0.3458396    0.2753881 -35.98  0.001055445    1.498    0.332
        22  -9.7698    146.5413    171.7743   8.4811872104e+01   1.7427249167e+01    0.3086483    0.1915159 -72.43  0.000609355    2.705    0.630
        23 -14.0475     57.1701    239.2736   1.1480065010e+02   1.6848709043e+01     1.023225    0.6262922 -77.00  0.001225575    1.669    0.401
        24 -11.3333     75.8188    136.3735   9.6539896833e+01   3.8366801685e+01    0.4388351    0.2656958  49.36 0.0005556243    1.852    0.460
        25 -12.7413     84.3287    154.5444   9.7581928189e+01   3.2507086491e+01     1.459462    0.7628986 -53.45  0.002053499    1.811    0.448
        26 -13.5791     64.2442    156.9224   1.0356188779e+02   3.4809900601e+01    0.5459212    0.4411885 -48.80  0.001655704    1.267    0.211
        27 -12.2614     77.0564    160.9124   1.0069999021e+02   3.2013773632e+01    0.4890382    0.4601727  40.47   0.00047437    1.134    0.118
        28 -15.8348      7.2968    246.4931   1.2462920144e+02   2.0973999975e+01     1.948037     1.920488  77.69   0.01650831    1.539    0.350
        29 -11.0615     28.9776    155.5105   1.1300470501e+02   3.9187782429e+01    0.2436431    0.1877239  67.08 0.0007415024    1.299    0.230
        30  -8.6717    151.7482    151.3561   7.9204880677e+01   2.0939126288e+01    0.1522259    0.1225257 -79.30 0.0006248454    1.604    0.377
        31 -10.8104    133.7216    144.3920   8.2107706124e+01   2.6129895580e+01     1.118834    0.2748786 -53.50  0.002559697    5.707    0.825
        32  -8.6364    112.4329    150.4893   8.9066617399e+01   2.8749398639e+01    0.1525983    0.1471424 -78.85 0.0001466079    1.043    0.041
        33 -10.1496    174.6669    148.9440   7.3380493243e+01   1.6828612086e+01     0.279973    0.2650585  27.09  0.000763434    1.084    0.077
        34 -11.4179     22.8290    146.6481   1.1361934423e+02   4.1951730766e+01    0.3879925    0.2332791  64.89  0.001623604    1.851    0.460
        35  -9.2830     35.0000    144.9799   1.0999054525e+02   4.1239097212e+01    0.2216663    0.1396734 -45.50 0.0009779846    1.660    0.398
        36 -10.2013     31.8476    143.1556   1.1063815207e+02   4.2005578261e+01    0.2916609    0.2314095  76.19  0.001065008    1.278    0.218
        37 -10.3146     98.5766    141.2152   9.0925398542e+01   3.3482546121e+01    0.3179514    0.2770976 -41.92 0.0007949471    1.149    0.130
        38  -9.4924    101.5126    137.9673   8.9384925616e+01   3.3766277587e+01    0.3383003    0.2216578 -32.84  0.001440837    1.812    0.448
        39 -12.4523     86.4949    139.6357   9.4063459946e+01   3.5894297697e+01    0.3133939    0.2690465 -44.02 0.0005136987    1.158    0.136
        40 -10.1368    197.8699    139.3526   6.6349365159e+01   1.4087723695e+01     0.303259    0.2104337 -60.60  0.001385865    1.808    0.447
        41  -9.8152     26.0898    134.6895   1.1114501881e+02   4.4657458661e+01    0.2569687    0.1717761  52.29  0.001007485    1.666    0.400
        42 -10.9537    107.6065    130.6826   8.5987905695e+01   3.4430466858e+01     0.614626    0.3708956  30.63  0.002554184    1.857    0.462
        43 -14.4376     16.6806    216.6845   1.2124087917e+02   2.6090548433e+01     1.379009    0.6911147  48.28  0.004799766    1.719    0.418
        44 -10.3080    135.2082    128.3452   7.7903178803e+01   2.9519151752e+01    0.4720753    0.2941386 -41.92  0.001991173    1.588    0.370
        45  -9.5149    229.6823    165.3558   6.6115761386e+01   3.4432825907e+00    0.1312353    0.1059313 -64.50 0.0007045565    1.750    0.429
        46  -9.6533    160.9833    127.9918   7.1494329013e+01   2.4124267917e+01    0.2532765    0.1984114 -81.43  0.001142757    1.715    0.417
        47 -10.3663     97.1983    125.9074   8.7878168011e+01   3.7476164387e+01    0.3370524    0.2684417 -17.35  0.001613723    1.496    0.331
        48  -9.4659    116.0209    124.4882   8.2113622798e+01   3.4296337584e+01    0.2130578    0.1403484  11.32 0.0008076599    2.366    0.577
        49  -9.1419    163.4033    121.1854   6.9237737070e+01   2.5039581253e+01    0.2185296    0.1430569 -52.47 0.0005016122    1.608    0.378
        50  -9.6573    135.0000    119.9288   7.5829308913e+01   3.1461470428e+01    0.2632512   0.08844277 -45.48 0.0007976809    2.910    0.656
        51  -9.8770    106.6371    119.0604   8.3431441033e+01   3.7386103722e+01    0.2227815    0.2068703  51.25 0.0002755262    1.134    0.118
        52  -8.6059    120.5235    165.5457   9.0008650197e+01   2.3680588560e+01    0.1502186     0.145249  73.46 0.0001312383    1.048    0.046
        53  -9.0471    168.0216    112.8530   6.6081363836e+01   2.5738049935e+01    0.2583326     0.185375  86.60  0.001076911    2.103    0.525
        54 -12.8263    246.5339    107.5994   5.1120811589e+01   1.0390713282e+01    0.8562171    0.5029392 -20.24  0.003938978    2.298    0.565
        55 -13.3608    243.6726     97.6985   4.9362019919e+01   1.2546489951e+01      1.03914    0.3570347 -35.71  0.004004566    2.656    0.623
        56 -10.1901    205.2500    110.2742   5.8124094528e+01   1.8094949713e+01    0.3343189    0.2460745  33.16  0.001145249    1.624    0.384
        57  -9.8332     30.3427    107.9244   1.0547737759e+02   5.0941169942e+01    0.2098592    0.1822705  45.00 0.0005835118    1.339    0.253
        58  -9.5544    134.6036    106.1926   7.2280293857e+01   3.4557230415e+01     0.227313    0.1465971 -33.35 0.0005100411    1.657    0.396
        59 -11.8190     23.3293    156.0195   1.1456665087e+02   3.9581938374e+01    0.4669189    0.3260692  62.92  0.002593342    1.459    0.315
        60 -10.5588     52.9855     90.9682   9.3677275980e+01   5.2587748748e+01    0.2240761    0.1930231 -42.43  0.000717251    1.032    0.031
        61 -10.7042     32.3877    155.8155   1.1212578226e+02   3.8781730491e+01    0.2948585    0.1853705 -49.31 0.0009361928    1.640    0.390
        62  -8.8313    152.2896     83.7131   6.1649929701e+01   3.5037456703e+01    0.1495603    0.1188043 -76.94 0.0001934044    1.537    0.349
        63  -9.2473     71.8989     82.9239   8.4618630703e+01   5.1712477618e+01    0.2130359    0.1772703  80.05 0.0007540435    1.693    0.409
        64  -9.6155    160.2781     82.5886   5.9591494254e+01   3.3365865780e+01    0.2087678    0.1398754  43.42 0.0005950974    1.568    0.362
        65 -11.1689    243.4854     78.0080   4.5107024632e+01   1.5707464737e+01    0.1903158    0.1707209 -82.75  0.000458084    1.168    0.144
        66  -8.7491     89.6920     65.3021   7.2850493845e+01   5.2133264589e+01    0.1356754    0.1174963 -86.90 0.0002661388    1.602    0.376
        67 -10.0032     47.2000     61.9670   8.7403279285e+01   5.9586895785e+01     0.203958    0.1773237   3.25 0.0004104263    1.139    0.122
        68 -10.8406     13.5129     59.9608   1.0125488459e+02   6.3262975060e+01    0.2517004     0.200761 -58.29 0.0004332612    1.251    0.201
        69  -9.3517    149.2623    187.4320   8.7219296805e+01   1.3548012777e+01    0.2130722    0.1317725  47.94 0.0009523277    1.700    0.412
        70 -10.0624    207.4940    193.5059   7.5924193301e+01   2.2078705213e+00    0.1365182    0.1197905  -5.60 0.0008104966    1.026    0.025
        71 -13.5418    198.0943     44.9372   4.3050978846e+01   3.0342123788e+01     1.105347    0.7087952  73.37  0.001248636    1.550    0.355
        72 -10.5588    136.0798     42.3096   5.2579472020e+01   4.5565715010e+01    0.2542536    0.2147461 -70.20 0.0004607722    1.343    0.256
        73  -9.7346    135.7021     34.1889   5.0035142790e+01   4.6700445485e+01    0.2522303    0.1923367 -89.14  0.001246249    1.538    0.350
        74 -12.5004    216.1729     30.2869   3.7478081725e+01   2.8140279624e+01    0.4425347    0.3589831  42.19  0.001076156    1.616    0.381
        75  -9.7030    189.7682     14.8933   3.6532130301e+01   3.5899674032e+01    0.1821944    0.1666234  65.60 0.0007259327    1.208    0.172
        76  -9.6784     90.5714    213.5666   1.0500258256e+02   1.7636968655e+01    0.2565927    0.1532212  66.10 0.0009662207    2.008    0.502
        77  -9.6459    112.4807    205.6698   9.8885300885e+01   1.5950975420e+01    0.2387441    0.1209471  36.99  0.000517999    1.842    0.457
        78 -10.4100    107.8614    203.9761   9.9709938033e+01   1.7059618640e+01    0.2108275     0.192855  62.04 0.0006285474    1.047    0.045
        79 -11.4132    193.5697    195.6837   7.9127924502e+01   4.1328809044e+00       0.8378    0.4632652 -63.22  0.002845632    4.545    0.780
