#   1 NUMBER                 Running object number                                     
#   2 MAG_AUTO               Kron-like elliptical aperture magnitude                    [mag]
#   3 X_IMAGE                Object position along x                                    [pixel]
#   4 Y_IMAGE                Object position along y                                    [pixel]
#   5 X_WORLD                Barycenter position along world x axis                     [deg]
#   6 Y_WORLD                Barycenter position along world y axis                     [deg]
#   7 A_WORLD                Profile RMS along major axis (world units)                 [deg]
#   8 B_WORLD                Profile RMS along minor axis (world units)                 [deg]
#   9 THETA_WORLD            Position angle (CCW/world-x)                               [deg]
#  10 FWHM_WORLD             FWHM assuming a gaussian core                              [deg]
#  11 ELONGATION             A_IMAGE/B_IMAGE                                           
#  12 ELLIPTICITY            1 - B_IMAGE/A_IMAGE                                       
         1 -16.3597    222.5225     97.4696   8.4303444328e+01   1.7724867144e+01     2.550673     1.036786 -41.70   0.01018857    2.591    0.614
         2 -16.4135    246.1070     71.4291   7.4807427054e+01   1.6574151284e+01     2.277194    0.6344383 -28.40  0.008492189    2.950    0.661
         3 -15.6289    230.3712      4.1851   5.9556608565e+01   2.7042399892e+01     1.648705    0.8600067 -68.29  0.008266591    2.117    0.528
         4 -15.7261    226.4142     24.3166   6.5011986386e+01   2.5983551128e+01     1.022273    0.6735271 -49.52  0.005681769    1.438    0.304
         5 -15.9707    238.0474     23.2841   6.3778142772e+01   2.3603986584e+01     1.191753    0.8934528 -11.99  0.007220931    1.380    0.275
         6 -13.0931     14.6605    248.6662   1.4988902466e+02   2.2573681492e+01     0.316752    0.1227206  46.25  0.002131087    1.692    0.409
         7 -15.1203    249.0572    233.7782   1.0657269634e+02  -2.7795562653e+00    0.5438609    0.2699825 -30.19  0.003586644    2.220    0.550
         8 -14.3664    248.6260    249.1772   1.0884791286e+02  -4.0902244244e+00    0.3403518    0.2446422  10.17  0.002855355    1.221    0.181
         9 -14.9120    174.2963    246.0396   1.2074361214e+02   5.0222580645e+00    0.7837121    0.5789424  23.77  0.005974239    1.052    0.050
        10 -15.8419     18.5118    144.2862   1.4435673682e+02   4.2113278425e+01     1.299885     0.894049 -57.13  0.008037646    1.538    0.350
        11 -14.8154     92.7900    230.2903   1.3442252851e+02   1.7450499661e+01     1.031623    0.6642836  86.30  0.006578297    2.170    0.539
        12 -16.4423     77.5445    164.7077   1.3097087883e+02   3.1440428917e+01     2.067878     1.637717 -22.15   0.01211379    1.643    0.391
        13 -16.3187     60.1409    157.9370   1.3461322871e+02   3.5037899233e+01     2.320554     1.031368 -41.67  0.009335235    3.433    0.709
        14 -18.0661    117.7712    200.8659   1.2618607648e+02   1.9027743618e+01     5.347372     3.506967  70.04   0.02870858    2.317    0.568
        15 -15.0087    209.3696    205.8329   1.0880688300e+02   5.1418009554e+00    0.8195727    0.4176931 -11.13  0.004140384    2.525    0.604
        16 -11.3096     16.4744    206.4254   1.4814078955e+02   2.9494579879e+01    0.1030723   0.08342893  58.77 0.0003641332    1.071    0.066
        17 -15.7885    197.8805    195.5587   1.0919770562e+02   8.0709568835e+00     1.072381    0.6124636  32.11  0.006154975    1.499    0.333
        18 -16.7609     71.2634    205.5616   1.3669390556e+02   2.4174868967e+01     1.962463     1.533103  19.33   0.01337766    1.427    0.299
        19 -15.6172     82.7011    244.8896   1.3750687948e+02   1.6404231339e+01     1.716735     0.618232  50.68  0.008853939    2.656    0.623
        20 -14.7546    145.3835    185.1058   1.1800002401e+02   1.7628710488e+01    0.8153099    0.4511656 -43.25  0.004220063    2.028    0.507
        21 -14.7318    223.7544    184.6221   1.0267928031e+02   5.7001504160e+00    0.5603425     0.310023 -21.26  0.003177686    1.721    0.419
        22 -16.0212    201.2939    180.3654   1.0592140984e+02   9.6034072766e+00    0.8399038    0.6527361  39.54   0.00527072    1.474    0.322
        23 -16.2700    247.3965    200.3848   1.0154251739e+02   7.0329657706e-01     1.720744    0.5353893 -27.34  0.008060724    3.101    0.678
        24 -14.7186    147.4759    164.9450   1.1413582426e+02   2.0784226830e+01    0.7993956    0.6179493 -64.47  0.004387705    1.773    0.436
        25 -12.2551     64.8218    184.8512   1.3625892014e+02   2.8855415999e+01    0.1682503    0.1622188  31.82 0.0007161253    1.190    0.160
        26 -14.2130    136.7382    157.8035   1.1530035628e+02   2.3900245294e+01    0.5725241    0.5230325 -85.43  0.002730087    1.371    0.271
        27 -16.2312    239.9919    139.3736   9.1135029123e+01   8.9594391287e+00       1.9429     1.016164 -23.74   0.01009727    1.685    0.406
        28 -13.8001    195.6240    147.5442   1.0057354072e+02   1.5325719543e+01    0.2624364     0.206567 -11.02  0.001517613    1.164    0.141
        29 -14.5351    152.5840    140.2468   1.0810565074e+02   2.4400318863e+01    0.7299932    0.4943984  45.00  0.003412331    1.505    0.336
        30 -13.6004    145.6234    133.4379   1.0826123723e+02   2.6986326555e+01    0.5467058     0.395575 -25.43  0.002729255    1.491    0.329
        31 -13.7860    198.7015    137.7267   9.7866689465e+01   1.6286039083e+01    0.2604685    0.1971469   2.25  0.001439514    1.275    0.216
        32 -15.9465     72.1940    126.9572   1.2690392997e+02   4.0619387989e+01     1.458888    0.8828133 -16.78   0.00592349    2.986    0.665
        33 -14.2250     84.4587    123.5638   1.2263758238e+02   3.9675542413e+01     1.116379    0.6297497 -77.90  0.004483734    2.625    0.619
        34 -14.9695    111.4028    120.9790   1.1432814294e+02   3.5850601596e+01     1.241829    0.9174706 -46.75  0.006249539    1.364    0.267
        35 -15.0450    127.2163    115.2219   1.0868089336e+02   3.4155020165e+01     1.316384    0.7386558  47.02  0.004767044    1.862    0.463
        36 -12.0184     69.6731    249.1107   1.4018800955e+02   1.7213583293e+01    0.1525924    0.1043653  50.36 0.0006762682    1.166    0.142
        37 -14.6483    111.8778     93.8409   1.0742491580e+02   4.1676892470e+01      0.84404    0.6092823 -57.88   0.00394698    1.561    0.359
        38 -13.1444     18.8139     94.2113   1.3948285286e+02   5.4080538969e+01    0.5229646     0.231838 -45.17  0.002364695    2.343    0.573
        39 -19.4935     43.1909    145.6053   1.3778506056e+02   3.9643200326e+01     18.19547     1.833318 -70.22    0.0428444    8.519    0.883
        40 -15.6072     72.0389     96.5602   1.2089942355e+02   4.7895057400e+01    0.8883396    0.5777082 -31.27  0.004091527    1.844    0.458
        41 -12.9053     80.2247    222.5556   1.3626524130e+02   2.0185729527e+01    0.2880829    0.1618192  41.19  0.001217282    1.393    0.282
        42 -14.8035    197.4507    209.4248   1.1151335510e+02   6.3538647513e+00     0.573509    0.4607076 -28.73  0.003220671    1.500    0.333
        43 -13.2788     90.1510    216.2457   1.3368976252e+02   2.0046919041e+01    0.6421121    0.2898227  54.43  0.003199134    2.488    0.598
