#   1 NUMBER                 Running object number                                     
#   2 MAG_AUTO               Kron-like elliptical aperture magnitude                    [mag]
#   3 X_IMAGE                Object position along x                                    [pixel]
#   4 Y_IMAGE                Object position along y                                    [pixel]
#   5 X_WORLD                Barycenter position along world x axis                     [deg]
#   6 Y_WORLD                Barycenter position along world y axis                     [deg]
#   7 A_WORLD                Profile RMS along major axis (world units)                 [deg]
#   8 B_WORLD                Profile RMS along minor axis (world units)                 [deg]
#   9 THETA_WORLD            Position angle (CCW/world-x)                               [deg]
#  10 FWHM_WORLD             FWHM assuming a gaussian core                              [deg]
#  11 ELONGATION             A_IMAGE/B_IMAGE                                           
#  12 ELLIPTICITY            1 - B_IMAGE/A_IMAGE                                       
         1 -12.8652     24.1816     37.7295   4.0244952829e+01   7.0153649341e+01    0.8997951    0.4739693  54.15  0.002855511    3.029    0.670
         2 -12.0989      5.3281     21.3391   4.7148219380e+01   7.5622624611e+01     0.967765    0.7170604 -57.71  0.005149395    1.443    0.307
         3  -9.7392    177.7979      3.3082   3.4658107355e+02   4.0310026572e+01    0.2835274    0.1576438 -59.06  0.001636678    1.460    0.315
         4  -9.7574     44.4935    236.2490   6.5122596423e+01   1.7760688350e+01    0.2225507    0.2065748 -26.86 0.0004429312    1.326    0.246
         5 -18.8478    219.0677    173.9043   1.8922218983e+01   7.6440501744e+00     4.367625     3.789831 -23.96   0.01471164    1.154    0.134
         6  -8.3866      6.7889    184.3220   7.1981924892e+01   3.3222121360e+01    0.2124628     0.170724   5.84 0.0006800655    1.449    0.310
         7  -7.8817     99.4113    180.7619   4.5088578438e+01   2.3317607440e+01    0.1947508    0.1299578 -45.65 0.0006985748    1.581    0.367
         8  -8.5373    247.8561    235.4321   2.4239945486e+01  -3.5835327483e+00    0.1280536   0.09337419  11.87  0.001069496    1.415    0.293
         9  -9.3400    246.1949    224.7296   2.2953509128e+01  -2.1573293704e+00    0.2285403     0.173321 -47.16  0.001734872    2.088    0.521
        10 -10.6627    127.8116    167.9997   3.5689701885e+01   2.1845915378e+01    0.3749592     0.222877 -51.92  0.001739859    1.697    0.411
        11  -9.0815    183.4595    233.9634   3.4435147437e+01   2.5506175284e+00    0.3025736    0.2047179  49.40  0.001574415    2.585    0.613
        12  -8.5087    139.0194    234.4971   4.3241180949e+01   7.3751856984e+00    0.1694742    0.1465457 -20.80 -0.0002762504    1.185    0.156
        13 -11.0388    114.2773    156.7522   3.7043995257e+01   2.6581005979e+01    0.6486179     0.359746  34.57  0.002087307    1.799    0.444
        14  -8.8607    122.8689    219.7661   4.4859430025e+01   1.1943205845e+01    0.2358888    0.1640023 -45.57 0.0007845442    1.543    0.352
        15  -9.9013    247.2088    218.3913   2.1886338894e+01  -1.4586064425e+00     0.193324    0.1199954 -21.38 0.0004588091    1.189    0.159
        16  -9.8684     68.2553    143.9816   4.8305970603e+01   3.7138345314e+01    0.6739247    0.3723397  55.86  0.002265308    2.124    0.529
        17  -9.6815    139.8369    217.5142   4.0797448264e+01   1.0236643737e+01    0.3199386    0.2239614 -77.70   0.00166771    2.495    0.599
        18  -9.6957    106.2222    130.4928   3.3898348056e+01   3.4222441062e+01    0.4288642    0.3561843 -50.78  0.002165588    1.192    0.161
        19  -8.3203     64.6689    132.0453   4.7380000874e+01   4.0858090255e+01    0.2545878    0.1956519  44.80 0.0003176352    1.281    0.219
        20  -9.9341    117.8439    129.3295   3.0441440188e+01   3.2334313843e+01    0.4586231     0.294091 -37.47  0.001639834    1.722    0.419
        21 -10.8600    122.7334    127.4145   2.8728271504e+01   3.1848250095e+01    0.6202193    0.4534657  46.18   0.00209662    1.407    0.289
        22  -8.1077     51.0604    235.4940   6.3500712296e+01   1.7236899488e+01    0.1918745    0.1048292  28.62  0.000588609    1.516    0.340
        23  -8.1068    119.7158    212.3602   4.4595180169e+01   1.3766013232e+01    0.1915793    0.1430734  56.67 0.0005985422    1.673    0.402
        24 -10.6988    120.2877    104.7904   2.3867996409e+01   3.7399152365e+01    0.4099886    0.3349998  66.04  0.002063534    1.304    0.233
        25  -8.0912     94.9909    105.0210   3.1155411050e+01   4.2492149198e+01    0.2198683    0.2093883  87.45   0.00115976    1.027    0.027
        26  -8.3027     42.1326    109.1751   5.1510214562e+01   5.0216574377e+01     0.209895    0.1976569 -30.07 0.0003325917    1.132    0.117
        27  -9.3528    136.9611     97.0081   1.7809321343e+01   3.5525891742e+01    0.2184033    0.2048475 -67.17 0.0003539296    1.010    0.010
        28  -8.7994    113.1359     93.3816   2.2705497218e+01   4.1390440564e+01    0.3592559    0.2109933 -49.51  0.001531225    1.672    0.402
        29  -8.0885    105.1620     95.1271   2.5424150749e+01   4.2702288263e+01    0.2241577    0.2129176  -9.12 0.0005119394    1.206    0.171
        30  -7.9421    117.2479    210.0255   4.4854400773e+01   1.4547757843e+01    0.1717873    0.1631211  -3.28 0.0003212051    1.089    0.082
        31  -8.8509    162.7346     91.5476   1.1251359815e+01   3.1153699629e+01    0.2217478    0.1543052 -50.51 0.0004753002    1.306    0.235
        32 -11.9306     72.9103     72.7010   2.9308951430e+01   5.4368144126e+01    0.7981859     0.711211  64.85  0.000727441    1.141    0.124
        33 -10.8732     84.5438     87.2643   2.9660409709e+01   4.8746662006e+01    0.5609446    0.5344232  85.98  0.001436213    1.027    0.027
        34 -12.4972     81.8296     78.5823   2.7954811723e+01   5.1262872364e+01     1.605395     1.074255  57.61  0.006738421    1.613    0.380
        35 -15.1101    191.8879    192.2211   2.6535456002e+01   8.0735792220e+00     1.041195    0.6965456 -60.53  0.005688462    2.361    0.577
        36 -10.5829    176.0210     88.4579   8.2697102657e+00   2.8999583172e+01    0.4787996    0.2111143  49.16  0.001452117    2.627    0.619
        37  -9.5653     96.1086    241.8833   5.3505658115e+01   1.1025943126e+01    0.2507792    0.2040821  69.60 0.0007662604    1.537    0.350
        38  -9.6880    206.1391     84.3932   3.1600975109e+00   2.3931275245e+01    0.2430976    0.2062248 -78.07 0.0009815519    1.235    0.190
        39  -8.5156    164.6437     84.8991   9.2583475471e+00   3.1944867836e+01    0.2101199    0.1849667  55.29 0.0003154228    1.276    0.216
        40  -8.4743    235.5067    241.1911   2.6836914216e+01  -3.2658567081e+00    0.1235478   0.07639299 -26.98 0.0002721799    1.295    0.228
        41  -8.6794    156.8266     82.1960   9.9329047306e+00   3.4078605539e+01    0.2355534    0.2160303  -6.10   0.00060553    1.373    0.272
        42  -9.5247     11.1871    206.3544   7.1805258539e+01   2.7499986954e+01    0.3646721    0.1659121  42.80  0.001750845    1.760    0.432
        43  -9.2204    180.0314     82.0189   6.1128963845e+00   2.9284082370e+01    0.2069117    0.1781744 -54.36 0.0003940664    1.023    0.022
        44  -9.8755    185.0479     77.1528   4.2360982246e+00   2.9074968930e+01    0.3086953     0.300264  71.94  0.001891648    1.242    0.195
        45  -8.6033    181.0988     76.7399   4.6879645650e+00   2.9934348540e+01    0.2244865     0.155114 -52.11  0.001234085    1.260    0.207
        46  -9.4763    108.6039     75.4650   1.8683339261e+01   4.6114417988e+01    0.4417107    0.3271139  -1.18  0.001594564    2.285    0.562
        47  -8.2582     57.5929    240.4026   6.2303170027e+01   1.5564188688e+01    0.2152225    0.1218063 -84.64  0.001133932    2.232    0.552
        48 -12.4194     56.3582     62.9102   3.2760956001e+01   5.9679578351e+01     1.058246      1.00374 -29.64  0.003870841    1.089    0.082
        49  -8.7589    158.1159     64.0194   4.8931448855e+00   3.6883761955e+01    0.2133755    0.1856142  88.61 0.0003421759    1.121    0.108
        50  -7.5528    154.3472     63.3108   5.3104357870e+00   3.7841128374e+01    0.1332185    0.1107382  23.66 0.0007045498    1.710    0.415
        51  -8.2939    158.2719     60.1416   3.8175730812e+00   3.7466686078e+01    0.3390585     0.199017  42.80  0.001534822    2.334    0.572
        52 -10.5233    233.1516     58.0581   3.5488515283e+02   2.2987108013e+01     0.339693    0.1803974 -48.66 0.0009418894    1.417    0.294
        53  -9.1403     68.6951    195.7501   5.5394998492e+01   2.3976113591e+01    0.2908576    0.2403913 -11.14  0.001605463    1.419    0.295
        54  -7.9155     13.2077     59.8400   5.4877816140e+01   6.6269849535e+01    0.1936872    0.1453757 -33.57 0.0003823248    1.311    0.237
        55  -7.9686     70.0038     46.9767   2.0945610026e+01   6.0161747455e+01    0.2075251    0.1697266  14.94 -0.003769674    1.503    0.335
        56  -8.2945    171.4466     44.3514   3.5779221382e+02   3.6868286259e+01    0.3180348    0.1737158  53.07  0.001556394    2.174    0.540
        57  -9.0345    159.1116    248.0346   4.0894517465e+01   3.0192547293e+00    0.1805507    0.1339651  14.97 0.0003885598    1.117    0.105
        58 -10.8247    213.1568    245.3883   3.0895988838e+01  -1.8694278451e+00    0.4538715    0.2441033  13.10  0.002242652    1.684    0.406
        59  -8.1067     92.8504     39.1857   1.0388172011e+01   5.6238729766e+01     0.202621    0.1798717 -86.50 0.0002796063    1.113    0.102
        60  -8.1999    207.8894     36.3665   3.5229827436e+02   3.0369843435e+01    0.1730989    0.1580195 -16.55 0.0005266499    1.518    0.341
        61  -8.6319     77.0417     36.6864   1.4127964227e+01   6.0331665330e+01    0.2212823    0.1963126 -42.41 0.0005480097    1.204    0.170
        62  -9.4025    114.9181    193.6173   4.3074553550e+01   1.8241003618e+01    0.2289632    0.1884266 -32.55  0.001107224    1.267    0.211
        63  -7.9122    198.3408     23.3097   3.5004180882e+02   3.3838794426e+01    0.1053924   0.09220291  40.29 0.0007044607    1.692    0.409
        64  -7.9937     93.2986     22.4659   3.5445250493e+00   5.8426676358e+01    0.1812453    0.1233262  79.97 0.0007753258    1.469    0.319
        65  -9.3465    206.4301     19.6672   3.4865863561e+02   3.2643236486e+01    0.1926846    0.1359655 -32.61  0.001250535    1.496    0.331
        66  -8.7003    189.9755     14.4992   3.4854565054e+02   3.6553383176e+01    0.1729504    0.1050483  84.48 0.0007311377    1.570    0.363
        67  -8.2410     46.8434     13.1893   1.4123917923e+01   7.0327236920e+01    0.1814263    0.1422657  26.88 0.0005652678    1.319    0.242
