#   1 NUMBER                 Running object number                                     
#   2 MAG_AUTO               Kron-like elliptical aperture magnitude                    [mag]
#   3 X_IMAGE                Object position along x                                    [pixel]
#   4 Y_IMAGE                Object position along y                                    [pixel]
#   5 X_WORLD                Barycenter position along world x axis                     [deg]
#   6 Y_WORLD                Barycenter position along world y axis                     [deg]
#   7 A_WORLD                Profile RMS along major axis (world units)                 [deg]
#   8 B_WORLD                Profile RMS along minor axis (world units)                 [deg]
#   9 THETA_WORLD            Position angle (CCW/world-x)                               [deg]
#  10 FWHM_WORLD             FWHM assuming a gaussian core                              [deg]
#  11 ELONGATION             A_IMAGE/B_IMAGE                                           
#  12 ELLIPTICITY            1 - B_IMAGE/A_IMAGE                                       
         1 -13.8370    242.3332     56.2862   3.5677532493e+02   2.1046007225e+01     1.338753     1.104322  33.22  0.009437256    1.815    0.449
         2 -12.9733      2.8039     23.3344   5.4538488902e+01   7.5319180535e+01    0.8669372    0.5956867 -62.57  0.005020496    1.505    0.336
         3 -13.3016      2.8992      8.3674   4.6414688435e+01   7.8297348842e+01      1.18591    0.9133232 -57.98  0.007502486    1.524    0.344
         4  -8.9395    108.2798      8.0017   3.5780385862e+02   5.6451396600e+01    0.1540939    0.1195959 -27.59 0.0007134268    1.418    0.295
         5  -9.3903     60.2798     21.1584   1.6614134026e+01   6.6621835396e+01    0.2316617    0.1667181  42.61 0.0005021998    1.304    0.233
         6 -11.7041     29.8679    249.0439   7.3211308552e+01   1.7345744044e+01    0.5244294    0.2760626  20.72  0.002951287    1.837    0.456
         7 -12.7899     35.0492    158.9437   6.5609880452e+01   3.7330059745e+01     1.101343     0.714604  -3.41  0.001219049    2.089    0.521
         8 -11.7205     43.0298    154.7292   6.2599224549e+01   3.7582797420e+01    0.3713091    0.3035273 -16.90 0.0006625984    1.492    0.330
         9 -13.4668     12.9418    242.3691   7.6614607123e+01   2.0152503681e+01     1.350833     1.020188 -77.37  0.006343234    1.533    0.348
        10 -14.1984      4.6401    241.4573   7.8381158000e+01   2.1033809001e+01     15.96951    0.5197154 -82.28   0.02490283   29.906    0.967
        11  -8.7950     93.6712    244.3083   5.8816529702e+01   1.1457143136e+01    0.1246563   0.07735793  49.31 0.0004922276    1.660    0.398
        12 -10.5622    132.0117    231.2801   4.9016307714e+01   9.1453544027e+00    0.1821439    0.1430766  19.69  0.001179148    1.066    0.062
        13  -9.8983     76.9068    229.7682   6.1249482755e+01   1.6089167452e+01    0.2262581    0.1759637 -80.23 0.0009629972    1.534    0.348
        14 -10.0358     73.3992    227.8259   6.1893954376e+01   1.6877226316e+01    0.2434256    0.1673722 -21.31  0.001329848    1.988    0.497
        15  -9.3278    155.0000    229.4438   4.3989299911e+01   6.6575108461e+00    0.2392428   0.06638478 -48.58  0.000939314    3.972    0.748
        16 -10.0648     71.0598    241.4677   6.3601203605e+01   1.4526493570e+01    0.1722966    0.1577456  85.72 0.0008621307    1.275    0.216
        17 -11.6185     75.1214    220.2812   6.0775115862e+01   1.8191301494e+01    0.5943115    0.1665325  40.74   0.00225167    2.915    0.657
        18 -15.0843     18.3397    170.3000   7.1701719732e+01   3.5953598078e+01     6.716561     1.904847  81.68   0.01638733    6.992    0.857
        19 -10.2254    140.3505    205.2508   4.3606616765e+01   1.2671655180e+01    0.3596733    0.2481714 -66.22  0.001350632    2.082    0.520
        20  -8.4132    170.5756    195.5530   3.5698782006e+01   1.0276379458e+01    0.1262559    0.1083647  -5.33 9.951098e-05    1.016    0.016
        21 -11.2196     71.4394    186.1285   5.8006241831e+01   2.6175217995e+01    0.3810314    0.2252001  85.06  0.001659002    2.309    0.567
        22 -14.4404      7.1821    172.6407   7.5106457063e+01   3.6259888364e+01     2.731991     1.249306 -66.26     0.012463    2.139    0.533
        23 -10.6304    111.9449    244.3325   5.4844262172e+01   9.3384029164e+00    0.2100272    0.1731078 -49.23 0.0005643767    1.461    0.315
        24 -11.4098     76.3022    183.3648   5.6327823294e+01   2.6188312569e+01    0.6160188    0.2856218  61.48  0.002105094    3.548    0.718
        25 -10.8238     98.9491    181.2804   4.9943007937e+01   2.3497624928e+01    0.3241743    0.2462718  30.01 0.0007038889    1.243    0.195
        26  -8.5139    146.0000    174.0485   3.7168830777e+01   1.7844329235e+01    0.2180914   0.07618068 -48.40 0.0005517748    2.869    0.651
        27  -9.3465    127.5541    173.9413   4.1474685421e+01   2.0759549442e+01    0.2117411    0.1381102 -52.48 0.0007202476    1.604    0.376
        28 -12.6068     52.7036    116.1007   5.3212601911e+01   4.6846889431e+01     2.171476    0.6728556 -72.82  0.005038638    6.015    0.834
        29 -12.2007     72.1395    130.5507   4.9150471303e+01   4.0139867165e+01    0.4620255    0.4430975 -70.02 0.0004708511    1.033    0.032
        30 -13.2992     73.5500    158.6343   5.3614753957e+01   3.2642303683e+01     2.106001    0.7602584  44.53  0.007195591    2.820    0.645
        31 -13.9645     67.0511    143.2744   5.3155777602e+01   3.7547544511e+01     3.114783     1.475816  64.07  0.002795161    3.866    0.741
        32  -9.3544     72.2889    170.0723   5.5671942401e+01   2.9947966024e+01    0.2048307    0.1821656 -79.95 0.0005519141    1.156    0.135
        33  -8.9776    155.8918    169.1058   3.4067690315e+01   1.7263591811e+01    0.1935632    0.1785611 -57.01  0.000392566    1.268    0.211
        34 -12.4532    236.3139    159.3991   1.7989334530e+01   7.2964461408e+00    0.7309951     0.208548 -35.03  0.003051626    2.947    0.661
        35 -11.4765     57.0322    147.5147   5.7092076943e+01   3.7797269997e+01    0.4361024    0.3766969  22.05 0.0004121517    1.227    0.185
        36 -13.0125     41.1999    142.5758   6.1671466052e+01   4.1053246751e+01    0.5635148    0.3832753  -6.74  0.001420544    1.972    0.493
        37 -10.5258     28.1159    144.8255   6.6387500888e+01   4.1803432089e+01    0.2337846    0.1793128  58.43 0.0007721989    1.252    0.202
        38 -10.8389     85.4148    133.8035   4.5492550329e+01   3.7159986262e+01    0.4859672    0.3400894 -22.06  0.001427309    1.950    0.487
        39  -9.7230     89.4749    131.4982   4.3740416895e+01   3.7058649689e+01    0.2888684    0.1914925 -52.49 0.0006996373    1.490    0.329
        40  -9.0817    105.4149    130.6761   3.8775866032e+01   3.4432145543e+01     0.296405    0.1504261 -57.56  0.001127897    2.086    0.521
        41 -11.6679     20.3114    127.9498   6.7301335619e+01   4.7131874915e+01    0.6879576    0.2612368  55.96  0.002341339    3.188    0.686
        42  -9.3746    101.5714    125.9192   3.8823998591e+01   3.6288740244e+01    0.3014226    0.2216024  17.11  0.001266369    1.675    0.403
        43  -8.4210    110.6388    121.6841   3.5196144985e+01   3.5594434708e+01    0.1603459    0.1229481  -8.70  0.000704233    1.760    0.432
        44 -10.2078     87.3157    120.6476   4.2027121769e+01   4.0174354362e+01    0.2771146    0.2612137  34.06 0.0006358418    1.089    0.082
        45 -10.2615     30.9319    117.7902   6.1918679590e+01   4.8965618471e+01     0.270919    0.2414053 -30.02 0.0009471938    1.232    0.189
        46 -11.0027     45.6638    115.7811   5.5841988710e+01   4.7853763626e+01     0.364776    0.2687495  62.77  0.001033293    1.473    0.321
        47  -8.6008    183.5294    116.5587   1.7496363100e+01   2.2440910334e+01    0.1375645    0.1217791 -31.02 0.0001318447    1.056    0.053
        48  -9.2642    101.0330    115.3623   3.6467514490e+01   3.8945778894e+01    0.2106528    0.1902879  42.85 0.0004276439    1.124    0.110
        49  -9.4387    204.5181    110.8353   1.2840739463e+01   1.9645912494e+01    0.2519598    0.1649279  31.95  0.001325943    2.032    0.508
        50 -10.1234     28.6847    108.4611   6.1361269028e+01   5.1768446789e+01    0.4544084    0.2160902  75.82   0.00152498    3.267    0.694
        51  -9.8643     23.9781    105.0501   6.2788740211e+01   5.3152764742e+01    0.2272137    0.2095037 -65.89 0.0008153793    1.036    0.035
        52 -11.1413     52.4092     93.8940   4.8383086137e+01   5.2813892969e+01    0.6900897     0.160223 -58.83  0.001906926    3.936    0.746
        53  -8.4172     96.2796     92.3095   3.1735255198e+01   4.5328970066e+01    0.1522601    0.1240843 -11.90 0.0002721367    1.561    0.359
        54  -9.6475     31.0311     89.2300   5.6718913578e+01   5.6768039802e+01    0.2332008     0.200542 -71.62 0.0003729749    1.119    0.107
        55 -15.6887      8.7827    204.2699   7.6149511339e+01   2.8531315627e+01     6.905722     4.084151 -84.95   0.03847886    1.671    0.401
        56  -8.8303     19.4805     83.4747   6.1050902660e+01   5.9416454844e+01    0.1423453    0.1323518 -64.75 9.975881e-05    1.014    0.014
        57  -8.8712     70.4962     78.5141   3.6599053844e+01   5.3620995988e+01    0.1505952    0.1485502 -38.98 -9.795392e-05    1.017    0.016
        58  -8.3414    184.5054     77.4677   7.9193042114e+00   2.8932390952e+01    0.1360247     0.120708 -47.33 8.001034e-05    1.049    0.046
        59 -12.9451    224.9625     64.9719   1.4761392742e-01   2.2929449245e+01    0.8191265     0.781774  80.84  0.006016655    1.300    0.231
        60 -10.4048     57.8983    247.8746   6.7010893664e+01   1.4763653907e+01    0.2556318    0.1771419 -71.12  0.001648457    1.733    0.423
        61  -9.2302     21.8819     71.7445   5.7252935358e+01   6.2286487531e+01    0.2757317    0.1753222  74.83  0.001224355    2.115    0.527
        62  -8.5250     82.6699     67.6743   2.8388572166e+01   5.3601750281e+01    0.1546718    0.1217711   1.03 0.0007050656    1.704    0.413
        63 -10.2798     64.3772     65.9319   3.4823849107e+01   5.7630708993e+01    0.3453021    0.2666025 -75.92  0.001064802    1.622    0.383
        64  -9.4051    123.3658     61.9135   1.4630230836e+01   4.5401044827e+01    0.4871118    0.2062829 -55.98  0.001533312    3.539    0.717
        65 -11.1404     13.3961     60.4187   5.9205203721e+01   6.5896038252e+01    0.3310495    0.2495152 -60.72 0.0005336374    1.221    0.181
        66  -8.7214     82.9956     61.7469   2.6131966850e+01   5.4746592911e+01    0.1898044    0.1271067  47.41  0.000327495    1.478    0.323
        67 -11.8623     12.3236     48.9035   5.6669309045e+01   6.8804866094e+01    0.3577358     0.322851  64.92  0.001836278    1.299    0.230
        68 -11.9274      2.3795     38.5746   6.0464134579e+01   7.1940488951e+01    0.6574526    0.2240803 -64.88  0.002670871    2.587    0.613
        69  -9.5279    115.1116     39.0528   8.5298403827e+00   5.1065951915e+01    0.2124761    0.1971813 -84.43 0.0003070744    1.020    0.019
        70 -11.1005    211.3447    246.4812   3.5991900304e+01  -1.8153020108e+00    0.3450325    0.1608593 -37.77  0.002131642    2.126    0.530
        71  -9.7703    132.1818    247.7947   5.0969061432e+01   6.4392036780e+00    0.1920246    0.1116878  55.29 0.0009608462    2.914    0.657
        72  -8.7929    189.4397     15.2157   3.5139499017e+02   3.6243881848e+01    0.1779054   0.09011415 -44.49 0.0006658554    1.608    0.378
        73 -11.0116     50.9675    243.9456   6.8289806164e+01   1.6216819810e+01    0.4847613    0.1761813 -75.05  0.002137229    3.374    0.704
