#   1 NUMBER                 Running object number                                     
#   2 MAG_AUTO               Kron-like elliptical aperture magnitude                    [mag]
#   3 X_IMAGE                Object position along x                                    [pixel]
#   4 Y_IMAGE                Object position along y                                    [pixel]
#   5 X_WORLD                Barycenter position along world x axis                     [deg]
#   6 Y_WORLD                Barycenter position along world y axis                     [deg]
#   7 A_WORLD                Profile RMS along major axis (world units)                 [deg]
#   8 B_WORLD                Profile RMS along minor axis (world units)                 [deg]
#   9 THETA_WORLD            Position angle (CCW/world-x)                               [deg]
#  10 FWHM_WORLD             FWHM assuming a gaussian core                              [deg]
#  11 ELONGATION             A_IMAGE/B_IMAGE                                           
#  12 ELLIPTICITY            1 - B_IMAGE/A_IMAGE                                       
         1 -13.6744    203.9335     60.7816   6.0479871057e-01   2.7711961856e+01     1.450037    0.6047942 -30.88  0.006371972    2.413    0.586
         2 -13.7526    247.2757     36.6808   3.5176156657e+02   2.2902604740e+01      1.67807    0.4973967 -32.71  0.007738184    2.783    0.641
         3 -13.4912    231.6441     31.2147   3.5162141769e+02   2.6254671462e+01    0.9448631    0.7357191 -35.62  0.005915934    1.292    0.226
         4 -14.0039    239.8558     66.7316   3.5840363626e+02   2.0401408595e+01     1.231432     1.172863 -44.80  0.009626835    1.285    0.222
         5 -14.4034    175.1248     43.6267   3.5959940330e+02   3.6130879414e+01      3.23579     2.163751  50.00   0.01740956    1.804    0.446
         6 -13.7914     65.6780     55.5916   2.9525177831e+01   5.9506756588e+01     1.211864    0.7213624 -53.90  0.005348392    1.863    0.463
         7 -11.2970     13.7250     26.9019   4.6401717900e+01   7.3469003048e+01    0.4351855     0.350067 -60.99  0.002625358    1.406    0.289
         8 -12.3063    245.2825      8.9618   3.4636494391e+02   2.6269505936e+01    0.5396486    0.2943379 -66.50  0.003075879    1.546    0.353
         9 -12.7618    142.4832     41.6915   3.5986502761e+00   4.3987701243e+01     2.854119      1.38702 -79.02  0.009543905    3.887    0.743
        10 -10.5799    247.2766      1.5866   3.4484928856e+02   2.6663970117e+01    0.1796517   0.08641624 -85.62  0.001127941    2.087    0.521
        11 -11.1994    188.5294    242.2910   3.8160250064e+01   1.2286048179e+00    0.3887869    0.1433401  24.17  0.001952943    2.497    0.599
        12 -11.7759    191.4965    237.6655   3.6990349152e+01   1.5484469009e+00    0.3015273    0.2770319 -32.01  0.002350128    1.590    0.371
        13 -11.9137    154.6314    241.6334   4.4489343193e+01   4.9929291615e+00    0.2883443    0.1929778  41.31  0.001793254    1.750    0.429
        14 -11.0417     83.7316    240.9051   5.9602365089e+01   1.3291315969e+01    0.2564501    0.2153815   9.91  0.001724607    1.201    0.167
        15  -9.8295     96.7514    236.9930   5.6284758048e+01   1.2507082724e+01    0.1426186    0.1075736 -59.90 0.0008891728    1.595    0.373
        16 -11.1109    154.9615    235.5133   4.3626782980e+01   5.8936104937e+00    0.2271561    0.1465721 -22.77  0.001377515    1.602    0.376
        17 -11.1634     42.9063    234.3895   6.8497048038e+01   1.8947551548e+01    0.2270034    0.1837128 -70.79  0.001509456    1.442    0.307
        18 -11.2464    133.6840    232.6259   4.7656009867e+01   8.8706212406e+00    0.2774804    0.1442979 -47.56  0.001485883    2.126    0.530
        19 -10.4065     80.5833    231.7545   5.9478749690e+01   1.5370229271e+01    0.1569868    0.1194187  85.35 0.0009486727    1.632    0.387
        20 -10.5479    138.8868    230.8942   4.6331020519e+01   8.5349934374e+00    0.1975129     0.148772  -1.79  0.001248291    1.273    0.214
        21 -10.3997     38.4996    229.9443   6.9257253422e+01   2.0287470472e+01    0.1704102    0.1183876 -84.92 0.0007139011    1.588    0.370
        22  -9.5407    152.4753    229.4602   4.3318751243e+01   7.1418241984e+00    0.1216757      0.09903   7.09 0.0001800755    1.009    0.008
        23 -11.6256    184.5347    223.6607   3.6246674975e+01   4.2966357849e+00    0.2755508    0.2128229   5.76  0.001608715    1.074    0.069
        24 -11.2534     42.2719    226.0163   6.8112206131e+01   2.0718184402e+01    0.3479452    0.1087626 -74.58  0.001397132    3.615    0.723
        25  -9.8820    148.6787    223.6728   4.3307914872e+01   8.5488196742e+00    0.1284164   0.08392341  -8.24 -0.0001323581    1.687    0.407
        26 -10.5624    167.9059    221.8583   3.9155518814e+01   6.5105794321e+00    0.1947117    0.1400377  -2.31  0.001229405    1.277    0.217
        27  -9.8000     69.6445    221.6873   6.1144867760e+01   1.8638411844e+01    0.1283796   0.09466991 -14.88 0.0007044409    1.736    0.424
        28 -11.4802    171.7206    214.1240   3.7257304759e+01   7.2780698084e+00    0.2779961    0.1609599 -43.95   0.00156583    1.810    0.448
        29 -10.1601    132.7766    214.3945   4.5437089190e+01   1.2179089165e+01    0.1865663    0.1101406  18.22 0.0009527816    1.671    0.401
        30 -14.4357     83.7392    190.1763   5.4090644381e+01   2.3731793779e+01      2.33444     1.544793 -42.19   0.01168601    1.717    0.418
        31 -14.0112     88.6885    197.6933   5.3759109975e+01   2.1393541933e+01    0.8110224    0.6271302 -81.06  0.004494772    1.529    0.346
        32 -13.2755    187.6197    204.6228   3.2743554618e+01   6.8314451845e+00    0.8239518     0.428948  40.79  0.004329217    2.302    0.566
        33 -12.8537    181.7307    197.4259   3.2674999082e+01   8.7249313549e+00    0.7013977    0.4321916  -1.16  0.003749621    1.908    0.476
        34 -10.4683     35.5474    202.7691   6.8210042371e+01   2.6490029500e+01    0.3974596    0.2124649  64.42  0.001912953    1.935    0.483
        35 -10.3074     26.8646    201.4969   7.0400387583e+01   2.7628489222e+01    0.2767929    0.1472397  72.76  0.001336975    1.961    0.490
        36 -10.2961    140.4904    198.1053   4.1310295626e+01   1.4170433645e+01    0.3147019     0.180787 -44.24  0.001592623    1.781    0.438
        37 -11.3348    124.7577    196.9652   4.4743538629e+01   1.6592378023e+01    0.4870195    0.2536856 -52.17  0.002291287    2.052    0.513
        38 -10.8520     43.7912    213.1109   6.6841012859e+01   2.3319226468e+01    0.3717614    0.2377315  52.22  0.002057181    1.408    0.290
        39 -10.6970    227.0457    193.0018   2.4140817916e+01   3.9151813351e+00    0.4313941    0.1330363 -35.88  0.001970597    2.746    0.636
        40 -11.6931    115.4291    194.2143   4.6566724996e+01   1.8466262579e+01    0.2810726    0.2528977  21.15   0.00169887    1.019    0.018
        41 -13.3597    103.7373    191.2859   4.9044563902e+01   2.0735867520e+01    0.5958897     0.424403  -3.18  0.002999347    1.731    0.422
        42 -10.3382     14.4073    192.4860   7.3187206225e+01   3.0861114020e+01    0.2858084    0.1771511 -59.25   0.00151653    1.792    0.442
        43 -11.8309    130.0071    188.0159   4.2109000272e+01   1.7640479738e+01    0.5284664    0.2586557 -46.13  0.002371104    2.084    0.520
        44  -9.9981     71.5407    189.6722   5.7307910682e+01   2.5440822858e+01    0.2613709    0.1421023  46.44  0.001184983    1.771    0.435
        45 -11.5913    166.6686    185.2698   3.3581314286e+01   1.2849591402e+01    0.4290116    0.2629863 -49.12  0.002248229    1.762    0.433
        46 -10.8851     13.5249    183.4647   7.2940072024e+01   3.3119831871e+01    0.4706768     0.200641  80.48  0.001966525    2.497    0.600
        47 -11.1347      6.0005    184.2960   7.5070326641e+01   3.3511291359e+01    0.1914453    0.1588325  48.26  0.001182942    1.086    0.080
        48 -12.5556    200.4788    206.5141   3.0731412040e+01   5.0037435514e+00    0.5124894    0.3586859 -30.65  0.003387711    1.288    0.224
        49 -11.2833    148.3433    179.3109   3.6438480079e+01   1.6646324739e+01    0.3674376    0.2610748 -43.47  0.001993062    1.404    0.288
        50 -12.6524     63.7201    171.6464   5.7290481454e+01   3.0797085824e+01    0.7997718    0.6059952 -82.67  0.004151347    1.403    0.287
        51 -10.3330    118.1400    177.1857   4.3211641209e+01   2.1684032629e+01    0.1980474    0.1679659  58.50  0.001086309    1.343    0.255
        52 -11.6012     78.7356    171.7507   5.2951148404e+01   2.8758767373e+01    0.5311462    0.2034333  41.43  0.001962275    2.447    0.591
        53 -12.2639    170.2339    167.2064   2.9586227979e+01   1.5611147949e+01     0.652213    0.2595481 -38.80  0.002675306    2.445    0.591
        54 -12.8169    172.0280    158.7703   2.7604942300e+01   1.6891512122e+01    0.7424103    0.5181119 -59.49  0.003837259    1.836    0.455
        55 -11.0083    150.2810    168.7467   3.4095652555e+01   1.8423598385e+01    0.4353422    0.2666559 -51.06  0.002122702    1.716    0.417
        56  -9.9292    120.4347    169.7569   4.1357895019e+01   2.2948051014e+01    0.2035273    0.1287637 -40.12 0.0009480799    1.660    0.398
        57 -11.2344    134.8154    167.7984   3.7476855981e+01   2.1078315135e+01    0.2938806     0.222612  61.92  0.001484206    1.732    0.422
        58  -9.9254     88.3912    165.8259   4.9295852438e+01   2.8806286998e+01    0.2152811    0.1288549 -48.04 0.0009534358    1.752    0.429
        59 -10.2247      3.9917    166.2599   7.4771894425e+01   3.8170472884e+01    0.1921999    0.1697753  56.64  0.001183816    1.064    0.060
        60 -12.7249    213.5276    161.2941   2.0693522783e+01   1.0320563020e+01    0.6337126    0.5222793  25.39  0.004310574    1.357    0.263
        61 -10.2827     41.8975    163.4951   6.2918124135e+01   3.5487726877e+01    0.3866964    0.2316392 -34.37  0.001685032    2.215    0.549
        62 -11.3430     85.5883    159.8138   4.9124381903e+01   3.0693422879e+01    0.3568605    0.2271083  20.30  0.001586022    1.752    0.429
        63 -10.4570     38.4496    157.6338   6.3361055598e+01   3.7397766958e+01    0.3157622    0.2260434  -9.80  0.001526455    1.809    0.447
        64 -10.2463    246.0857    151.1153   1.4138865272e+01   7.6085063322e+00    0.2514713    0.1332829 -22.73  0.001414146    1.890    0.471
        65 -13.5444    206.4478    133.5989   1.6410689491e+01   1.5839111471e+01    0.8752691    0.3629646 -46.51  0.003849288    2.324    0.570
        66 -13.8468    171.6314    125.9695   2.0802858645e+01   2.3114975991e+01     1.475896     1.110659 -40.03  0.008043147    1.208    0.172
        67 -13.4700    180.4688    128.1142   1.9627435617e+01   2.1132208360e+01     1.657828    0.5387965 -40.93  0.006092058    2.764    0.638
        68 -14.8924    191.8669    133.9538   1.8867838712e+01   1.8139418831e+01     2.140382     1.224123 -49.16   0.01063486    1.752    0.429
        69  -9.9642    240.1139    141.1333   1.3084260887e+01   9.8022798404e+00     0.184183    0.1343211 -17.63  0.001235051    1.300    0.231
        70 -10.2286    226.7386    139.0033   1.4484996329e+01   1.1947916448e+01     0.180026    0.1312227 -32.46  0.001159961    1.096    0.088
        71 -10.3709     49.1794    136.8403   5.7052162889e+01   4.1736697707e+01    0.2126781     0.174812 -38.65  0.001031625    1.338    0.253
        72 -12.0352    156.6648    133.6628   2.5548233733e+01   2.4360992504e+01    0.4059116    0.3738318  -9.46  0.002354393    1.104    0.094
        73 -12.4867    153.0322    128.1227   2.5087829769e+01   2.6146669094e+01    0.9106872    0.5125612 -36.26   0.00400453    1.810    0.448
        74 -11.4327    227.3291    132.8002   1.3199129415e+01   1.2811198549e+01    0.3980697    0.2349621   6.35  0.001808227    3.424    0.708
        75 -13.2156    186.1281    116.4023   1.6038577265e+01   2.2216093431e+01     1.201387    0.4647014 -37.25  0.004787235    2.400    0.583
        76 -10.1826     30.3907    133.8214   6.3304867398e+01   4.4649581637e+01    0.2215886    0.1184949 -59.76 0.0009503466    1.767    0.434
        77 -11.3834    144.7960    130.0953   2.7374048927e+01   2.7292050292e+01    0.5140539    0.2703905 -43.81  0.002185422    1.818    0.450
        78 -12.0513    209.8051    120.0930   1.3106916496e+01   1.7509396040e+01    0.4809594    0.1999256 -34.63  0.002133505    2.175    0.540
        79 -11.3477    203.1161    116.8161   1.3406849089e+01   1.9161233261e+01    0.3269748    0.2017771 -35.47  0.001759697    1.407    0.289
        80 -11.2227    130.8383    113.4261   2.6735532210e+01   3.3557058071e+01    0.5118656    0.3313206 -22.58  0.002106422    2.207    0.547
        81 -10.5201    123.1683    108.2170   2.7364031619e+01   3.6249427016e+01    0.4815418    0.3215187 -11.67  0.001861088    2.635    0.621
        82 -11.2823    219.2669    108.8662   9.4394950289e+00   1.7741413970e+01    0.1951525    0.1713607 -89.39  0.001003612    1.419    0.295
        83 -11.8031    129.2818    102.0684   2.4197258290e+01   3.6293970433e+01    0.9344286    0.3667111 -53.02  0.003074519    2.973    0.664
        84 -10.9647     78.3225    104.8394   4.0177013908e+01   4.5797303875e+01    0.2839374    0.2461447  84.19  0.001127075    1.263    0.208
        85 -11.5552     75.4374    101.3305   4.0304282762e+01   4.7184462354e+01    0.5113345    0.3174699  31.83  0.002184003    1.701    0.412
        86 -12.3837    211.7738    101.3922   8.8399992370e+00   2.0164347869e+01    0.4802016    0.3827783  43.22  0.003038326    1.532    0.347
        87 -13.4967    200.2960     96.0441   9.2316396380e+00   2.3060261174e+01     1.127941    0.5686358 -42.42  0.005507387    1.671    0.401
        88  -9.9956      5.4445    141.3818   7.2829907343e+01   4.4617731300e+01    0.3228453     0.121912 -78.24  0.001258106    2.389    0.581
        89 -11.6583     99.6793     96.7708   3.0944972305e+01   4.3639732148e+01    0.6876429    0.4299359  38.40  0.002960273    1.673    0.402
        90 -11.3443    229.3604     90.8789   4.4504608019e+00   1.8785170261e+01     0.344584    0.1782318 -57.01  0.001741716    2.217    0.549
        91 -12.5383     43.7735     82.7770   4.8278464664e+01   5.6890384882e+01    0.6299993    0.3985382 -55.50  0.002897775    1.506    0.336
        92 -11.2736    123.9749     88.9960   2.1922609115e+01   4.0144640350e+01    0.4634834    0.3547858 -70.58  0.002221823    1.497    0.332
        93 -10.9248      4.4179     87.8615   6.8165091952e+01   5.9255420250e+01    0.3440256    0.2523237 -84.34  0.001793119    1.297    0.229
        94 -10.9062     13.2269     87.1047   6.3793531477e+01   5.8914381570e+01    0.2653599    0.2105843  43.89  0.001439483    1.343    0.256
        95 -12.4728    116.6280     72.1550   1.8729819314e+01   4.5123777647e+01    0.5727252    0.3538398  77.97  0.002256961    2.419    0.587
        96 -12.4841    112.3412     84.9281   2.3803355553e+01   4.3540074055e+01      1.02794    0.3241624  46.62  0.003220643    3.213    0.689
        97 -14.1676     96.7254     74.4814   2.5121183851e+01   4.9134289035e+01     1.817503     1.409403  28.75  0.008764042    1.503    0.335
        98 -12.4913     35.1966     89.4801   5.3856662728e+01   5.6228669614e+01    0.8317842    0.6414668  59.21  0.004196256    1.439    0.305
        99 -11.9984     20.8922     85.1294   5.9708704805e+01   5.8836947425e+01    0.4788721    0.3213312 -10.31  0.002296022    1.758    0.431
       100 -12.6190    120.1844     80.2302   2.0311102241e+01   4.2747613901e+01    0.5643535    0.4067875  89.86  0.002528396    1.852    0.460
       101 -13.0862     73.6645     79.5029   3.4719885764e+01   5.2769147733e+01    0.8409684    0.4874641  41.30  0.003576022    1.723    0.420
       102 -11.0477    171.9127     72.7956   7.7905313233e+00   3.2505451749e+01     1.013639    0.4764648 -55.44  0.004100455    2.443    0.591
       103 -11.0166    168.0535     77.3544   9.6035540778e+00   3.2585871202e+01    0.6180756    0.3248526 -48.01  0.002788761    1.773    0.436
       104 -10.1201    163.6011     74.8101   9.6741755841e+00   3.3977418719e+01    0.3373933    0.2246061 -38.77  0.001428965    1.413    0.292
       105 -12.2532    213.2468     44.5261   3.5592744922e+02   2.8074951109e+01    0.7155669    0.3238119 -51.63  0.003632813    1.883    0.469
       106 -12.5027    200.4867     72.9811   3.8739264097e+00   2.6615314663e+01    0.7780948    0.5884381 -63.18  0.004686773    1.277    0.217
       107  -9.5582    213.0059    248.0000   3.4725792883e+01  -1.9065205684e+00    0.1624323   0.04955966  27.38 0.0008052653    2.962    0.662
       108 -11.4258    127.8599     75.4281   1.6986550302e+01   4.1928368644e+01     0.520833    0.2890812 -67.86  0.001838124    3.034    0.670
       109 -11.6433    162.1251    243.2987   4.3231838553e+01   3.9102941171e+00    0.3141369    0.2795933  67.28  0.002233713    1.891    0.471
       110 -11.1612    171.4189    242.7919   4.1383729095e+01   2.9691868619e+00     0.405594    0.2003684  29.34  0.002343205    1.772    0.436
       111  -9.7622    140.3211    243.6974   4.7636552832e+01   6.2969152692e+00    0.1120624   0.08278446  45.03 0.0003686516    1.630    0.387
       112 -13.0857    221.4557     70.0476   8.4865212693e-01   2.3120780080e+01    0.8508155    0.7383821 -41.38  0.005931002    1.143    0.125
       113 -11.8116     62.2296     72.2338   3.6954369606e+01   5.6548830328e+01    0.4192858    0.2445294 -50.13  0.001816335    1.700    0.412
       114 -12.5413     47.7301     69.5494   4.2560314894e+01   5.9581461514e+01     0.650387    0.4007038  58.42  0.002740699    2.200    0.545
       115 -10.5357     61.6955    242.8516   6.4754538472e+01   1.5352719792e+01     0.284859    0.1786551   0.66  0.001533555    2.114    0.527
       116 -12.2882     43.2616     46.0981   3.6163125211e+01   6.5507090766e+01    0.5210152    0.3244913 -58.10  0.002443988    1.857    0.461
       117 -11.1527    121.9903     64.4968   1.4964544346e+01   4.5287355908e+01    0.3888094     0.209985 -39.63  0.001647538    1.845    0.458
       118 -11.3164     26.8645     34.1374   4.0466880354e+01   7.0405904874e+01    0.3815852     0.293819  26.82  0.002077903    1.269    0.212
       119 -10.3621    105.6638     33.9716   8.0577161099e+00   5.4082265600e+01    0.2895299      0.20525  73.87  0.001462533    1.409    0.290
       120 -11.6994    197.1913    233.7501   3.5428489669e+01   1.4872100036e+00    0.3705755    0.2028613   9.45  0.002041753    1.791    0.442
       121 -11.3049    202.9559    237.3472   3.4938195636e+01   4.1493083289e-01    0.4801228    0.1414817  26.91  0.002215197    3.223    0.690
       122 -13.3406     33.1938     60.7270   4.7065629167e+01   6.3720103955e+01     1.378135    0.6799214 -23.04  0.004549782    3.857    0.741
       123 -13.1091     74.1438     58.2636   2.7190107764e+01   5.7258675221e+01    0.7024183    0.4745584 -41.82  0.003326568    1.519    0.342
       124 -12.0484     25.7487     48.3687   4.7078278858e+01   6.7500084106e+01    0.6834183    0.3508374  24.47  0.003078504    1.991    0.498
       125 -12.3791     52.8373     54.7544   3.4887577390e+01   6.2076124143e+01    0.7526542    0.2848419 -38.22  0.002477077    3.403    0.706
       126 -11.5425    196.3926    239.8848   3.6433078714e+01   7.4426632603e-01    0.3326029    0.1828877   9.25  0.002022896    1.722    0.419
       127 -13.1383    187.1034    231.1966   3.6868982483e+01   2.9183600723e+00    0.6485835    0.4931003  -0.06  0.004636302    1.034    0.033
