#   1 NUMBER                 Running object number                                     
#   2 MAG_AUTO               Kron-like elliptical aperture magnitude                    [mag]
#   3 X_IMAGE                Object position along x                                    [pixel]
#   4 Y_IMAGE                Object position along y                                    [pixel]
#   5 X_WORLD                Barycenter position along world x axis                     [deg]
#   6 Y_WORLD                Barycenter position along world y axis                     [deg]
#   7 A_WORLD                Profile RMS along major axis (world units)                 [deg]
#   8 B_WORLD                Profile RMS along minor axis (world units)                 [deg]
#   9 THETA_WORLD            Position angle (CCW/world-x)                               [deg]
#  10 FWHM_WORLD             FWHM assuming a gaussian core                              [deg]
#  11 ELONGATION             A_IMAGE/B_IMAGE                                           
#  12 ELLIPTICITY            1 - B_IMAGE/A_IMAGE                                       
         1  -9.7288     38.7320      8.6468   8.3000409828e+01   7.1560998279e+01    0.6710204    0.4180828  -4.33  0.003295086    2.121    0.529
         2 -10.5999     50.5069     35.9414   9.1103998260e+01   6.4760600530e+01    0.8781689    0.6374135 -87.11  0.004190822    2.430    0.589
         3 -12.9313    132.9023     15.0477   5.5857090419e+01   4.9942898593e+01     2.786356     1.198392  65.39   0.01069875    2.297    0.565
         4 -12.3369     82.6635      7.0426   6.3799806417e+01   6.3268947088e+01     3.453881     1.658736   5.96   0.01148731    3.854    0.741
         5 -11.2400    131.4435      3.4033   5.1256958484e+01   5.1438605157e+01     1.443572    0.3291144  64.18  0.004483548    3.528    0.717
         6 -13.6818    166.3256     10.6617   4.9217815860e+01   4.1547680255e+01     2.943414     2.275752  73.38   0.01550503    1.300    0.231
         7 -10.6625     71.9670      5.4257   6.6348805239e+01   6.5825623336e+01    0.7116074    0.4232093  39.60  0.003252798    1.654    0.395
         8 -11.7635    109.8508      4.5614   5.5686600796e+01   5.6943926249e+01     1.818276    0.6618395  59.76  0.006849542    2.451    0.592
         9  -9.8951    111.5009     16.4673   6.0858073795e+01   5.5275112706e+01    0.3520419    0.2776394  47.07  0.001400644    1.229    0.186
        10 -10.2554    116.6004     17.7955   6.0295706707e+01   5.3838785149e+01    0.8853365    0.3005886 -34.46  0.003103769    2.760    0.638
        11  -9.8525     94.2386     17.6765   6.5883825690e+01   5.9304450298e+01    0.5175629    0.4266081 -57.09  0.002241673    1.458    0.314
        12 -11.1630    155.2978     20.4265   5.4229359857e+01   4.3480067195e+01    0.7664378    0.5656453  82.57  0.002676172    1.484    0.326
        13 -10.7802    248.6333     15.6520   4.3325563423e+01   2.1343578880e+01     0.590642    0.3481066 -16.36  0.003190588    1.614    0.381
        14 -10.4830     63.9114     16.5173   7.5688857596e+01   6.5958855007e+01    0.5711946    0.3220462  55.64  0.002625078    2.191    0.544
        15  -9.6709    228.8092     15.5814   4.4714194782e+01   2.5652202907e+01    0.4379094     0.139621 -32.89  0.001766851    2.427    0.588
        16 -10.6020    121.3044      4.1913   5.3305655094e+01   5.4030194558e+01     0.572561    0.5040634  62.88  0.002092297    1.125    0.111
        17  -9.0102     20.0196     14.1274   9.7370160453e+01   7.2957609588e+01    0.5615251    0.2237073 -37.48  0.002446004    2.459    0.593
        18 -10.9570     39.5254     29.6394   9.3650971777e+01   6.7569889403e+01    0.6439586    0.3450322 -49.84    0.0024187    1.676    0.403
        19 -10.8717     60.6146      3.8251   6.9611188186e+01   6.8376977146e+01     0.968707    0.5542977 -18.02  0.004708589    1.742    0.426
        20  -8.4099     54.9467      7.7841   7.4451596327e+01   6.8940375736e+01    0.2648589    0.2122253  79.94  0.001441456    1.982    0.495
        21 -10.3330    248.8304      4.3090   4.0503588703e+01   2.2295228394e+01    0.5600765    0.2976974 -27.83  0.003016409    1.563    0.360
        22 -12.0387     44.6103     22.1439   8.7495185704e+01   6.8312698269e+01     1.190198    0.9658966 -70.32  0.006392063    1.726    0.421
        23  -8.4448     49.2140      6.8332   7.6499120103e+01   7.0115388764e+01    0.2632166    0.1805425  -1.77  0.001184041    1.603    0.376
        24  -9.1823     52.2610      2.2803   7.2167857201e+01   7.0192192278e+01    0.3966867    0.2559758  15.63   0.00203321    1.750    0.429
        25  -9.0029    229.7794      6.5705   4.2239228643e+01   2.6237245168e+01    0.1723105    0.1160457 -77.65 0.0006808991    1.601    0.376
        26  -9.4907    223.4193      5.5109   4.2383350393e+01   2.7775483498e+01    0.2749175    0.1695581 -65.48  0.001427143    1.706    0.414
        27  -9.3087    213.4811      4.9716   4.2939280587e+01   3.0147074192e+01    0.2581399    0.1734789  52.66  0.001378235    1.616    0.381
        28  -8.8748     26.7209      3.4018   8.6746460552e+01   7.4146417051e+01    0.3145406    0.2172308 -33.94  0.001411501    1.235    0.190
        29  -8.9457     17.3409      2.5453   9.2534272086e+01   7.5434659059e+01    0.3336839    0.2238927 -65.21  0.001622755    2.263    0.558
        30  -9.8175    203.8283      3.9751   4.3384299741e+01   3.2560339560e+01    0.2346323    0.1967456  86.46  0.001377513    1.220    0.181
        31  -8.9948    217.6657      1.9200   4.1788325508e+01   2.9413900925e+01    0.2553679    0.1861793 -82.18  0.001446777    1.428    0.300
        32  -8.6715     40.2194      1.8802   7.7800297226e+01   7.2371609346e+01     0.271966      0.17248  35.40  0.001221443    1.636    0.389
        33  -9.4680     74.9231     68.4529   9.3156360301e+01   5.4013149814e+01    0.5303116      0.41346  -8.69  0.002709165    1.623    0.384
        34  -9.5235     62.3946     69.4999   9.8022763642e+01   5.5748601049e+01     0.407319    0.2665834   1.21  0.001793548    2.491    0.599
        35  -8.5990     32.6116     69.0179   1.0955857926e+02   5.9494695212e+01    0.3574771    0.1852188  -8.29  0.001363492    3.966    0.748
        36  -9.0130     67.1546     63.8620   9.4523015710e+01   5.6285402818e+01    0.3240638    0.2097622 -10.14  0.001357349    2.608    0.617
        37  -8.1362     61.3951     63.7915   9.6680142398e+01   5.7182829233e+01    0.2071351    0.1171633 -44.10  0.000946084    1.668    0.400
        38  -9.1889     45.7811     62.3933   1.0247066327e+02   5.9612646706e+01    0.2782721    0.2258408 -25.22  0.001157518    1.356    0.263
        39  -8.7485     49.6635     61.3325   1.0057195385e+02   5.9368637457e+01    0.2857432    0.2409673  86.76  0.001644241    1.383    0.277
        40  -8.5204     76.9889     60.4653   8.9798919252e+01   5.5377108967e+01    0.2861502    0.2027733 -62.75  0.001383831    1.623    0.384
        41  -8.2478     93.1953     57.0073   8.3052583770e+01   5.3015012030e+01    0.2442849    0.1717294 -66.95  0.001089198    1.955    0.489
        42  -8.9426    199.0255     55.5399   5.9224522461e+01   2.8221629511e+01     0.264869    0.2024875 -21.18 0.0004308795    1.235    0.190
        43  -8.9809     66.0493     53.1348   9.1294761835e+01   5.8781107447e+01    0.4976439    0.1982717 -54.24  0.001814941    2.731    0.634
        44  -7.7674     35.4813     52.5023   1.0401517047e+02   6.3072944903e+01    0.1325705    0.1161528 -57.72 -7.323608e-05    1.046    0.044
        45  -9.5589      9.0541     79.8394   1.2073087019e+02   5.8733273631e+01    0.3532376     0.218272 -85.92   0.00201786    1.432    0.302
        46  -7.3850    174.6396     51.2673   6.1670033017e+01   3.4712497600e+01    0.1506132    0.1124815 -66.74 0.0006991476    1.642    0.391
        47 -10.1282     81.5158     41.5085   8.0945898829e+01   5.8294196374e+01    0.8522315     0.343907 -32.70  0.003032827    2.753    0.637
        48 -10.0795     87.0823     48.9173   8.2020061040e+01   5.5802630152e+01      0.45693    0.2992853 -35.86   0.00198224    1.464    0.317
        49 -10.0522     83.3019     47.7373   8.2855200432e+01   5.6773973339e+01    0.4802063    0.3431218 -20.14  0.001926622    1.578    0.366
        50  -8.8897    110.8501     45.8543   7.3509018418e+01   5.1215866380e+01    0.3431427    0.2285902 -30.05  0.001580697    1.478    0.323
        51 -10.1705      3.3700     40.6797   1.1660483944e+02   6.8347722317e+01    0.4841268    0.3772927  61.62  0.003086795    1.523    0.343
        52  -9.6192    174.2288    242.3951   1.0187898471e+02   7.0157907219e+00    0.1555254    0.0751483  41.46 0.0009606924    1.701    0.412
        53  -8.3452    182.3607    228.3108   9.8775540610e+01   7.4727951431e+00     0.113972   0.06841636  15.07 0.0007041458    1.745    0.427
        54  -9.2676    197.5052    226.5152   9.6005394060e+01   5.6076200850e+00    0.1106868   0.08024273  21.74 0.0008102885    1.030    0.029
        55  -8.8253    210.3508    216.3160   9.2452173589e+01   4.9253116395e+00    0.1173166   0.06734289  13.77 0.0007047086    1.732    0.423
        56  -8.8355    242.3188    202.3320   8.5245806013e+01   1.9740035470e+00    0.1169151   0.06510667  10.67 0.0007048293    1.692    0.409
        57 -12.8046    241.2133    131.6338   7.2119187157e+01   9.8102753510e+00     1.350058     1.149843  15.77  0.006029328    1.152    0.132
        58  -9.2434     41.0329    141.9127   1.1799358388e+02   4.1588442879e+01    0.2589449    0.2130467  21.36  0.001690235    1.468    0.319
        59  -8.6571     27.0182     35.4921   1.0252189515e+02   6.7774936799e+01       0.2615    0.1317639  15.20   0.00120511    2.639    0.621
        60  -9.5846     86.4254     31.5366   7.4884494128e+01   5.9018852589e+01    0.2627677    0.2460511   7.26 0.0009696914    1.041    0.039
        61  -9.9720     90.4814     28.6420   7.2237420092e+01   5.8599133675e+01     0.431802    0.2498336 -35.28  0.001950647    1.659    0.397
        62 -10.0595    225.6032     28.8049   4.8561222473e+01   2.5094402909e+01    0.4692426    0.4206182   8.74  0.001949784    1.193    0.162
        63 -11.2106     12.1660    138.0520   1.2522041288e+02   4.5037312265e+01    0.5966361    0.2060745 -88.07  0.002623175    2.860    0.650
        64  -8.6759    125.4544     28.8250   6.3012675958e+01   5.0228197227e+01    0.3059487    0.2618772 -19.47  0.001611041    1.152    0.132
        65  -8.5416     97.6450     27.0132   6.9309612932e+01   5.7227853441e+01    0.3225371    0.2169891  -4.95  0.001472224    1.764    0.433
        66  -9.0350    132.5673     26.6182   6.0613933360e+01   4.8698002585e+01    0.2828628    0.2623878 -53.70 0.0007780041    1.148    0.129
        67  -8.8978    104.4455     26.0766   6.6975951059e+01   5.5768071099e+01    0.4040795    0.3139814  65.22  0.002052758    1.428    0.300
        68  -8.4399     22.4093     23.3997   1.0027648965e+02   7.0827959507e+01    0.2546614    0.1523708 -37.94  0.001383429    1.496    0.331
        69  -8.6974     53.0202    143.4472   1.1502790402e+02   3.9934985050e+01    0.1857143     0.116625  33.85  0.001034777    1.616    0.381
        70  -9.0359     17.4080    126.2464   1.2290454935e+02   4.7261553047e+01    0.1731386   0.09588454  86.94 0.0008115097    1.651    0.394
        71  -8.0828     22.7665    125.4555   1.2132471131e+02   4.7003298499e+01    0.1479496    0.1191772   1.23 0.0009482293    1.679    0.404
        72  -9.3781      3.2201    116.7901   1.2620834111e+02   5.0415470357e+01    0.1933517    0.1364279  34.79  0.001066459    1.538    0.350
        73  -7.6470    192.5536    116.5553   7.6669405936e+01   2.0926268620e+01      0.13872     0.125933   1.28 8.169736e-05    1.023    0.023
        74 -11.0794      9.0868    142.3430   1.2628584673e+02   4.4335923641e+01    0.3839307    0.2908034  75.47  0.002705784    1.067    0.063
        75  -9.6093     17.0605    104.7367   1.2092926009e+02   5.2264356460e+01    0.3270613    0.2881223  74.42  0.002259154    1.111    0.100
        76  -9.0430     68.3033    106.5405   1.0494601978e+02   4.6343601568e+01     0.245503    0.1509477 -42.98  0.001018559    1.802    0.445
        77  -9.7116     68.6840     13.3259   7.2047311268e+01   6.5485513432e+01    0.2179451    0.1435784  52.58  0.001096876    1.656    0.396
        78  -9.5119     30.0640    101.7447   1.1634787259e+02   5.1897019914e+01    0.3200271    0.2149695 -55.25  0.001835253    1.437    0.304
        79  -8.1646      9.0627     15.9610   1.0547215048e+02   7.3541962047e+01    0.2137309    0.1078424 -19.20  0.001017646    2.590    0.614
        80  -9.5914     46.8207     99.7898   1.1052205960e+02   5.0653610352e+01     0.356461    0.1608655 -59.46  0.001613233    1.945    0.486
        81  -8.1662     64.0000     99.9757   1.0496733304e+02   4.8462674992e+01     0.229143   0.07290548 -59.97 0.0008019989    2.939    0.660
        82  -9.1330      2.3838     88.8828   1.2416719467e+02   5.6959488815e+01    0.3573436    0.1853619 -87.83  0.001919348    1.673    0.402
        83 -11.6975     42.9635     82.1624   1.0844306933e+02   5.5283974960e+01     1.071529    0.8644341 -15.39  0.006013148    1.539    0.350
        84  -8.7241    100.5365     83.0240   8.9247403875e+01   4.6246548415e+01     0.229162    0.1407475 -46.94 0.0007897477    1.580    0.367
        85  -9.0144     12.2443     33.5597   1.0990439998e+02   6.9458061592e+01    0.4284965    0.2670971 -48.51  0.001957163    1.324    0.245
        86  -9.1799     16.4875     59.7014   1.1437359129e+02   6.3071303125e+01     0.564737    0.1811343 -66.79  0.002321321    2.480    0.597
        87 -10.1899     24.7343     65.1946   1.1197308005e+02   6.1120529164e+01    0.6962918    0.2660436 -58.37  0.003088767    2.063    0.515
        88 -10.5997      4.2805     75.9401   1.2204983220e+02   5.9937613136e+01      0.69464    0.4396313 -80.60  0.004067901    1.310    0.237
        89 -10.6559     18.2000     73.8302   1.1630242504e+02   5.9565187983e+01    0.6173144    0.3560389 -57.04  0.003371622    1.485    0.327
        90 -10.5315     12.6108     70.3877   1.1796967699e+02   6.0777515582e+01    0.8681518    0.3533514 -71.21  0.004037775    2.008    0.502
        91  -8.9043    228.0434     78.4511   6.1482990716e+01   1.8865837320e+01    0.3436533    0.2077335  24.54  0.001551909    2.038    0.509
        92  -8.4640    138.9793     78.5447   7.7563218790e+01   3.8978491288e+01    0.2272552     0.147991  48.87 0.0005637002    1.556    0.357
        93  -8.5477      7.2067     35.8013   1.1334769091e+02   6.9268865297e+01    0.3259952    0.2042486  52.96  0.001817969    2.083    0.520
        94  -9.2658     20.2430     87.7293   1.1771222886e+02   5.6071823671e+01    0.3530671    0.1903713 -73.46  0.001843993    1.579    0.367
        95  -8.9417     83.8297     69.5770   9.0442915007e+01   5.2223103945e+01    0.2799318    0.2681468  38.02  0.001613649    1.104    0.094
