#   1 NUMBER                 Running object number                                     
#   2 MAG_AUTO               Kron-like elliptical aperture magnitude                    [mag]
#   3 X_IMAGE                Object position along x                                    [pixel]
#   4 Y_IMAGE                Object position along y                                    [pixel]
#   5 X_WORLD                Barycenter position along world x axis                     [deg]
#   6 Y_WORLD                Barycenter position along world y axis                     [deg]
#   7 A_WORLD                Profile RMS along major axis (world units)                 [deg]
#   8 B_WORLD                Profile RMS along minor axis (world units)                 [deg]
#   9 THETA_WORLD            Position angle (CCW/world-x)                               [deg]
#  10 FWHM_WORLD             FWHM assuming a gaussian core                              [deg]
#  11 ELONGATION             A_IMAGE/B_IMAGE                                           
#  12 ELLIPTICITY            1 - B_IMAGE/A_IMAGE                                       
         1 -11.1712    246.7364     23.5441   2.3062768823e+01   2.4048246224e+01    0.6373259    0.4031808 -60.56  0.003451786    1.225    0.184
         2  -8.9592    119.9081      8.6969   3.3662297995e+01   5.2280951476e+01     0.198052    0.1647276  30.17  0.001327258    1.335    0.251
         3  -7.2557    141.7355      6.3315   2.9622416461e+01   4.7593686916e+01    0.1173989   0.08117251 -70.78 0.0002587719    1.577    0.366
         4  -8.4142    191.5453      4.7085   2.3796154928e+01   3.6867965840e+01    0.1891412    0.1421104  80.82 0.0004744176    1.135    0.119
         5  -7.3539    183.4740    240.5212   7.5511083641e+01  -2.7068574810e+00    0.1339665    0.1104453  -0.63  0.000112317    1.013    0.013
         6  -7.1650    185.6974    250.6673   7.6689891558e+01  -4.7393181181e+00    0.1346795   0.08570562  -8.13 0.0002916572    1.656    0.396
         7  -8.5037    152.1963    250.6495   8.3875333468e+01  -1.6263895165e-01    0.2148138    0.1095512  32.20 0.0002715142    1.733    0.423
         8 -10.1346      3.1197    230.2865   1.1502921347e+02   2.3086079621e+01    0.6205124    0.2836627  80.48  0.003082134    2.155    0.536
         9 -10.3987     54.4932    235.8405   1.0430279631e+02   1.6415065744e+01    0.5814008    0.4004232 -76.00  0.003233468    1.475    0.322
        10 -10.9614     13.8770    244.2074   1.1366410735e+02   1.9050711754e+01    0.6651681    0.4631928   5.83  0.003772821    2.186    0.543
        11 -10.2460    122.0608    233.6367   8.8231728528e+01   7.5591475553e+00    0.2784835    0.2381042 -42.41 0.0005472762    1.250    0.200
        12 -10.6506      9.3268    236.3206   1.1411191472e+02   2.1190974240e+01    0.6310562    0.3206996  50.27   0.00278963    1.700    0.412
        13  -8.2327     74.4398    238.0806   9.9971863996e+01   1.3376358420e+01    0.2821636    0.1129899 -57.25  0.001189598    2.562    0.610
        14  -7.2642    112.3098    230.2863   9.0058796727e+01   9.7250240730e+00    0.1378262    0.1055776  -9.94 0.0002653514    1.574    0.365
        15  -9.0443     22.4075    227.0534   1.1071643697e+02   2.1988410740e+01    0.2691197    0.2020696  87.37 0.0007708443    1.186    0.157
        16  -9.4742     88.9127    226.7768   9.5202799075e+01   1.3909809854e+01    0.2514607    0.2130426  80.92  0.001257824    1.275    0.216
        17  -9.2360     73.5190    225.0387   9.8698739313e+01   1.6431619706e+01     0.273624    0.2100613  35.10  0.000353856    1.246    0.197
        18  -9.8248     74.6756    221.3402   9.7973129251e+01   1.7133877299e+01    0.5030971    0.2598659  65.01  0.001966547    2.821    0.645
        19 -11.7792      3.6887    246.1332   1.1578978426e+02   1.9613686420e+01     1.007571    0.8804608  14.12  0.004962214    1.555    0.357
        20  -9.1758     26.1522    221.9284   1.0948660248e+02   2.2787846710e+01    0.3628872    0.2486477  17.46  0.002040647    1.808    0.447
        21  -8.6490    145.8115    221.0559   8.0659979834e+01   6.5657714437e+00    0.2194367    0.1875265  22.41  0.000269867    1.093    0.085
        22  -7.1833     32.4878    220.4612   1.0792094694e+02   2.2467299306e+01    0.1274185    0.1141948  80.82 0.0002164648    1.055    0.052
        23  -8.3428    250.1367    218.8346   5.8942445720e+01  -7.4679478729e+00    0.1716757    0.1409509 -20.94 0.0005148052    1.183    0.155
        24  -9.2607     84.5192    217.6473   9.5079754908e+01   1.6635766411e+01    0.4620174    0.2481891 -87.04  0.001657475    3.110    0.678
        25  -9.1099     11.7899    218.2389   1.1241359891e+02   2.5039347209e+01    0.2685253    0.1537525  53.86 0.0007410625    1.603    0.376
        26  -7.8111    131.1206    216.8806   8.3468326351e+01   9.7613297999e+00    0.2090583    0.1937817  64.50  0.000513317    1.243    0.196
        27  -9.7650      3.5528    212.1962   1.1382053081e+02   2.7171296146e+01    0.3372146     0.307571  79.15  0.001546146    1.149    0.129
        28 -11.0104     11.0906    206.8633   1.1174553187e+02   2.7785050190e+01    0.5633996    0.4897607  17.96  0.002784001    1.420    0.296
        29  -9.9767      5.9586    205.0472   1.1278989094e+02   2.8660037955e+01    0.2728123    0.2664692 -11.71  0.000311571    1.312    0.238
        30  -8.4277     24.0083    202.5250   1.0833644257e+02   2.7640588813e+01    0.2793294    0.1571762  44.62  0.001347809    1.719    0.418
        31  -7.7544     20.5056    201.5325   1.0909450533e+02   2.8218983560e+01     0.130804    0.1130279  86.38 4.806087e-05    1.008    0.008
        32  -7.7231     73.0959    201.4642   9.5791664800e+01   2.2141844705e+01    0.2011099    0.1403228  28.77 0.0005358077    1.469    0.319
        33 -10.5180     16.8596    198.3567   1.0970044416e+02   2.9334795454e+01    0.4514164    0.3220456 -29.99  0.001078531    1.874    0.467
        34 -12.8621     28.2027    189.7605   1.0605818464e+02   3.0412103045e+01     3.485509     1.547277  83.28   0.01275187    3.235    0.691
        35  -7.1605     67.5857    191.2790   9.5826137384e+01   2.5450862058e+01    0.1586515    0.1009924  59.61 0.0006969711    1.802    0.445
        36  -9.2573      9.4463    189.4368   1.1075447360e+02   3.2176856193e+01     0.231481    0.1980569 -70.78 0.0006303042    1.133    0.117
        37  -7.6598    106.9558    186.7499   8.4458444472e+01   2.0714518658e+01    0.2012057     0.198143  46.12 0.0001858834    1.037    0.036
        38  -9.3948     48.9333    173.8325   9.8512192227e+01   3.2308294839e+01     0.378397    0.2582605 -29.60  0.001040599    1.805    0.446
        39  -8.0750    250.2323    200.5468   5.5671625582e+01  -4.5228208305e+00    0.1599674    0.1071252   8.45 0.0006525805    1.656    0.396
        40  -7.2523     54.0342    199.9817   1.0054453624e+02   2.4983091514e+01    0.1654812    0.1485902 -84.92 0.0009557835    1.049    0.047
        41  -9.5427    156.1964    169.0030   6.8287922836e+01   1.6297629072e+01    0.2662709    0.2326197 -38.98 0.0002269639    1.098    0.089
        42  -9.2786     55.4995    168.4781   9.5839835478e+01   3.2929129499e+01    0.2799032    0.2299116 -37.29 0.0005280915    1.288    0.224
        43  -7.6542    161.8363    166.2227   6.6357967394e+01   1.5885826968e+01    0.2101879     0.169819 -14.99 0.0002977381    1.328    0.247
        44  -8.2939     95.2337    163.8316   8.3431083048e+01   2.8427358740e+01    0.4200851    0.2564682 -82.65  0.001527635    2.662    0.624
        45  -7.4957     78.7467    198.4291   9.3881522855e+01   2.2109893198e+01    0.1821671    0.1419084  15.90 0.0002568228    1.440    0.305
        46  -8.6528     99.6690    161.0929   8.1609633946e+01   2.8394586752e+01      0.25495     0.220944  12.66 0.0003299663    1.229    0.186
        47  -8.5725     67.3718    159.6024   9.0860790494e+01   3.3726970455e+01    0.2613208     0.236739 -36.66 0.0004077662    1.115    0.103
        48  -7.4821    248.6391    196.3049   5.5165430516e+01  -3.6215990732e+00    0.1110811   0.09675939 -63.27 0.0007038774    1.730    0.422
        49 -10.8719     52.9061    155.6769   9.4570626771e+01   3.6623278243e+01    0.5213188    0.3064348 -35.47  0.001304604    1.972    0.493
        50 -10.1146     75.2061    153.6722   8.7395458473e+01   3.4175051530e+01    0.6062856    0.4301904 -15.07  0.001761444    1.805    0.446
        51  -9.0662     63.7922    148.0199   8.9847046636e+01   3.7257666816e+01    0.3156018    0.2339563 -26.41  0.000636484    1.518    0.341
        52 -11.1058     68.3729    144.3413   8.7695583642e+01   3.7592060542e+01    0.8418289    0.5940378 -81.66  0.003065287    1.742    0.426
        53  -8.6157     91.9353    142.2086   7.9913993453e+01   3.4508659413e+01    0.4072283    0.2387007  55.66  0.001549179    2.318    0.569
        54  -8.3716    240.7846    139.9399   4.5709936601e+01   7.3585034285e+00    0.1902162    0.1819692 -37.14  0.000419431    1.174    0.148
        55  -9.8422     79.5367    138.9185   8.3042751119e+01   3.7347518149e+01    0.3153674    0.2801566 -49.47 0.0004023674    1.074    0.069
        56  -7.4155    107.4666    136.4589   7.3946203300e+01   3.3210558471e+01    0.1578992    0.1516082 -24.52 6.552961e-05    1.004    0.004
        57  -8.8359      7.7489    131.4162   1.0511389286e+02   4.7084010915e+01    0.2354385    0.1238408  23.52  0.001146592    2.165    0.538
        58  -9.5832      2.1232    129.4678   1.0666277832e+02   4.7905922122e+01    0.3601353    0.1965473 -89.20  0.001705248    2.003    0.501
        59  -7.2624     31.6470    129.9754   9.7026270047e+01   4.5620258029e+01    0.2355483    0.1126248  88.75 0.0007046935    4.509    0.778
        60  -8.3084     91.6420    126.2497   7.6314314626e+01   3.8539871127e+01     0.275194    0.2129389  33.53 0.0005778825    1.324    0.245
        61  -8.8520    166.2366    123.2540   5.5579936172e+01   2.4407294465e+01    0.3741229    0.2576624 -32.04  0.001471887    1.542    0.352
        62  -9.2536     51.4686    124.7185   8.9273336765e+01   4.4861908530e+01    0.2788562    0.2591491 -87.42  0.001244171    1.205    0.170
        63  -7.1010    104.2643    119.2801   7.0682192900e+01   3.7924165049e+01    0.1522733    0.1191846 -13.73 0.0006876888    1.482    0.325
        64  -7.7556     86.2974    117.9836   7.5981491110e+01   4.1456774386e+01    0.3193193    0.1946732   3.54  0.001169449    2.658    0.624
        65  -7.4387     36.3010    115.3103   9.2660226078e+01   4.8899101507e+01     0.150735   0.09398325 -33.77 0.0002865162    1.604    0.377
        66  -7.5118     79.4847    111.9697   7.6700743332e+01   4.4022996489e+01    0.1989744    0.1379536 -81.27 0.0008060189    2.313    0.568
        67  -7.0104    143.4856    109.4130   5.7388830749e+01   3.2103397233e+01    0.1485636    0.1481674   5.35 0.0001330278    1.015    0.015
        68  -7.4342     82.7842    109.3816   7.4926010025e+01   4.4082195116e+01    0.1980624     0.143152  19.15 0.0002328801    1.497    0.332
        69  -9.9721     71.3871    108.5206   7.8576750209e+01   4.6119981689e+01    0.2701484    0.2490156 -20.08 0.0002758846    1.010    0.010
        70  -6.9580    121.5770     92.4183   5.8427596430e+01   4.0242581711e+01     0.147685    0.1422824  15.51 0.0001120357    1.021    0.020
        71  -7.6187    146.8147     68.2086   4.5634313982e+01   3.8958711642e+01    0.1858308     0.162431  25.72  0.000423992    1.306    0.234
        72  -8.2682    139.7623     65.9362   4.6498477711e+01   4.0917016084e+01    0.2288684     0.187636  59.13 0.0003559503    1.161    0.139
        73  -8.3918    213.1422     61.9959   3.3569050512e+01   2.5437244659e+01    0.1827831    0.1561096 -69.67 0.0002940524    1.022    0.022
        74  -7.5229    225.8301     58.1914   3.1346365664e+01   2.3478413423e+01     0.143518    0.1376788 -70.02            0    1.300    0.231
        75  -8.6824    109.2836     55.5878   5.0715800483e+01   4.9278250623e+01    0.2507519    0.2197625  -6.45 0.0004729421    1.230    0.187
        76  -9.3850    214.7699     47.3855   3.0354520816e+01   2.7154631851e+01    0.2781122    0.1818392  43.01  0.001468671    2.257    0.557
        77  -9.7920    225.3762     44.7904   2.8750166751e+01   2.5400995475e+01    0.2495675    0.2308657  80.95  0.001359611    1.317    0.241
        78 -10.2213    220.9982     42.4745   2.8724230392e+01   2.6561517603e+01    0.5436573    0.2411339 -40.96  0.002816257    2.068    0.516
        79 -10.8660    230.0265     37.0150   2.6821940208e+01   2.5507187612e+01    0.5988773    0.3139927  53.25  0.002058039    2.450    0.592
        80  -7.0009    105.3704     40.2374   4.6782870130e+01   5.2232700784e+01    0.1388944   0.08846878  34.14 0.0003047867    1.609    0.379
        81  -8.2393    156.0842     28.9044   3.3495902228e+01   4.2147309604e+01    0.1844854    0.1587957  71.42 0.0004069784    1.052    0.050
        82  -8.9200    154.0287    246.6460   8.2869810048e+01   3.1050005527e-01    0.2221204    0.1965405 -20.13 0.0003120763    1.159    0.137
        83  -7.5507    105.5172     15.4865   3.8587842414e+01   5.4873794643e+01    0.1261106    0.1041261  51.82 5.475299e-05    1.009    0.009
        84  -8.4169    154.9957    242.0454   8.1947972998e+01   1.0274313543e+00     0.206505    0.1780296 -22.03 0.0003029983    1.164    0.141
        85 -11.6563     41.4116    238.0633   1.0742084983e+02   1.7466520807e+01      2.69295    0.8115913  19.63  0.005663137   12.320    0.919
