#   1 NUMBER                 Running object number                                     
#   2 MAG_AUTO               Kron-like elliptical aperture magnitude                    [mag]
#   3 X_IMAGE                Object position along x                                    [pixel]
#   4 Y_IMAGE                Object position along y                                    [pixel]
#   5 X_WORLD                Barycenter position along world x axis                     [deg]
#   6 Y_WORLD                Barycenter position along world y axis                     [deg]
#   7 A_WORLD                Profile RMS along major axis (world units)                 [deg]
#   8 B_WORLD                Profile RMS along minor axis (world units)                 [deg]
#   9 THETA_WORLD            Position angle (CCW/world-x)                               [deg]
#  10 FWHM_WORLD             FWHM assuming a gaussian core                              [deg]
#  11 ELONGATION             A_IMAGE/B_IMAGE                                           
#  12 ELLIPTICITY            1 - B_IMAGE/A_IMAGE                                       
         1 -11.8014     72.4751     27.8887   5.2868474879e+01   6.3757630133e+01     1.017356    0.8654549  47.77  0.005499837    1.154    0.133
         2 -11.0300     18.4260     28.6048   8.4876405610e+01   7.2464628859e+01    0.6632295    0.3100637 -65.48  0.001140497    2.146    0.534
         3 -10.7038    131.4839     22.3512   3.4107232173e+01   4.9524824319e+01    0.5942092    0.3384013 -20.63  0.001938022    1.943    0.485
         4 -10.0672     40.8848     21.2958   6.5378887079e+01   7.1155308014e+01     0.434126    0.3847913 -80.40  0.001767044    1.477    0.323
         5 -10.6372     35.5964     18.0762   6.6966043064e+01   7.2619141175e+01    0.4391609    0.2830639  22.09  0.001667517    1.703    0.413
         6 -10.8166     50.4133     22.2793   6.0306690791e+01   6.9288420988e+01    0.4730875    0.3146982  26.51  0.002122119    1.659    0.397
         7 -11.9854    105.0242     21.1635   3.9120375898e+01   5.6723227204e+01    0.4506965    0.3476613  -1.95 0.0004235393    1.526    0.344
         8 -11.0989    182.4226     18.2426   2.6029845540e+01   3.6736523087e+01    0.2843709    0.2597677  49.50 0.0003626646    1.242    0.195
         9  -9.1320    184.3685     13.0423   2.4296129932e+01   3.6786278358e+01    0.2868758    0.2142711  48.78  0.001134217    1.536    0.349
        10 -11.0092    175.5814     13.8729   2.5346871616e+01   3.8881317652e+01    0.7287181    0.6060148  17.08  0.004146582    1.476    0.322
        11  -8.4924    170.4719     12.5218   2.5416122753e+01   4.0306963547e+01     0.183009    0.1355479  -4.99 -1.791414e-05    1.611    0.379
        12 -11.1043     61.7484     22.2029   5.4496055256e+01   6.7035601437e+01    0.5264793    0.4510157 -85.60  0.001357038    1.519    0.342
        13 -10.2892     63.7156     15.9283   4.9967252183e+01   6.7590188688e+01     0.900512    0.4047524  55.14  0.003615097    2.270    0.560
        14 -10.6043     79.3502      4.3628   3.7370158451e+01   6.5293766160e+01    0.2538499    0.2401109 -28.45  0.000438701    1.131    0.116
        15 -10.6238     72.7952     15.7720   4.6177733675e+01   6.5530253086e+01    0.4976461    0.3754021 -59.87  0.002312622    1.652    0.395
        16 -11.2647     69.4328     11.4765   4.4949937736e+01   6.6896640876e+01    0.4234997    0.2690221  53.47 0.0008931745    1.485    0.327
        17  -8.7893    152.7941     13.6177   2.7717308085e+01   4.4788338251e+01    0.3153076    0.1704286 -61.77 0.0007662113    2.042    0.510
        18 -10.7144    151.8532     18.1150   2.9418558600e+01   4.4567484790e+01     0.312106    0.2865016 -44.36 0.0002750427    1.091    0.083
        19 -10.4405    225.4023     16.8135   2.2283562191e+01   2.7091884005e+01    0.4131945    0.2608154  19.42 0.0006981953    2.507    0.601
        20  -9.9488    143.9646     16.7878   3.0015496208e+01   4.6805931194e+01    0.4139854    0.2538086 -64.27  0.001384623    1.796    0.443
        21 -10.2877    166.3331     18.1361   2.7664868655e+01   4.0791647693e+01    0.4127516    0.2345449  47.97  0.001398902    1.975    0.494
        22 -10.9562     74.1281      3.4023   3.8401564988e+01   6.6700966075e+01    0.8409793    0.4548225 -10.19  0.003636626    2.243    0.554
        23  -9.6225    210.4395     13.9937   2.2552960914e+01   3.0597017637e+01    0.3243321    0.2028521 -17.09  0.001741018    1.703    0.413
        24  -9.3419    211.3039      9.5401   2.1324398856e+01   3.0833091246e+01    0.2868255    0.1715057 -19.36  0.001102474    1.719    0.418
        25 -10.8614    207.8796      3.7532   2.0006209034e+01   3.2132238832e+01    0.5095305    0.2220594 -53.35  0.002395549    2.047    0.511
        26 -10.6959      6.7564      8.7662   8.6180584007e+01   7.7848179603e+01    0.6124984    0.3472559  31.28  0.002343508    1.936    0.483
        27  -9.4703      1.0000      8.8886   9.2295282837e+01   7.8147897608e+01    0.4548554     0.155264 -78.69  0.001478515    4.258    0.765
        28 -11.1826      5.8464     16.1559   9.0450785990e+01   7.6252247847e+01    0.3978134    0.3594127  29.09  0.001635174    1.270    0.213
        29 -10.5678      9.4776     15.4420   8.6761069076e+01   7.6182257901e+01    0.3573638    0.2718348 -28.82  0.001912306    1.215    0.177
        30 -11.3736    116.0174     15.0063   3.3947684587e+01   5.4525608435e+01     0.496067     0.334328 -77.81 0.0009025062    1.733    0.423
        31  -9.4710    127.2860     15.1693   3.1965932612e+01   5.1466975688e+01    0.5504246      0.22951 -12.98  0.001875145    3.344    0.701
        32 -10.0406    124.9046     11.7182   3.0945777021e+01   5.2472704968e+01    0.4024258    0.2786868  87.80 0.0008406582    1.486    0.327
        33 -11.5125    132.7609     12.5673   3.0044884801e+01   5.0259557580e+01    0.3476679    0.3228206 -35.28 0.0004035993    1.127    0.112
        34  -9.8649    195.1331      3.7452   2.0789782003e+01   3.5072089744e+01    0.3916987    0.2258622 -86.23  0.001734314    1.750    0.429
        35  -9.6566    199.3350      2.3502   2.0135895976e+01   3.4212235200e+01    0.4129005    0.1280666  56.56  0.001560385    3.610    0.723
        36  -9.3342    191.6068     11.3571   2.3208402003e+01   3.5201071329e+01    0.3425967    0.2227262 -26.89  0.001116297    1.479    0.324
        37  -9.5842    190.5135      7.1277   2.2073079381e+01   3.5863022617e+01    0.3362246    0.2408592  80.93  0.001187005    1.393    0.282
        38  -9.2704     85.5253     14.1844   4.0990387603e+01   6.2623456114e+01    0.3224891    0.1967466  40.84 0.0006369927    1.674    0.403
        39  -9.7658    243.9941     13.7280   2.0477271096e+01   2.3662417781e+01    0.3558581    0.1912853  35.30  0.001737443    3.234    0.691
        40  -9.1633    247.4129      7.7547   1.8952741629e+01   2.3565760495e+01    0.2673153   0.09707116 -22.16 0.0008910841    2.596    0.615
        41 -10.4243     31.2870     12.1372   6.6293775203e+01   7.4397334397e+01    0.4460488    0.3483068  29.83  0.001839506    1.281    0.220
        42  -8.7330     46.4572      4.4264   5.0867192776e+01   7.2908204273e+01    0.2042933    0.1296902 -27.53 0.0001512782    1.597    0.374
        43 -10.6072     37.9956      4.6535   5.6178129299e+01   7.4523238208e+01    0.3349104      0.29755  -6.51  0.000784136    1.054    0.051
        44  -9.9003     42.2576      1.3420   5.0933783381e+01   7.4174826603e+01    0.3565423    0.1261746  50.77 0.0009556863    2.761    0.638
        45  -9.4437    219.4629     11.2168   2.1251099365e+01   2.8892408751e+01     0.417345     0.142701 -50.55  0.001775648    2.574    0.611
        46  -9.0356    198.4318     10.0080   2.2316396185e+01   3.3719357960e+01    0.2329186      0.16679  57.75 0.0007081066    1.565    0.361
        47 -11.0276    106.7153      6.0534   3.1697563729e+01   5.7950379231e+01    0.6303471    0.4878717  -9.50  0.003298931    1.441    0.306
        48  -9.9524     97.0008     12.9569   3.7199042137e+01   5.9815476722e+01    0.2545816    0.2217973  31.44 0.0004337499    1.184    0.155
        49 -10.9977    101.3966     11.1633   3.5269081663e+01   5.8854903107e+01    0.3533925    0.3032225 -82.63 9.525542e-05    1.226    0.185
        50  -8.7538    166.2285      9.7493   2.4937091594e+01   4.1662212547e+01    0.1858153    0.1552618  43.42 0.0008186693    1.360    0.265
        51  -9.7056     91.5293      8.8662   3.6502209553e+01   6.1695370271e+01     0.542801    0.2104636  55.84   0.00207585    2.235    0.553
        52  -8.3063     87.5921      6.5146   3.6276660030e+01   6.2964159610e+01    0.2173539    0.1875117  77.60 0.0006571079    1.174    0.148
        53  -9.7228     54.9376      8.9832   4.9648235691e+01   7.0501809613e+01     0.386087    0.2951277 -84.82   0.00171065    1.999    0.500
        54  -8.9487     44.2027      9.7306   5.5968171739e+01   7.2576741734e+01    0.2555709    0.1645724  -7.33  0.001189956    2.055    0.513
        55 -12.0529    156.0598      3.5700   2.3856435722e+01   4.4874653208e+01    0.6051128    0.2557411  52.94 0.0004099036    2.465    0.594
        56 -12.1230    159.9887      1.7860   2.2879000954e+01   4.4000116271e+01    0.5060041    0.3550917 -64.79  0.001437594    1.357    0.263
        57  -9.0025     48.6342      7.9789   5.2215406991e+01   7.1964121834e+01    0.1927352    0.1652893 -20.29  0.001121335    1.158    0.137
        58  -9.1297     16.0070      7.9960   7.6487534721e+01   7.7193812826e+01    0.1801424    0.1566239  72.33 0.0006167038    1.597    0.374
        59  -9.5509    170.7579      6.5633   2.3487056376e+01   4.0801440007e+01    0.2784922    0.2036882  34.20 0.0006778163    1.686    0.407
        60 -10.0286    123.8452      6.4049   2.8893509802e+01   5.3276993647e+01    0.3555264    0.2879977  86.92  0.001031903    1.186    0.157
        61  -8.4121    117.5252      7.5689   3.0417280164e+01   5.4883621978e+01    0.1447906    0.1326196  64.44 0.0001951049    1.049    0.046
        62  -9.1553     22.5989      1.3758   6.5472434936e+01   7.7601821590e+01    0.2765778    0.1111666  41.63  0.001172272    2.686    0.628
        63 -10.3486     13.3390      2.9191   7.5674141705e+01   7.8485991809e+01     0.294009    0.2233979 -53.73  0.001776061    1.380    0.276
        64  -9.2211     17.7204      2.4070   7.0869274108e+01   7.8076586989e+01    0.2680979    0.1898762 -17.63 0.0008891207    1.431    0.301
        65 -10.0160     24.5349      6.9944   6.8098607738e+01   7.6329358960e+01    0.2224237    0.2046493 -85.28 0.0004555648    1.491    0.329
        66 -10.3448     21.0419      5.5445   7.0105492051e+01   7.7070164664e+01    0.2618815    0.2150829  12.13 0.0008988036    1.180    0.153
        67  -9.4826    230.0885      4.7473   1.9070822225e+01   2.7261378513e+01    0.2711302    0.1610389 -46.92  0.001191337    1.352    0.261
        68  -9.4959    232.6936      2.3701   1.8378294467e+01   2.6942647591e+01    0.2459772    0.1347217 -57.39  0.001401568    1.590    0.371
        69  -8.8996     98.8786      5.5302   3.3053778920e+01   6.0098326190e+01    0.2440592    0.1843785  32.44 0.0009530425    1.410    0.291
        70 -11.7957    218.3999      3.1660   1.9273411178e+01   2.9865345639e+01    0.2671784    0.2191064 -56.62 0.0003218059    1.043    0.041
        71  -9.8672    238.6918      3.1876   1.8300137698e+01   2.5667945210e+01    0.2227416    0.1683676 -63.24  0.000638811    1.192    0.161
        72  -9.9400    135.3457      2.3053   2.5651351895e+01   5.0519130358e+01     0.380511    0.2604552 -68.18  0.001895392    1.489    0.328
        73 -10.2425    115.6050      2.1345   2.8329449803e+01   5.5897588580e+01    0.2836013    0.2262057  32.75 0.0003741618    1.365    0.267
        74  -9.0418    142.9765      2.7110   2.4914793680e+01   4.8427441085e+01    0.2357592    0.1847364  30.47 0.0007166183    1.490    0.329
        75  -9.9024     30.9263      2.8827   5.9806722346e+01   7.6045987905e+01    0.2893519    0.1708919 -46.26  0.001119664    1.906    0.475
        76 -10.4231     92.4931      2.6373   3.2988190292e+01   6.2062081432e+01    0.4791737     0.255469  80.76  0.001542067    2.118    0.528
        77 -10.9624    249.8828      1.5779   1.7467225522e+01   2.3653514938e+01    0.1730222    0.1318438 -69.39 0.0003450169    1.264    0.209
        78  -9.8768    179.5531      2.0044   2.1359463001e+01   3.8998421588e+01    0.4265559    0.1923644  82.08  0.001800331    2.207    0.547
        79  -7.7768     54.6927      2.2978   4.5140465418e+01   7.1418227378e+01    0.1299578    0.1072255 -68.46 0.0007005837    1.591    0.372
        80  -9.1272      5.1973      1.7860   8.3897109424e+01   7.9447966500e+01    0.2399606    0.1576799  -6.07  0.001161446    1.563    0.360
        81  -9.0386    126.5472      1.4431   2.6431505012e+01   5.2979345382e+01    0.2758421     0.130099  73.48 0.0004990477    1.957    0.489
        82 -10.4714      9.8189    114.4785   1.0442442837e+02   5.1046974198e+01    0.5436823    0.2243087  67.03  0.002240337    2.516    0.603
        83 -10.3081    201.7779    249.0980   7.2699792364e+01   1.7187259110e+00    0.3102124    0.1665134   1.74  0.001398589    1.948    0.487
        84 -10.4832    115.9479    248.4012   8.8327141498e+01   1.1756100464e+01    0.2446465    0.1838027  26.85  0.001722545    1.056    0.053
        85  -9.4482     13.7817    113.3708   1.0289429782e+02   5.1074909141e+01    0.2425031    0.2051896  15.93 0.0007108863    1.330    0.248
        86  -9.0971     36.7121    116.2870   9.4784616565e+01   4.8386428109e+01    0.2157961    0.1786606  71.05 0.0003518489    1.146    0.127
        87  -9.5047     33.5692    114.4869   9.5707220999e+01   4.9163803088e+01    0.2120061    0.1751317  23.91 0.0005537221    1.295    0.228
        88  -8.9346    104.0195    115.4531   7.1809294028e+01   3.8602934795e+01    0.2253952    0.1444506  38.77 0.0003716402    1.513    0.339
        89  -9.1403     81.9911    115.2204   7.8696486033e+01   4.2559828594e+01    0.4169485    0.1797521  24.97  0.001367429    3.211    0.689
        90  -8.9492     46.5096    113.8600   9.0864385395e+01   4.7944127006e+01    0.2436982    0.1811989  55.05 0.0009025954    1.325    0.245
        91  -8.4537     61.3157    113.3397   8.5427262606e+01   4.6183512787e+01    0.1504003    0.1103372 -30.18 0.0007048082    1.704    0.413
        92  -9.3987     36.2678    100.4541   9.2706491282e+01   5.2555652412e+01    0.4522599    0.1904164 -35.29  0.001457001    4.051    0.753
        93 -10.8769     37.0475    109.1506   9.3695664280e+01   5.0203047968e+01    0.4915519    0.2117826 -72.19  0.001026459    2.228    0.551
        94 -10.6182     31.7410    106.2344   9.5331943663e+01   5.1486375619e+01    0.4768551    0.2981339  -6.44  0.001646632    2.209    0.547
        95  -9.9979      4.8517    110.8027   1.0600232330e+02   5.2275396434e+01     0.331551    0.1615402 -53.00 0.0007654338    2.150    0.535
        96  -9.4505     91.5155    107.2671   7.3789466241e+01   4.2815040110e+01    0.3321969    0.2328366 -22.77 0.0009455032    1.985    0.496
        97 -10.9074     57.1270     99.8484   8.4360156468e+01   5.0205743270e+01    0.7662545    0.3255149 -39.59  0.002506783    3.502    0.714
        98  -8.7452    161.2876    103.7454   5.4218905506e+01   2.9233853889e+01    0.1913936      0.16233  11.31  0.000381159    1.274    0.215
        99  -9.3996    142.1714    103.7711   5.8544787147e+01   3.3321016891e+01     0.240817    0.2367062  57.85 0.0005578499    1.062    0.058
       100  -9.0129     41.0340    103.6732   9.1329405490e+01   5.1208018664e+01    0.2430554    0.1850976  84.01 0.0006493616    1.333    0.250
       101  -9.9485    221.2312    119.4212   4.7301850672e+01   1.5187014549e+01    0.2770594    0.2140026  26.58 0.0006597356    1.350    0.259
       102  -9.1062    100.6777    102.9652   6.9802884439e+01   4.2094564924e+01    0.2159748    0.2010265 -57.81 0.0005252233    1.096    0.088
       103 -10.1957     71.2216    102.5168   7.9662371004e+01   4.7437068041e+01    0.2812033    0.2093568 -62.28 0.0008573115    1.346    0.257
       104  -9.6889     65.9510    102.2242   8.1527717825e+01   4.8326280655e+01    0.2814542    0.2202254   4.92  0.001375435    1.585    0.369
       105 -11.5088    117.7110     98.0811   6.3423460148e+01   3.9714143315e+01    0.3063795    0.2918195 -26.29 0.0003719789    1.082    0.076
       106  -9.9499    105.5779     99.6990   6.7436594773e+01   4.1866020515e+01    0.3953241    0.2854643   0.08  0.001652578    2.100    0.524
       107  -9.7832     50.3002    100.0024   8.7047867771e+01   5.1068601112e+01    0.2953149    0.2349196 -28.61 0.0007080825    1.480    0.324
       108  -9.9515     45.5133     99.7209   8.8886857239e+01   5.1727609735e+01     0.383397    0.2240177  28.56  0.001175477    1.748    0.428
       109  -8.3364     23.4779    100.4850   9.7867241246e+01   5.3715173988e+01    0.1381164    0.1238252  81.52 0.0002084915    1.029    0.028
       110  -8.8744    100.5245     98.4284   6.8671772831e+01   4.3161672841e+01    0.2798426    0.1395734 -39.52  0.001032847    2.314    0.568
       111  -9.1057     16.4935     98.8597   1.0051509171e+02   5.4661947931e+01    0.2041824    0.1226851 -80.27 0.0008486781    1.520    0.342
       112 -10.1569    124.8533     96.9422   6.1132817511e+01   3.8427197210e+01    0.4543024    0.2695072  61.78  0.001786349    2.201    0.546
       113  -8.7376      9.2208     98.4054   1.0342542829e+02   5.5236138304e+01    0.1833117    0.1335505  16.30 0.0004907217    1.529    0.346
       114  -8.7068      4.7625     97.9867   1.0519351535e+02   5.5581894965e+01    0.2688783    0.1682662  22.63  0.001430813    1.710    0.415
       115  -9.7435    141.0535     96.0400   5.6743394704e+01   3.5062310771e+01    0.2393659    0.2269505   2.54  0.001108574    1.077    0.072
       116  -9.7364    133.7107     92.3928   5.7543717978e+01   3.7403504734e+01    0.5016284    0.2839773  29.41   0.00170353    2.434    0.589
       117 -10.3027     85.8719     95.8708   7.2850273774e+01   4.6555163805e+01     0.662871     0.258229  32.21   0.00215111    3.033    0.670
       118  -9.6710     42.0701     95.3826   8.9490337694e+01   5.3258350207e+01    0.2586961    0.1960354 -80.27 0.0004532185    1.300    0.231
       119 -10.8086     31.9601     93.0053   9.3302091664e+01   5.4938385955e+01     0.469365    0.3515951 -60.73  0.002094537    1.269    0.212
       120  -9.9689     23.7792     93.8989   9.6898259126e+01   5.5423063073e+01     0.391447    0.2207887  81.07  0.001770833    1.928    0.481
       121 -10.8347     26.0852     87.0981   9.4912192501e+01   5.7024650035e+01    0.4799888    0.4118282 -11.75   0.00112436    1.334    0.250
       122  -8.8122      3.5700     79.0507   1.0418240505e+02   6.0568346955e+01    0.3575375     0.168886 -65.21 0.0006040323    1.827    0.453
       123  -9.7069      2.2030     92.2103   1.0583546666e+02   5.7199949517e+01    0.4793538    0.1924137  60.01  0.001812198    2.584    0.613
       124 -10.0207      2.4193     85.6874   1.0526204438e+02   5.8886458429e+01     0.412977    0.2233675 -80.92  0.001833435    1.620    0.383
       125 -10.1596     47.8429     92.6654   8.6589140854e+01   5.3279201906e+01    0.4010475    0.2784398  45.43  0.001319326    1.458    0.314
       126  -9.8490     44.1432     88.1416   8.7213571160e+01   5.4905702664e+01    0.5734752    0.2275736 -40.30  0.001866218    3.573    0.720
       127  -9.2895     18.8345     81.6794   9.7385454994e+01   5.9018687133e+01    0.5310028    0.4876039 -14.83   0.00323998    1.216    0.178
       128 -10.3625     17.2495     91.2011   9.9341657852e+01   5.6621564498e+01    0.5157865     0.255365 -12.41 0.0006617039    2.986    0.665
       129  -8.6866     13.9895     88.5221   1.0044571689e+02   5.7540652279e+01    0.2436774    0.1630332 -64.96 0.0006450519    1.363    0.266
       130  -9.9019    111.7942     89.6403   6.2771264844e+01   4.2783919967e+01    0.7588828    0.1497131  41.47    0.0017129    5.837    0.829
       131 -10.5520     60.5360     90.1012   8.0857124958e+01   5.2203877157e+01    0.6287085    0.3340611  67.76  0.002109966    3.413    0.707
       132 -10.7917     64.6768     85.9546   7.8166647406e+01   5.2612074152e+01    0.7207093    0.4221373 -34.15  0.002888799    2.234    0.552
       133 -10.1965     70.4962     85.8334   7.5836666161e+01   5.1693681922e+01     0.351048    0.2908309  28.82  0.001469923    1.262    0.208
       134 -10.7192     73.1322     80.0188   7.3179173352e+01   5.2653535588e+01    0.5182309    0.4198485 -41.80  0.001968556    1.271    0.213
       135 -10.6472     81.1059     82.8290   7.0965874015e+01   5.0536013592e+01    0.3687164    0.3054959 -21.90 0.0004587542    1.413    0.292
       136  -9.9407     77.1796     83.3866   7.2593767426e+01   5.1123576682e+01    0.3621859    0.3332252 -19.76 0.0009778304    1.185    0.156
       137  -8.8816     71.1290     91.1610   7.6986172491e+01   5.0275217252e+01    0.2112413    0.1751658  70.78 0.0005072478    1.321    0.243
       138  -9.7428     53.1185     90.7024   8.4002087397e+01   5.3101560370e+01    0.3779231    0.2262762  61.71  0.001456793    2.091    0.522
       139  -8.6560    104.3678     90.2592   6.5210768636e+01   4.4219214766e+01    0.2000183    0.1461319 -57.12 0.0002705315    1.457    0.314
       140  -9.2158     40.1265     88.9710   8.9101445144e+01   5.5152907636e+01    0.3718478    0.1246242 -48.16  0.001243579    3.173    0.685
       141  -9.2569     97.7997     88.8204   6.6897401516e+01   4.5891015404e+01    0.2964628    0.2154382  82.98 0.0005610401    1.959    0.489
       142  -9.6086     86.7722     88.6856   7.0598417434e+01   4.8089360093e+01    0.4073563    0.3175081   7.21  0.001895998    1.661    0.398
       143  -8.6884     86.9685     83.6938   6.9096574716e+01   4.9217533115e+01    0.2097516    0.1959469  45.08 0.0003249684    1.065    0.061
       144 -10.4855    131.1145     84.1309   5.5808943993e+01   3.9612503923e+01    0.5631583    0.3779541  14.01  0.002233877    2.380    0.580
       145 -10.7079    123.8243     86.1978   5.8344582361e+01   4.0856313857e+01    0.5185196    0.3278162  46.15  0.002245726    1.569    0.363
       146 -11.0532    120.5128     84.4898   5.8744597090e+01   4.1947455116e+01    0.6136962    0.3918398  58.73  0.002613423    1.749    0.428
       147 -10.3021    155.2512     85.0791   5.0457831392e+01   3.3887821723e+01    0.3396187    0.2497327  38.84 0.0002831505    1.438    0.305
       148 -11.2974    154.1349     79.5890   4.9112754693e+01   3.5106329862e+01    0.8043135    0.3521691  49.04  0.002495538    2.297    0.565
       149  -9.5839    110.2457     85.4946   6.2014625004e+01   4.4006456719e+01    0.3996183    0.2145289  47.17  0.001202566    1.851    0.460
       150  -9.9303    143.1811     83.2440   5.2604780488e+01   3.6999194621e+01    0.4282058    0.2144503 -37.04  0.001022392    2.003    0.501
       151  -9.2206    138.2028     84.4745   5.4146621400e+01   3.7918402506e+01    0.3380836    0.2406183   8.27  0.001433968    2.073    0.518
       152 -10.8838     38.9187     81.6644   8.8156345469e+01   5.7193964163e+01    0.3445632    0.2797534 -61.24   0.00039218    1.164    0.141
       153 -10.5551     51.6649     82.2482   8.2649985174e+01   5.5465074295e+01    0.3325326    0.3075633 -19.35 0.0008044935    1.175    0.149
       154  -9.0969     59.8729     82.3888   7.9201226009e+01   5.4247751038e+01    0.3046679    0.1211714  40.98  0.001095152    2.505    0.601
       155  -9.2058     93.3090     79.0995   6.5493526581e+01   4.8996186734e+01    0.3751162    0.2733464  -4.11  0.001586503    2.070    0.517
       156  -9.8266    166.8778     77.8573   4.6078516041e+01   3.2441252487e+01    0.2448722    0.2234282 -15.29 0.0003159609    1.116    0.104
       157 -10.0585    169.6887     74.0853   4.4484714774e+01   3.2400199510e+01    0.3180423    0.2650071 -22.67 0.0009461817    1.214    0.177
       158 -11.0106    165.7290     70.4896   4.4165211774e+01   3.3898481639e+01    0.5313771    0.3504321 -17.82  0.001076563    1.785    0.440
       159  -9.7765    144.9366     76.5754   5.0214677590e+01   3.7799201994e+01    0.4189434    0.2702349 -21.50  0.001627606    1.886    0.470
       160  -9.6274    141.5174     75.5785   5.0688523635e+01   3.8788720063e+01    0.2562859    0.2269643  41.63 0.0005848029    1.152    0.132
       161  -8.8104     12.9520     77.9776   9.9641525756e+01   6.0376061788e+01    0.2132253    0.1325324 -48.07  0.000331198    1.592    0.372
       162  -9.2876    134.8460     76.3970   5.2523929052e+01   4.0219268354e+01    0.3643913    0.2278014  76.70 0.0009793469    2.495    0.599
       163 -10.2688    110.1266     74.2480   5.8540441413e+01   4.6389463527e+01    0.6346767    0.3165602 -51.96  0.002352105    2.268    0.559
       164  -9.7577    100.1888     76.3383   6.2323328379e+01   4.8150835267e+01    0.3188482    0.2520712 -38.15 0.0006416479    1.308    0.236
       165 -12.0700     53.0413     75.2276   8.0239411816e+01   5.7051547344e+01    0.3061191    0.2750598 -65.78 0.0002791011    1.084    0.077
       166 -11.0560     51.3248     68.3402   7.9077944383e+01   5.9015448439e+01    0.6395182    0.5116585  43.00   0.00333971    1.294    0.227
       167  -9.6550     47.6443     63.7762   7.9471425581e+01   6.0662693676e+01    0.2815364    0.1606493 -56.33 0.0004746898    1.657    0.396
       168 -10.1052     29.4068     74.7053   9.1169352888e+01   5.9983277657e+01    0.4581721    0.2121999 -50.91  0.001929798    2.038    0.509
       169 -10.2745     15.5418     64.8430   9.6355075404e+01   6.3652866762e+01    0.5912389    0.3235693  -0.86 0.0007684799    2.247    0.555
       170  -9.3231     22.5388     63.5347   9.2359886353e+01   6.3484368021e+01    0.2831495     0.182865 -44.34 0.0009685364    1.521    0.343
       171 -10.0910     30.1080     68.3921   8.9476285489e+01   6.1556644461e+01    0.3617404    0.2706374 -40.43  0.001580002    1.362    0.266
       172 -11.2474     25.1397     67.7413   9.1876166196e+01   6.2178410339e+01     0.394903    0.3248429  15.67 0.0004040231    1.326    0.246
       173 -10.1930     97.6874     64.0068   5.8974555966e+01   5.1294937584e+01    0.2923411    0.2629458 -60.11 0.0002722812    1.158    0.136
       174  -9.5040     93.5278     66.9627   6.1421606942e+01   5.1595700892e+01    0.3457853    0.2519504 -44.96 0.0005947633    1.382    0.276
       175  -9.7936     88.2617     66.8608   6.3241761531e+01   5.2741153504e+01    0.4267105    0.3082689  26.48  0.001752658    1.621    0.383
       176  -9.9550     75.3409     65.9790   6.7853801492e+01   5.5534093674e+01    0.3242511    0.2435564  41.33 0.0007021921    1.337    0.252
       177  -9.7130     77.1487     62.0895   6.5763456992e+01   5.6052506029e+01    0.3405817    0.2825347  -7.31 0.0004298959    1.449    0.310
       178 -10.8595     88.4414     74.0753   6.5598858331e+01   5.1116863718e+01    0.6240502    0.4147215 -28.46 0.0007674042    1.896    0.473
       179 -10.4477     94.7576     72.3385   6.2825713030e+01   5.0180202713e+01    0.3621393     0.327761  60.66 0.0006260267    1.131    0.116
       180  -9.7543     83.5260     65.4375   6.4487169973e+01   5.4032954323e+01    0.3191084    0.2859333 -51.27 0.0008724393    1.122    0.109
       181  -9.9578     82.1557     61.9068   6.3746362130e+01   5.5081887640e+01    0.4899695    0.3192661 -28.50  0.002081837    1.897    0.473
       182  -9.4768     18.7778     72.7450   9.6033367402e+01   6.1370435433e+01    0.3438499    0.2535683 -64.20  0.001725601    1.225    0.184
       183  -7.8208    211.3135     75.3310   3.8406624924e+01   2.3125152089e+01    0.1336533   0.09889019  10.59 0.0007044697    1.677    0.404
       184  -9.6225    174.7208     75.0883   4.3875833783e+01   3.1083865932e+01     0.200245    0.1824999 -30.70 0.0004359546    1.049    0.047
       185  -8.8283     77.8229     74.7941   6.9773384656e+01   5.3036241639e+01    0.2003624    0.1753015  85.43 0.0002398301    1.281    0.219
       186  -9.9269     64.2288     74.6184   7.5208162575e+01   5.5480153024e+01    0.4471336    0.2676224  53.58  0.001780502    1.962    0.490
       187  -8.7039     68.4708     74.5105   7.3410414416e+01   5.4790605577e+01    0.2272695      0.18222 -13.95 0.0007516841    1.537    0.349
       188  -8.8076     44.7876     79.3608   8.4992698703e+01   5.7100407915e+01    0.2935808    0.2386681 -14.52  0.001531819    1.442    0.307
       189  -9.9901    178.0830     73.0636   4.2734021744e+01   3.0630050137e+01     0.442122    0.1929483 -55.45  0.001399966    3.886    0.743
       190  -8.7965    136.7910     72.7504   5.0916065544e+01   4.0427673758e+01    0.2155765    0.1806502 -75.79  0.001059924    1.374    0.272
       191  -9.5330    117.4458     72.4194   5.5817273375e+01   4.5073925886e+01    0.3830546    0.2269676 -43.02  0.001052252    1.697    0.411
       192 -10.4575     32.5608     59.7633   8.6058388538e+01   6.3514472462e+01    0.7679857    0.3698574 -21.01  0.002395685    3.958    0.747
       193 -11.3773      8.5738     51.2162   9.7875366032e+01   6.7562259812e+01    0.7383608    0.6259397  17.52  0.003488454    1.308    0.236
       194 -10.0580     35.5425     53.2672   8.2523514901e+01   6.4800656856e+01    0.4485922    0.2969527  22.99  0.002223771    1.613    0.380
       195 -11.3951      2.3717     66.3204   1.0351444331e+02   6.3929071389e+01    0.5938534    0.2558892 -83.85  0.001223513    2.122    0.529
       196 -11.4273      5.5886     60.8813   1.0113400905e+02   6.5212531441e+01     0.670418    0.3536249  24.24  0.002036665    2.035    0.509
       197  -9.2649     28.6280     52.0267   8.6079274950e+01   6.5859832866e+01    0.1889265    0.1787092  70.64 0.0005263269    1.144    0.126
       198 -10.9105     24.7512     54.5686   8.9022613176e+01   6.5589653150e+01    0.4230769    0.2914945 -65.59 0.0005158338    1.344    0.256
       199 -10.2827     19.4709     54.9996   9.2182392118e+01   6.5915512681e+01    0.4323201    0.2984814  69.66  0.002213811    1.702    0.412
       200 -10.2341    140.8929     68.6649   4.8671555606e+01   4.0167265425e+01    0.3863175    0.2550599 -44.43  0.001346868    1.516    0.340
       201 -10.3952    218.7167     69.8577   3.6123835868e+01   2.2361625365e+01    0.2113945    0.1960131 -35.96 0.0002796809    1.071    0.067
       202  -9.1466    102.1919     69.7035   5.9487180736e+01   4.9113078778e+01    0.2736302    0.2281717 -41.07 0.0009365422    1.215    0.177
       203  -9.1074    105.7188     65.6152   5.6971721124e+01   4.9144306092e+01     0.314417    0.2266593  32.12  0.001414668    1.568    0.362
       204  -9.8093    173.5141     68.8061   4.2299921120e+01   3.2335627471e+01    0.2602231    0.2245384 -80.04 0.0004899296    1.286    0.223
       205  -9.3110    157.1855     68.2102   4.5103202534e+01   3.6301264550e+01    0.2698561    0.2024957 -20.16  0.001304982    1.459    0.315
       206  -9.1673    120.2141     68.3006   5.3687916643e+01   4.5220109883e+01    0.3391917    0.2131167 -51.41  0.001435221    1.725    0.420
       207  -9.2909    248.9441     66.8916   3.2226370079e+01   1.7069804261e+01    0.1735795     0.142075 -27.38 0.0002950888    1.046    0.044
       208  -8.8477     36.0201     67.4861   8.6274411519e+01   6.1177339573e+01    0.2002663    0.1417016  23.36 0.0003994843    1.508    0.337
       209  -8.3026    215.0083     65.9865   3.5605159750e+01   2.3612942009e+01    0.1521624     0.135822 -35.10 0.0009507983    1.021    0.021
       210  -9.1701    125.0850     56.6322   4.8392603675e+01   4.6158161532e+01    0.3217081    0.2432694 -78.27 0.0005227401    1.660    0.397
       211 -11.0499    134.8006     63.6863   4.8457899026e+01   4.2525727364e+01    0.7493048    0.4467019 -51.62  0.001211498    1.862    0.463
       212  -9.3846    129.3255     58.0200   4.7838374893e+01   4.4862657044e+01    0.3264587    0.2547535  85.09  0.001057647    1.509    0.337
       213  -9.9311     64.5892     62.0961   7.1032043252e+01   5.8398060096e+01    0.5471776    0.2782712  31.52   0.00215941    2.178    0.541
       214  -9.5587     71.3601     60.6797   6.7619584874e+01   5.7486365527e+01    0.3899941    0.2668817 -55.32  0.001798708    1.513    0.339
       215  -9.3170    193.3501     61.2771   3.7146058670e+01   2.8885056611e+01    0.3827567     0.182419 -23.84  0.001221998    2.226    0.551
       216  -9.8765     45.5335     69.3438   8.2099940337e+01   5.9558605333e+01     0.288616     0.221328  63.08 0.0006499139    1.491    0.329
       217  -9.7838    101.6189     60.9578   5.6598647770e+01   5.1014502626e+01    0.4826441     0.325058 -80.05  0.001877532    2.457    0.593
       218 -10.4322     53.6054     60.6767   7.5597575705e+01   6.0543605302e+01    0.4333549    0.3173184  76.59  0.001766556    1.852    0.460
       219 -11.9217     56.1513     56.6298   7.2978942998e+01   6.1095857907e+01    0.4543696    0.3397488  67.41 0.0003366522    1.718    0.418
       220  -8.9105     43.6543     61.9589   8.0902563830e+01   6.1649599147e+01    0.2294933     0.162389  26.60   0.00113485    1.489    0.328
       221  -8.7681    176.0144     61.3087   3.9718986562e+01   3.2872018600e+01    0.1968127    0.1856418 -47.98   0.00113169    1.013    0.013
       222  -9.9750    155.3617     60.8245   4.3175457742e+01   3.7930093761e+01    0.3169146    0.2711719  78.63 0.0008718394    1.239    0.193
       223  -9.2259    150.7856     60.8355   4.4071461011e+01   3.9055833938e+01    0.2696989    0.1881762 -30.17 0.0007669886    1.452    0.311
       224  -8.7564    213.0285     59.7769   3.4267815644e+01   2.4821758417e+01    0.1735827    0.1549877 -35.65 0.0002801411    1.020    0.019
       225  -9.2679     94.6616     59.3763   5.8306559551e+01   5.2914296090e+01    0.3289519    0.2299549  21.22  0.001402468    1.920    0.479
       226  -9.4787    142.4944     58.9097   4.5154366947e+01   4.1426913662e+01    0.2817616    0.2005324  41.56 0.0005020046    1.511    0.338
       227 -10.0200    145.1999     68.5833   4.7690396063e+01   3.9136306705e+01    0.6206361    0.2644041 -52.68  0.001973343    3.332    0.700
       228 -10.8455    225.8926     55.4420   3.1793728240e+01   2.2735172701e+01    0.2458307    0.1932316 -45.09 0.0003063447    1.140    0.123
       229  -8.4509    190.0227     57.0668   3.6439935841e+01   3.0214224043e+01    0.1597462    0.1503663 -46.98 0.0002904527    1.026    0.026
       230  -8.4065    206.3250     56.7093   3.4261339991e+01   2.6638006755e+01    0.1382814   0.09252455 -58.46 0.0006020243    1.614    0.380
       231 -10.3367    162.1599     54.6015   3.9991495569e+01   3.7205640346e+01    0.3929253    0.2607777 -63.61  0.001776993    1.795    0.443
       232  -8.7723    136.7974     55.9896   4.5411546371e+01   4.3333226774e+01    0.2487571    0.1781085   4.17  0.001070533    1.986    0.497
       233  -8.8110    116.4949     55.4788   5.0212786527e+01   4.8488454711e+01    0.3383283    0.1508071  54.73   0.00122737    2.229    0.551
       234  -9.1768     92.5353     54.4654   5.7171187231e+01   5.4371539226e+01    0.2675171    0.2541226  33.32  0.000629744    1.058    0.055
       235  -9.4492     95.4763     52.4877   5.5402034712e+01   5.4081108194e+01    0.2706257    0.2540673  40.49 0.0006223576    1.059    0.056
       236  -9.4063     83.9667     53.9399   6.0051163929e+01   5.6372553173e+01    0.3377908    0.2396725 -29.13  0.001496273    1.583    0.368
       237 -10.1895     86.4271     49.2571   5.7262521514e+01   5.6763426650e+01    0.6343622    0.2928575  45.63  0.002403846    2.144    0.534
       238 -11.1603     70.7426     50.2990   6.3903723459e+01   5.9865263072e+01    0.6608436    0.6277377 -20.89  0.003090774    1.056    0.053
       239 -12.9509     61.5662     44.3584   6.5553267301e+01   6.2878329947e+01    0.5711372    0.5342482  59.38 0.0005489685    1.156    0.135
       240 -10.1743     46.7984     47.1043   7.4165583055e+01   6.4762689456e+01    0.3635486    0.2720431   8.49 0.0008596473    1.569    0.363
       241  -9.3408     42.5071     50.4766   7.7745401396e+01   6.4590796142e+01    0.2644149     0.237576 -65.42  0.000887844    1.137    0.120
       242  -8.5124    218.1743     54.1203   3.2263741195e+01   2.4461508433e+01    0.1798217     0.128351 -48.22    0.0004126    1.298    0.230
       243 -10.1744    146.1592     52.7927   4.2365974812e+01   4.1481402070e+01    0.4187532    0.3031989 -55.59  0.001867562    1.472    0.321
       244  -8.2652    211.9778     53.7872   3.2850759566e+01   2.5799515851e+01    0.1548688    0.1073935  66.83 0.0007077461    1.615    0.381
       245  -9.6685    192.5345     51.9398   3.4676911092e+01   3.0325481369e+01    0.3437439    0.2268666 -39.32  0.001763311    1.366    0.268
       246 -10.1072    182.1392     51.6351   3.5986038890e+01   3.2786802833e+01    0.4272484    0.3231334 -85.67  0.001248997    1.503    0.335
       247  -9.2527    151.2987     53.0001   4.1439340952e+01   4.0153493975e+01    0.2094081    0.1917689 -40.66 0.0005811092    1.074    0.069
       248  -9.1954    123.0866     51.3087   4.6974101886e+01   4.7566390746e+01    0.2755489    0.2592031 -67.80  0.001469499    1.080    0.074
       249  -8.7757     48.5170     52.1015   7.5141486911e+01   6.3346930438e+01    0.2206196    0.1370136 -53.13 0.0006834434    1.545    0.353
       250  -9.7142    175.7126     48.9966   3.6125469573e+01   3.4683911405e+01    0.3922382    0.2939173   5.07  0.001275691    1.714    0.417
       251 -10.6848    136.7858     49.4539   4.3150985952e+01   4.4384352589e+01    0.4144038    0.2868879  69.36 0.0002957164    1.525    0.344
       252  -9.7326    141.3361     48.8666   4.1999798567e+01   4.3311882948e+01    0.3438824    0.2519266 -55.15  0.001636372    1.445    0.308
       253  -8.8963     57.2576     50.6905   7.0222728320e+01   6.2269451948e+01    0.2642968    0.1765551 -61.39  0.000931745    1.667    0.400
       254 -10.4604    128.1192     47.9830   4.4549843741e+01   4.6832740354e+01     0.328496     0.304178 -76.49 0.0004536494    1.102    0.092
       255  -9.1421    121.6948     45.3290   4.5088301705e+01   4.8899429153e+01    0.2634069     0.231753 -81.08 0.0007709896    1.212    0.175
       256  -9.3097    125.4933     44.4823   4.3863798230e+01   4.8059143226e+01    0.2924199    0.2489545  74.30 0.0006096062    1.196    0.164
       257  -9.9001    154.5238     47.3123   3.8984666618e+01   4.0181163386e+01    0.3448549     0.300063 -12.30  0.001608112    1.261    0.207
       258  -8.2526     82.2993     26.0774   4.8213921064e+01   6.1771372760e+01    0.2491667    0.1818127  42.74  0.001219444    1.344    0.256
       259  -8.6652    150.6990    249.6592   8.1791534770e+01   7.4867771471e+00    0.1085854   0.06896408   4.88 0.0007037237    1.671    0.402
       260  -9.1567     83.5809     41.2826   5.4920161013e+01   5.8908782688e+01    0.3007381    0.2449547  -3.19 0.0009596454    1.459    0.315
       261 -10.0055     78.3980     34.7496   5.3896166528e+01   6.1253006684e+01    0.3376842    0.2939278 -35.51 0.0006230967    1.168    0.144
       262  -9.7381     81.6114     33.7764   5.2218467490e+01   6.0686765812e+01    0.3732933    0.2607705 -38.74 0.0009437968    1.458    0.314
       263  -9.2267     32.0466     47.4615   8.2646283044e+01   6.6618103290e+01    0.2224871    0.1826004 -54.77 0.0009174198    1.137    0.121
       264  -9.3224     22.9645     46.6712   8.7911328477e+01   6.7723880693e+01    0.3632604    0.2756811  31.42  0.002014075    1.412    0.292
       265  -8.8541    234.9621     47.1697   2.8945594786e+01   2.1921219293e+01    0.1828036    0.1363979 -49.97 0.0004571946    1.224    0.183
       266  -9.6763    145.6078     46.3191   4.0283195547e+01   4.2600285899e+01    0.2651408     0.247251 -82.13 0.0005661824    1.064    0.061
       267  -9.9698     17.0653     46.3832   9.1532116678e+01   6.8270494696e+01    0.3796725    0.2249761 -60.43 0.0008778216    1.478    0.324
       268 -11.0831     13.6182     37.8021   9.1486460540e+01   7.0636461294e+01    0.7556608    0.5173631 -66.72  0.003303614    1.343    0.255
       269 -11.4362      7.2487     35.8782   9.5490842894e+01   7.1478497175e+01    0.5024599    0.4310464 -54.65  0.002117289    1.020    0.020
       270  -9.6488      4.2987     32.1466   9.6753401612e+01   7.2528449218e+01    0.3782811    0.2027151 -51.49 0.0009736699    1.580    0.367
       271 -11.1137      9.5547     31.5436   9.2616342994e+01   7.2414331489e+01    0.2895182    0.2676257  10.46  3.55153e-05    1.186    0.157
       272  -9.1045    164.7041     46.4576   3.7013061176e+01   3.7739796013e+01    0.3208774    0.1114454  53.98    0.0011265    2.811    0.644
       273  -9.8216    115.3561     45.3646   4.6703467551e+01   5.0506113458e+01    0.4075749    0.2561895  55.00  0.001280446    1.546    0.353
       274  -9.5134     43.8021     54.1974   7.8345593064e+01   6.3524966179e+01    0.3126562    0.2229877  64.01  0.001493112    1.808    0.447
       275  -9.1399     37.9923     46.2978   7.8763915071e+01   6.6179841608e+01    0.1924855    0.1758631  22.81 0.0004848515    1.140    0.123
       276  -8.6069      3.7060     45.7047   9.9935838219e+01   6.9173598787e+01     0.166883    0.1383445  74.74 0.0002466976    1.274    0.215
       277  -8.8561      2.4976     42.5760   1.0018315082e+02   7.0006041924e+01    0.2068156    0.1615203  26.30 0.0005383528    1.439    0.305
       278  -8.7745    245.8813     44.7419   2.7477549100e+01   2.0125911823e+01    0.1957402    0.1126341 -60.95  0.001077887    1.932    0.483
       279  -9.5175    185.2677     43.9085   3.3320404066e+01   3.3062275995e+01    0.2604162    0.1941845  52.11 0.0008884898    1.454    0.312
       280  -8.8232    179.9238     44.2899   3.4131221276e+01   3.4292306078e+01    0.2818243    0.1580297 -79.35  0.001134516    2.576    0.612
       281  -9.3071    103.8294     41.7020   4.8422477619e+01   5.4003999451e+01    0.5224001    0.2810615 -46.23   0.00210243    1.991    0.498
       282  -9.4380    108.1741     43.6303   4.7964580071e+01   5.2600007166e+01    0.3320971    0.2485358  24.46  0.001101154    1.629    0.386
       283  -9.5402    108.4995     40.4950   4.6600468484e+01   5.3032079957e+01    0.2580386    0.2265436  75.31 0.0005948034    1.176    0.149
       284  -9.1597    201.1151     43.0309   3.1199004400e+01   2.9503573908e+01    0.2291491    0.1905881  62.71  0.001353569    1.314    0.239
       285  -8.6956     79.7971     19.8148   4.5857472830e+01   6.3294872233e+01    0.2219376    0.1757435 -74.28 0.0006402457    1.597    0.374
       286  -9.7588     89.5149     26.7905   4.6140616626e+01   5.9909957478e+01    0.6385487    0.1451942 -32.04  0.001755965    4.494    0.777
       287 -10.9087     85.9169     22.1566   4.5009508727e+01   6.1470253216e+01    0.4270448    0.2819356  77.27 0.0005731786    1.907    0.476
       288 -10.6467     86.1366     37.0444   5.2095316782e+01   5.9073155137e+01     1.099908    0.6345878 -74.22  0.003205543    4.889    0.795
       289  -9.5048     87.4578     32.9929   4.9769210744e+01   5.9441279037e+01    0.3307775    0.2353171  43.85 0.0007479092    1.386    0.279
       290  -8.9392     71.6961     42.4452   6.0160422926e+01   6.1272954687e+01    0.2496854    0.1811346 -17.05 0.0007669501    1.719    0.418
       291  -9.4338     45.2058     42.9864   7.3389391166e+01   6.5937799776e+01    0.2870926      0.20748 -10.94 0.0009666612    1.733    0.423
       292 -10.0673     27.9985     42.7185   8.3505111236e+01   6.8202709279e+01    0.2217262    0.1984633 -50.89 0.0002576351    1.042    0.041
       293 -10.1582    144.3543     41.1173   3.8718431271e+01   4.3674678936e+01    0.3366452    0.2677925  72.93 0.0008528488    1.268    0.211
       294  -8.8243     35.1083     41.6798   7.8733478034e+01   6.7630297802e+01     0.226652    0.1498684 -16.82  0.001058778    1.906    0.475
       295 -10.1520    228.5691     39.1672   2.7560917232e+01   2.4087545855e+01    0.3260155    0.2108252 -27.03  0.001151404    1.374    0.272
       296  -9.5873    222.6726     40.7845   2.8472718562e+01   2.5109983405e+01    0.2138873    0.1819973 -51.38 0.0004025165    1.078    0.073
       297  -9.8197     51.3151     40.3487   6.8943374825e+01   6.5546304689e+01    0.3604702    0.2813978  -4.04   0.00140985    1.517    0.341
       298  -9.3081    203.8023     39.3616   2.9917004526e+01   2.9340478209e+01    0.2292994    0.1551116 -41.84 0.0006011457    1.298    0.230
       299  -9.2479    125.4651     30.6845   3.8549171068e+01   5.0075833677e+01    0.3008216    0.2091237  43.00 0.0002054811    1.526    0.345
       300  -9.3477    129.2945     32.4168   3.8439378708e+01   4.8828849840e+01    0.4831666    0.1532923 -29.76  0.001566351    3.118    0.679
       301  -9.5900    129.0434     40.4723   4.1559495476e+01   4.7750914527e+01    0.4053394    0.2251335  67.50  0.001325192    1.901    0.474
       302  -9.1428    130.7804     36.7895   3.9803935243e+01   4.7831026590e+01    0.3549854    0.2401814  28.26  0.001111505    1.899    0.473
       303  -9.6759     25.3858     38.1800   8.3585899636e+01   6.9556302937e+01    0.5091447    0.2396209 -28.06  0.001926923    3.043    0.671
       304  -9.2573    158.4990     39.0299   3.5594187593e+01   4.0315008824e+01    0.2659274    0.1942189 -81.53 0.0006168386    1.527    0.345
       305  -9.2033    199.4895     36.7458   2.9649660232e+01   3.0624372653e+01    0.3504521    0.2137033  43.62  0.001722535    2.009    0.502
       306  -9.7308    178.0809     37.4476   3.2320241433e+01   3.5610765030e+01    0.3033625    0.2413758 -72.99 0.0007941963    1.287    0.223
       307  -8.6895    148.8965     38.1458   3.6874089562e+01   4.2907514241e+01    0.2682492    0.2059074  63.94 0.0007613592    1.288    0.224
       308  -9.5391    153.5399     37.1211   3.5747747505e+01   4.1842356324e+01    0.3035212    0.2119234  69.11  0.000415455    1.435    0.303
       309 -10.5905    113.7611     35.2273   4.3056688018e+01   5.2501672253e+01    0.6840782     0.448595 -47.80  0.002844829    1.616    0.381
       310 -12.2011    107.8530     29.3893   4.2080645501e+01   5.4880048254e+01    0.5340852    0.4172129  20.43  0.001255442    1.514    0.340
       311  -9.9534     97.6448     35.0086   4.7402276727e+01   5.6630652366e+01     0.303406    0.2246059  44.68 0.0004287052    1.339    0.253
       312  -9.5365    238.1619     36.6402   2.6188622895e+01   2.2467274532e+01    0.3423137     0.158746 -60.94  0.001603137    2.577    0.612
       313  -9.6416    225.5313     33.9705   2.6530900201e+01   2.5280521432e+01     0.366949     0.257932  43.86  0.002051414    1.782    0.439
       314  -9.7262     56.8124     35.8572   6.4026356540e+01   6.5508751598e+01    0.2907651    0.2397552 -62.34 0.0003122739    1.400    0.286
       315  -9.2120     46.9437     34.5104   6.8665809225e+01   6.7509626526e+01    0.3946788    0.1921541  45.32  0.001563682    2.271    0.560
       316  -9.3851     51.2015     32.6130   6.5385934255e+01   6.7174701619e+01    0.3156127    0.2134798  29.18  0.001135146    1.562    0.360
       317  -8.6192     54.6428     31.6939   6.3097744775e+01   6.6734198947e+01    0.3123086    0.2005122 -27.04 0.0008160602    1.796    0.443
       318  -9.5169     60.9042     34.5605   6.1381308204e+01   6.4985429093e+01    0.2572643    0.2005296 -47.22 0.0001772283    1.321    0.243
       319  -8.5377     56.9374    249.0853   1.0016391134e+02   1.8227819531e+01    0.1283871    0.1012357  29.32            0    1.210    0.173
       320  -9.4506     17.8838     22.1673   8.2558499701e+01   7.3982532797e+01    0.1879282    0.1725253 -32.39 0.0002750218    1.043    0.041
       321  -8.5499    242.4297     34.4859   2.5370564655e+01   2.1877748363e+01    0.1218796   0.09726624 -39.56 4.011413e-05    1.010    0.010
       322  -8.7452    190.0412     32.9312   2.9577739590e+01   3.3270914678e+01    0.1639889    0.1491908 -69.66 0.0009840832    1.064    0.061
       323 -10.2350    248.0166     30.8517   2.4153721795e+01   2.1205349582e+01    0.3118833    0.1764358 -24.34 0.0009482137    1.570    0.363
       324 -10.2352    233.7479     30.8615   2.5140651309e+01   2.3951253124e+01    0.3236199    0.1964111  55.41 0.0005157365    1.966    0.491
       325  -9.5556    153.0975     31.7342   3.3980295455e+01   4.2651839552e+01    0.4387805    0.2212996 -78.83  0.001356665    3.234    0.691
       326 -11.3799    145.5185     28.7575   3.4133524374e+01   4.5010483870e+01    0.6249882    0.4103827  46.13  0.001067149    1.635    0.388
       327 -10.4725    133.5763     30.9432   3.7035960657e+01   4.7892350299e+01    0.4498124    0.3853913 -52.69  0.001856916    1.170    0.145
       328  -8.9405      1.4670    243.9429   1.1095266855e+02   2.4125788001e+01    0.1320651   0.08510088  76.35 0.0004122904    1.518    0.341
       329  -9.3504    119.2521     31.4196   4.0192762748e+01   5.1615253054e+01     0.281574    0.2183279  20.83 0.0009898759    1.554    0.357
       330  -9.0211     93.8436     38.1519   4.9980332268e+01   5.7048301088e+01    0.2043238    0.1739168  12.79   0.00103091    1.330    0.248
       331 -11.2260     78.2450     45.0184   5.8594889302e+01   5.9384335328e+01    0.9781566     0.490437 -44.45  0.002345338    2.024    0.506
       332  -9.7941     24.2930     31.2772   8.1665209961e+01   7.1282031115e+01    0.2867929     0.275423  34.27  0.001302314    1.162    0.140
       333  -8.1666    203.4608     31.4269   2.7798467627e+01   3.0332908864e+01    0.1334968    0.1145904 -51.35 0.0001229386    1.035    0.034
       334  -9.6674    178.8354     29.2265   2.9733044259e+01   3.6412515356e+01    0.3271411     0.254967  44.33  0.001341368    1.462    0.316
       335  -8.8704     94.0825     29.7547   4.6111024850e+01   5.8332652656e+01    0.2404283    0.1901956  76.92  0.001185277    1.408    0.290
       336  -8.9406     41.4981     29.3360   6.9339012833e+01   6.9457650720e+01    0.2955763    0.1792732 -21.64  0.001278575    2.240    0.554
       337  -8.8572    211.9308     26.9054   2.5840554380e+01   2.8940964941e+01    0.2383021    0.1427637 -31.21  0.001265434    1.461    0.315
       338  -8.6266    189.9497     28.4656   2.8297952402e+01   3.3805134258e+01    0.1971224    0.1312088  74.18 0.0005515647    1.559    0.359
       339  -8.5303    173.9281     28.3401   3.0036103854e+01   3.7733744917e+01    0.1863018    0.1736014  87.79 0.0004549298    1.081    0.075
       340  -8.9294     26.5198     22.2466   7.5853901801e+01   7.3034875174e+01    0.2937915    0.1462816 -51.84  0.000764987    1.877    0.467
       341  -9.7057     44.2551     15.5769   5.9819211284e+01   7.1607084085e+01    0.6293113    0.1823715  40.23  0.002094523    3.566    0.720
       342  -9.8899    245.1310    242.3312   6.5009661200e+01  -2.1404955101e+00    0.1725211    0.1035428  18.96   0.00121252    1.266    0.210
       343  -9.4048    145.8222    242.2122   8.1898614070e+01   9.0090499974e+00    0.1534678    0.1062215  11.06 0.0005545787    1.339    0.253
       344  -9.2076     30.4602     24.4883   7.4138719722e+01   7.2060217182e+01    0.3842489    0.2330869 -43.11  0.001033239    1.545    0.353
       345 -10.7694     37.1528     26.2923   7.0523481898e+01   7.0747553647e+01    0.3415963    0.2858691 -10.07 0.0005098311    1.215    0.177
       346 -10.1036     32.3272     27.3608   7.4284905348e+01   7.1201232662e+01     0.385282    0.2609054 -15.26  0.001824858    1.783    0.439
       347  -8.4690    229.5962     27.2182   2.4558724759e+01   2.5169822506e+01    0.1656628    0.1088724 -16.59 0.0004745867    1.596    0.373
       348 -10.7533     49.1755     26.9511   6.3588105629e+01   6.8646615910e+01    0.4983242    0.2647355  49.62 0.0004356722    2.162    0.538
       349  -9.7049    221.7262    233.8319   6.7432559212e+01   1.0882104272e+00    0.2333779    0.1063923  32.39  0.001324348    1.892    0.471
       350  -8.7470    155.3190    237.7022   7.9574797120e+01   8.4324588577e+00    0.1053053   0.07388853  43.91 0.0005979192    1.616    0.381
       351  -9.7145    109.4964     23.1253   3.8926739564e+01   5.5296043441e+01     0.348911    0.1993227 -29.06 0.0008070996    1.807    0.447
       352 -10.0090      1.9675     25.2730   9.6856635052e+01   7.4287330673e+01    0.2968825    0.1710451 -71.80  0.000981336    1.574    0.365
       353 -10.3383    187.6098    235.3211   7.3363431269e+01   4.8183201604e+00     0.266256    0.1143574  25.28 0.0009115487    1.920    0.479
       354  -9.1337     31.9516    232.1531   1.0449776538e+02   2.3473733970e+01     0.172455    0.1058809  48.35 0.0004180616    1.211    0.174
       355 -10.5683    171.7270     22.9364   2.8596106514e+01   3.8899070745e+01    0.5306891    0.3171828  60.29  0.001815425    1.688    0.408
       356  -8.7618    228.7677    234.1928   6.6371922162e+01   2.9260033168e-01    0.1472796   0.08647849   7.39 0.0006173538    1.353    0.261
       357  -9.0234    162.9418    225.9763   7.6677523575e+01   9.0029336413e+00    0.2546098    0.1878693  78.59  0.001369777    3.622    0.724
       358  -8.6873    207.0704    226.4785   6.8808934083e+01   3.5205177185e+00    0.1603695    0.0830491  26.92 0.0005930593    1.538    0.350
       359  -8.2317    143.6344    226.3060   8.0491403423e+01   1.1433635379e+01      0.11562   0.07696614  48.26 0.0006165982    1.745    0.427
       360  -8.8955    223.9924    224.9980   6.5825993189e+01   1.7404470570e+00    0.1635369    0.1131593   8.47 0.0006014539    1.028    0.027
       361  -8.6012    132.1661    225.1617   8.2674971846e+01   1.3077094596e+01     0.153032    0.1157904  41.07 0.0003708784    1.283    0.220
       362  -8.6112    125.4752    225.4935   8.4089997449e+01   1.3888757407e+01    0.1192955   0.09187254  29.46 0.0001319338    1.024    0.023
       363  -8.9760    236.5257     20.4754   2.2474712954e+01   2.4465120579e+01    0.1713349    0.1604337 -83.31  0.000700166    1.224    0.183
       364  -9.3693    237.8386     17.3751   2.1663602851e+01   2.4510843398e+01    0.1893434    0.1377278 -35.52 0.0003702714    1.139    0.122
       365  -9.8177    230.9787     22.7498   2.3375565759e+01   2.5349194435e+01    0.3194296    0.1533254 -75.40  0.001510689    2.606    0.616
       366  -8.8871    233.2566     20.0540   2.2577490573e+01   2.5160063797e+01     0.173093    0.1562937  -6.78 0.0005463876    1.302    0.232
       367  -9.5128     89.3692    220.8033   9.1332502353e+01   1.9190208303e+01    0.2255161    0.1670198  17.29 0.0009160319    1.371    0.270
       368  -9.9063    153.6194     22.7014   3.0784462607e+01   4.3595353467e+01    0.2513735    0.2380939 -67.34 0.0005310156    1.026    0.025
       369  -8.7072    174.9777    217.9713   7.3324133516e+01   8.5044352589e+00    0.1372526    0.1109685   3.22 0.0005891524    1.132    0.117
       370  -8.7800    116.5424     22.9630   3.7269877945e+01   5.3448981206e+01    0.2109511    0.1497793 -16.51 0.0009936419    1.584    0.369
       371  -9.1041     28.4871    213.0038   1.0445951412e+02   2.7247947944e+01    0.1458491   0.08101617 -50.19 0.0008104509    2.588    0.614
       372 -10.1131    231.7576     15.4350   2.1557301628e+01   2.5917652421e+01    0.3157789    0.1933832 -71.41  0.001569827    1.671    0.402
       373 -10.2931    219.8701     20.8630   2.3670910978e+01   2.7853845767e+01    0.3530637    0.2227433 -70.59   0.00197323    1.635    0.388
       374  -9.5117    217.1850     17.8255   2.3083900693e+01   2.8737500986e+01    0.2093549    0.1825319  82.76  0.000418819    1.249    0.199
       375  -8.8245    188.6996     21.2431   2.6322848166e+01   3.4895424837e+01    0.1765753    0.1556833  33.72 0.0007931642    1.349    0.259
       376  -8.8792    144.8146     20.8449   3.1379830379e+01   4.6133737016e+01     0.196862    0.1792628 -53.18            0    1.076    0.071
       377  -8.5530    117.9941    212.0229   8.4139804641e+01   1.6984668095e+01    0.1555955    0.1151131  30.84 0.0006134601    1.080    0.074
       378  -9.9938    144.6170     12.7202   2.8428113607e+01   4.7053763894e+01    0.4671761    0.1765221  68.99  0.001224751    2.434    0.589
       379  -9.0571    242.6350    209.9967   6.0708114217e+01   1.2017980035e+00    0.1448602    0.1012656  -9.00 0.0004737152    1.158    0.136
       380  -8.3283    140.4390     20.4448   3.1894748045e+01   4.7346306742e+01     0.144439    0.1358041 -82.75 0.0001543266    1.004    0.004
       381  -8.1167    145.4796    210.4659   7.8107056352e+01   1.3498764337e+01    0.1224008   0.09733821  24.23 4.495349e-05    1.021    0.020
       382 -10.1321    205.2189     18.4069   2.4113666201e+01   3.1329510846e+01    0.2488001    0.2241296 -77.73 0.0002266133    1.120    0.107
       383  -8.4746    230.6581    209.6813   6.2492694390e+01   2.5947721794e+00    0.1150744    0.0640901   3.95  0.000704944    1.717    0.417
       384  -8.3214    221.3632    198.7349   6.2254860786e+01   4.9336376240e+00   0.09548755   0.08369577  31.72 0.0003015094    1.644    0.392
       385  -8.6385     96.1653    195.8333   8.7225588476e+01   2.2766757451e+01    0.1655181    0.1386709   8.65 0.0004222552    1.308    0.235
       386  -8.4474    218.3201    195.6509   6.2254066375e+01   5.6794794162e+00   0.09385989   0.09167367   7.11   0.00070486    1.739    0.425
       387  -9.3346      6.8424    194.5168   1.0879996663e+02   3.2721680302e+01    0.1691006    0.1522167 -72.33  0.001266944    1.388    0.280
       388  -9.4382    248.5450    191.7772   5.6940189291e+01   2.4246888290e+00    0.2316085   0.08191591 -37.77  0.001140213    3.275    0.695
       389  -9.9652      6.2569    175.1939   1.0837779031e+02   3.6818071022e+01    0.2600102    0.1240727  38.20  0.001418629    1.669    0.401
       390  -8.1147     77.2136    174.0023   8.9432516976e+01   2.9684220131e+01     0.153633    0.1080847 -68.85 0.0003718246    1.587    0.370
       391  -9.7654     15.5943     17.4076   8.2208014651e+01   7.5249180580e+01    0.2755967     0.170656 -28.48 0.0008025438    1.650    0.394
       392  -9.9192     18.0342    174.2123   1.0526890190e+02   3.6103924028e+01    0.1718709    0.1662255   1.57  0.001225814    1.309    0.236
       393 -10.4002     15.0277    165.5125   1.0567200615e+02   3.8290755668e+01    0.2153801    0.1180406  17.10 0.0004602762    2.000    0.500
       394  -8.5613     28.3074    164.3148   1.0192787368e+02   3.7420598861e+01    0.1194455   0.09456933 -38.62 0.0003481759    1.627    0.385
       395  -8.8294    195.0381     15.0507   2.3989747297e+01   3.4023633980e+01    0.1972336    0.1631286 -59.45 0.0003359054    1.079    0.073
       396 -10.1276     24.1488    163.3488   1.0303072988e+02   3.8017068565e+01    0.2179225    0.1809354  26.46 0.0007005944    1.271    0.213
       397 -11.9581     38.9213    160.0577   9.8602999043e+01   3.7367358625e+01    0.8180303    0.2951627  48.24  0.003385976    2.452    0.592
       398 -12.3646     30.8966    154.5770   1.0049932362e+02   3.9442042882e+01    0.7827342    0.4165986  64.88  0.003837854    1.844    0.458
       399 -10.4156     20.6890    158.3234   1.0371238041e+02   3.9475254811e+01    0.2992886    0.1966694 -83.47 0.0005697344    1.478    0.324
       400 -11.1501     19.6814    152.1715   1.0364080190e+02   4.1002641808e+01    0.4075517    0.2102552 -55.57   0.00199952    2.195    0.545
       401  -8.6296     90.8947     13.4724   3.9064190329e+01   6.1341400075e+01    0.3131121     0.180604  70.48  0.001358157    1.826    0.452
       402  -9.8643      2.1070    157.1679   1.0892056499e+02   4.1136109525e+01    0.2729507    0.1773643 -85.88 0.0006914684    1.452    0.311
       403  -9.8851      2.9998    153.0199   1.0853160693e+02   4.2035268941e+01    0.3456779    0.1705072  22.27  0.001789413    2.020    0.505
       404  -9.5042    248.8831    153.8887   5.0257444674e+01   6.6152769604e+00    0.1796329    0.1253207  -2.55  0.000567421    1.230    0.187
       405 -11.0508     11.1575    146.8041   1.0588115013e+02   4.2938753725e+01    0.4259215    0.2435801 -37.51  0.002111197    2.431    0.589
       406 -10.9626     10.4975    151.8023   1.0631636770e+02   4.1801835340e+01    0.3331995    0.2757458   6.86  0.001831691    1.455    0.312
       407  -8.1795     58.3418    150.7698   9.1965095799e+01   3.7349684750e+01    0.1428387   0.08784737  52.26 0.0002616445    1.544    0.352
       408  -8.4105     63.0072    147.5428   9.0162324433e+01   3.7522438054e+01    0.1968357   0.09162161  51.05  0.000308028    2.195    0.544
       409  -8.2605    200.4971     13.5094   2.3135398400e+01   3.2901106407e+01    0.1963267    0.1018672 -37.71 0.0008151293    1.631    0.387
       410 -10.2400      9.8613    157.5598   1.0675494337e+02   4.0505784613e+01    0.2473333    0.1700176  60.27  0.001266258    1.222    0.181
       411 -10.2307      4.7346    144.5547   1.0770798177e+02   4.3915933603e+01    0.3642769    0.2128027 -29.74  0.001836463    2.472    0.595
       412  -9.7593    239.4638    141.4309   4.9195274231e+01   9.4315602184e+00    0.2000257    0.1486759 -24.21 0.0004730425    1.175    0.149
       413  -9.8163     29.0715    144.0082   1.0021991713e+02   4.2146941123e+01    0.1945862    0.1721767  68.60            0    1.026    0.025
       414  -8.1335     22.6636     12.6507   7.3477736951e+01   7.5490800870e+01    0.2769478    0.1489226   2.06 0.0007984484    3.054    0.673
       415  -8.3429     88.0681    140.9733   8.1683202900e+01   3.5467508181e+01    0.1695232    0.1538903  45.48 0.0003265656    1.023    0.023
       416  -8.3279    121.5787    139.5556   7.2081808739e+01   3.0097672728e+01    0.1426881    0.1343489  34.24 0.0001381381    1.019    0.019
       417 -10.3109     41.5004    137.1675   9.5626371864e+01   4.2596129413e+01    0.2524713     0.235799 -14.01  0.001538438    1.273    0.215
       418  -8.9963    236.0033    136.5375   4.8717352637e+01   1.0558559810e+01    0.1607641    0.1124594  35.93 0.0004395574    1.542    0.351
       419  -9.1829     58.4689    135.5323   8.9950852447e+01   4.1008830896e+01    0.2594397    0.2316848 -31.91 0.0007230456    1.312    0.238
       420  -9.0685     62.5383    133.5537   8.8356748298e+01   4.0963377456e+01    0.2572336    0.2388965 -85.92 0.0005784871    1.083    0.076
       421  -9.4818     61.0221    131.0010   8.8465305386e+01   4.1793991627e+01    0.3628314     0.230443 -26.99  0.001577895    2.345    0.574
       422  -9.7491     17.5596    134.1323   1.0313206881e+02   4.5548570509e+01    0.4156162    0.1964023 -28.02  0.001590305    3.777    0.735
       423  -8.7609     47.0337    134.0217   9.3460332272e+01   4.2766851144e+01    0.1673746    0.1518775  70.64 0.0003846995    1.016    0.016
       424 -10.8733      8.0684    133.3114   1.0615480732e+02   4.6425337432e+01    0.3487199    0.2275515 -16.85  0.001852713    2.086    0.521
       425  -9.7766     41.1988    130.1317   9.4924628853e+01   4.4385775821e+01    0.2408336    0.2206276  79.69  0.001034038    1.037    0.036
       426  -8.2333     22.6277    133.6806   1.0144441882e+02   4.5255947980e+01     0.136011   0.09356944 -39.08 5.599218e-05    1.800    0.445
       427  -8.9231     86.9397    130.1678   8.0087631336e+01   3.8168285661e+01    0.2147391    0.1830139  68.69 0.0004668049    1.222    0.182
       428  -9.5327     18.1602    128.0922   1.0249643403e+02   4.7011590394e+01    0.3573751    0.1829289 -56.82  0.001571839    2.028    0.507
       429  -9.7093     34.0219    126.8230   9.6982494525e+01   4.5955681988e+01    0.2482498    0.1887847 -83.87  0.001004809    1.253    0.202
       430  -9.4237     50.6961    126.2419   9.1211732557e+01   4.4288583593e+01    0.2184602    0.1941291  40.41 0.0003757442    1.115    0.103
       431  -8.9957    241.5073    124.0089   4.5417598367e+01   1.1303561018e+01    0.1884347   0.09854633 -30.23  0.001030527    1.594    0.372
       432 -10.0334     39.0781    123.6294   9.4866391817e+01   4.6257929571e+01    0.3438255    0.2428877  23.18  0.001796414    1.497    0.332
       433 -10.1680      7.7509    122.2924   1.0565323117e+02   4.9190771510e+01    0.3311214    0.1467957 -66.05  0.001515114    2.114    0.527
       434 -10.3399     72.1413    121.2509   8.3157243664e+01   4.2636878084e+01    0.3348745    0.2291925 -51.82  0.000354572    1.518    0.341
       435  -9.4459    236.2248    121.8727   4.5688176729e+01   1.2398877824e+01    0.2391312    0.1416732  18.05  0.001257431    2.153    0.536
       436  -9.5606     29.4925    120.5421   9.7884070292e+01   4.7985251037e+01    0.3807202    0.1504889  42.06  0.001441194    2.306    0.566
       437 -10.2967     28.6113    117.3468   9.7853790404e+01   4.8886581569e+01    0.4597103    0.2209883  56.33  0.001973511    2.164    0.538
       438 -11.1809     21.3040    118.9408   1.0064426081e+02   4.9092437722e+01    0.5630366    0.3784549  51.84  0.003027795    1.401    0.286
       439  -9.1756     25.0010    111.1883   9.8511386628e+01   5.0793631490e+01    0.2297066    0.2012334   1.82 0.0004108034    1.328    0.247
       440 -10.7039     20.7350    109.6438   9.9960096502e+01   5.1537717586e+01    0.3874299    0.2998062 -73.54  0.001420506    1.210    0.174
       441 -10.4587     45.3536    119.4991   9.2113481525e+01   4.6628585084e+01    0.3214875    0.2346009  37.93 0.0009369571    1.326    0.246
       442  -9.1764     93.8856    119.1339   7.5721458812e+01   3.9593863436e+01    0.2586017     0.203565  22.91  0.001061581    1.380    0.276
       443  -9.0773     57.8964    118.8474   8.7594987881e+01   4.5251118560e+01    0.2023733    0.1924247 -37.90  0.000430338    1.166    0.142
       444  -9.5585      3.3018    118.8942   1.0700751632e+02   5.0305595189e+01    0.2154255    0.1353515  71.98 0.0006773823    1.424    0.298
       445  -9.2704     64.7959    118.6438   8.5169209343e+01   4.4357776418e+01    0.2105171    0.1234234  41.38 0.0005124131    1.625    0.385
