#   1 NUMBER                 Running object number                                     
#   2 MAG_AUTO               Kron-like elliptical aperture magnitude                    [mag]
#   3 X_IMAGE                Object position along x                                    [pixel]
#   4 Y_IMAGE                Object position along y                                    [pixel]
#   5 X_WORLD                Barycenter position along world x axis                     [deg]
#   6 Y_WORLD                Barycenter position along world y axis                     [deg]
#   7 A_WORLD                Profile RMS along major axis (world units)                 [deg]
#   8 B_WORLD                Profile RMS along minor axis (world units)                 [deg]
#   9 THETA_WORLD            Position angle (CCW/world-x)                               [deg]
#  10 FWHM_WORLD             FWHM assuming a gaussian core                              [deg]
#  11 ELONGATION             A_IMAGE/B_IMAGE                                           
#  12 ELLIPTICITY            1 - B_IMAGE/A_IMAGE                                       
         1 -15.1850      9.5807    155.4574   1.4643467839e+02   4.1849391657e+01     10.29987      3.95588  69.26    0.0479137    2.893    0.654
         2 -12.3168      2.2834     35.7484   1.3135996538e+02   6.8316878164e+01    0.8218201    0.1350827 -63.03  0.002748742    5.105    0.804
         3 -13.4900    192.9665     27.7799   7.0575739509e+01   3.3507908754e+01     1.407719     1.276418 -44.35  0.007048618    1.132    0.117
         4 -13.7087    207.6894      8.7208   6.3490087754e+01   3.1822497789e+01     1.475507     1.069884  40.27  0.007862586    1.655    0.396
         5 -13.1253      2.4444      5.1133   1.2038311829e+02   7.3848718994e+01     1.042365    0.6938667 -50.05  0.007456162    1.435    0.303
         6  -9.8060    198.3141    245.6556   1.1917730479e+02  -2.3308993291e+00     0.108553   0.08403482  61.07 0.0007047394    1.711    0.416
         7 -11.1232    248.2052    249.4553   1.1140691404e+02  -1.0223880160e+01    0.3520337    0.1595956  45.32  0.001945535    2.328    0.570
         8 -12.2647    139.4429    248.0664   1.2981261008e+02   6.7943603134e+00    0.5267552    0.3662036  86.98  0.003325405    1.982    0.495
         9 -11.6144    101.2479    248.0332   1.3649563888e+02   1.2653821478e+01    0.4341828    0.2371771  34.05  0.001774873    2.090    0.521
        10 -10.8229     33.6792    247.6829   1.4770723715e+02   2.1549948486e+01    0.3582385    0.2950756 -14.86  0.002495853    3.124    0.680
        11 -10.3466     34.4813    244.3534   1.4740660358e+02   2.2016574740e+01    0.2283251    0.1627417  50.14   0.00133855    1.366    0.268
        12 -10.1790      2.8614    249.2366   1.5247357044e+02   2.4530834400e+01    0.2384337    0.1663461  69.18  0.002075496    1.132    0.117
        13  -9.8064     81.8139    242.5395   1.3938859342e+02   1.6327144166e+01    0.2718487    0.1202827  71.43  0.001288484    3.018    0.669
        14  -9.8687     12.1629    240.9151   1.5075519394e+02   2.4996033535e+01    0.2026879    0.1200907  43.65  0.001521644    1.642    0.391
        15 -12.8239     10.2172    206.9356   1.4951415174e+02   3.1302061152e+01    0.7092886    0.4573535  40.32  0.003022207    1.692    0.409
        16 -10.0392    162.2078    249.3930   1.2596273558e+02   2.9758797483e+00    0.1759906   0.08510505  48.69 0.0009522025    1.707    0.414
        17  -9.8592      7.4970    226.3153   1.5087669885e+02   2.7996358894e+01    0.1589986    0.1167892  55.24 0.0005344421    1.330    0.248
        18 -10.5506    173.9012    222.3598   1.2022652662e+02   4.8346905919e+00    0.3589519    0.2692861  67.29  0.002146096    1.672    0.402
        19  -9.2378     94.3584    216.9436   1.3472609550e+02   1.8976635569e+01    0.2263527    0.1316488  63.83   0.00105364    1.614    0.380
        20  -8.8495    152.5325    213.0394   1.2293529893e+02   1.0033794998e+01    0.1591963    0.1294929 -54.37 0.0003926321    1.467    0.318
        21 -11.5814     63.7619    199.6524   1.3896194697e+02   2.6661077597e+01    0.2710952     0.222362 -54.93  0.001121853    1.624    0.384
        22 -11.0746     21.2870    200.6575   1.4717798210e+02   3.1425659683e+01    0.1971927    0.1394357  70.89 0.0004842503    1.059    0.056
        23 -11.5535     17.7687    198.5699   1.4769803592e+02   3.2187163849e+01    0.2507864    0.1553698  64.03 0.0006763138    1.259    0.206
        24  -9.8160    191.8091    193.0130   1.1204486953e+02   6.0952971811e+00    0.4965174    0.2652743 -64.39  0.001582468    5.752    0.826
        25 -10.1342      9.9042    195.6577   1.4897247702e+02   3.3511379750e+01    0.2850592    0.0615427  38.35  0.001334983    3.539    0.717
        26 -11.8252     69.6397    191.4588   1.3695086169e+02   2.7526746304e+01    0.2536192    0.2241349 -72.00 0.0006919254    1.329    0.248
        27 -12.6811     38.0186    234.2816   1.4626839246e+02   2.3343919082e+01    0.2688616    0.2194384 -85.34 0.0007643051    1.408    0.290
        28 -13.2256     66.3331    176.5671   1.3600861881e+02   3.1107609303e+01    0.4615512    0.2689278 -47.87  0.001833442    2.286    0.563
        29 -10.9357     79.3703    178.5050   1.3338741381e+02   2.8857030807e+01    0.2315864    0.2006551  79.28 0.0003998823    1.064    0.060
        30  -8.7427    102.0276    178.5310   1.2840254322e+02   2.5319255266e+01    0.1916344    0.1175673  48.52  0.000447471    1.478    0.323
        31 -11.7836     86.6864    168.9233   1.3047420845e+02   2.9824813066e+01    0.6067927    0.5611891  64.85  0.003884375    1.166    0.143
        32 -10.0843    189.4199    152.9557   1.0461813266e+02   1.3386217875e+01    0.3840427    0.2721681 -82.91  0.001638744    2.458    0.593
        33  -9.9294     98.8284    152.9395   1.2512170411e+02   3.1406991588e+01     0.287373    0.2456745 -83.34 0.0007844158    1.106    0.096
        34 -12.0574     87.5601    152.2010   1.2773740626e+02   3.3405454148e+01    0.2758013    0.2533064 -48.66 0.0006498612    1.291    0.226
        35 -12.5294     67.1935    143.9775   1.3149290107e+02   3.8269368767e+01    0.7194076    0.4673952  71.74  0.003691189    1.664    0.399
        36  -9.0974    101.8296    148.4821   1.2360775032e+02   3.1896210165e+01     0.255585    0.1729702 -41.63  0.001089797    1.782    0.439
        37  -9.4411    183.3144    146.4964   1.0445409450e+02   1.5882557765e+01    0.3036049    0.2274833  87.60 0.0009331356    1.979    0.495
        38 -14.1456     43.7115    226.5359   1.4482004554e+02   2.4057226960e+01    0.9940118    0.6889985  52.35  0.004051594    1.271    0.213
        39  -8.4797    192.2467    144.3290   1.0214198412e+02   1.4342164706e+01    0.1447667    0.1132906   0.78 0.0002121707    1.543    0.352
        40  -9.7443    110.1799    137.6301   1.1945704367e+02   3.2857157719e+01    0.3628004    0.2499385 -22.86  0.001418165    2.385    0.581
        41 -10.8623     96.4102    134.5406   1.2236536052e+02   3.5991532099e+01    0.5078103    0.2572328  52.11  0.001376083    2.123    0.529
        42  -9.9746     83.7720    134.7842   1.2570224110e+02   3.7986832753e+01    0.2510734    0.1925678  67.41 0.0005763284    1.337    0.252
        43 -11.5075     57.1741    131.4358   1.3214590688e+02   4.2476155821e+01     0.621003    0.2658491 -77.06  0.002423561    2.889    0.654
        44  -9.2053    107.1548    124.1520   1.1739157327e+02   3.6466700876e+01    0.1955153    0.1893819 -45.63 0.0002884274    1.125    0.111
        45 -10.2442      3.4488    228.3530   1.5160837134e+02   2.8023020231e+01    0.2772569    0.1281071  74.20  0.001857376    1.631    0.387
        46  -8.3509    160.5106    125.5290   1.0453463103e+02   2.5051242839e+01    0.1540937    0.1479299  78.10 0.0008092719    1.055    0.052
        47 -10.3844    167.9733    113.0926   9.9738610580e+01   2.5826428787e+01    0.3486035    0.2855439 -82.22 0.0008414204    1.482    0.325
        48  -9.6146    203.2450    111.5699   9.2133900108e+01   1.7772657321e+01    0.2102801    0.1393076  40.01 0.0005203104    1.595    0.373
        49  -8.8112     72.9064     85.9792   1.1814038200e+02   5.0851405474e+01    0.2007402    0.1592806  77.78 0.0005605215    1.590    0.371
        50  -8.3137     67.2292     82.6924   1.1911276887e+02   5.2394808247e+01    0.1275678    0.1005784 -79.81 0.0001855888    1.481    0.325
        51  -9.1278    156.6832     75.6966   9.1762451481e+01   3.5731951080e+01    0.1589864    0.1225153  18.48 0.0002597592    1.623    0.384
        52 -11.5140      1.9986     62.2296   1.3749231596e+02   6.2901924000e+01    0.4168706     0.148497 -71.18  0.001978933    2.405    0.584
        53 -10.7325     11.5434     64.5366   1.3439853989e+02   6.1894265498e+01    0.2634832     0.103386  25.71   0.00120264    3.010    0.668
        54 -10.5284     27.0049     60.2140   1.2753610788e+02   6.1718754166e+01    0.3049224    0.1903649  37.62 0.0007321032    1.967    0.491
        55 -10.9696     22.5647     58.5283   1.2882721521e+02   6.2424339969e+01      0.40105    0.1694856  39.37  0.001844673    3.039    0.671
        56  -9.9850     81.5164    249.0160   1.3995599782e+02   1.5308492116e+01    0.2147371     0.110905  65.11  0.001288393    1.760    0.432
        57  -9.8558     46.7699    249.1482   1.4570264274e+02   1.9778398294e+01    0.2034737   0.09556017  59.47 0.0008144229    1.579    0.367
        58 -10.9380    127.1626    250.1730   1.3219323343e+02   8.4099805356e+00    0.2417254    0.1386154  54.42  0.001144815    1.438    0.304
