#   1 NUMBER                 Running object number                                     
#   2 MAG_AUTO               Kron-like elliptical aperture magnitude                    [mag]
#   3 X_IMAGE                Object position along x                                    [pixel]
#   4 Y_IMAGE                Object position along y                                    [pixel]
#   5 X_WORLD                Barycenter position along world x axis                     [deg]
#   6 Y_WORLD                Barycenter position along world y axis                     [deg]
#   7 A_WORLD                Profile RMS along major axis (world units)                 [deg]
#   8 B_WORLD                Profile RMS along minor axis (world units)                 [deg]
#   9 THETA_WORLD            Position angle (CCW/world-x)                               [deg]
#  10 FWHM_WORLD             FWHM assuming a gaussian core                              [deg]
#  11 ELONGATION             A_IMAGE/B_IMAGE                                           
#  12 ELLIPTICITY            1 - B_IMAGE/A_IMAGE                                       
         1 -11.7219     28.2261     18.4726   7.0871217152e+01   7.0541466205e+01    0.5639668    0.3135119  -1.15  0.002710904    2.405    0.584
         2 -11.9245     23.6403     12.0815   7.0119747485e+01   7.2066629042e+01    0.3655719    0.2795008   5.91 0.0004508152    1.058    0.055
         3 -12.3009     16.0782     13.4839   7.5499491041e+01   7.2817092717e+01    0.2274834    0.1774924  -3.37  0.001547101    1.002    0.002
         4 -10.8805     29.1114     25.9403   7.4052121167e+01   6.9289679309e+01    0.5904896    0.1995265 -38.97  0.002479403    2.873    0.652
         5 -11.5770     35.9854     18.7261   6.6850749140e+01   6.9374213621e+01    0.7462193    0.3565091  15.05  0.002534008    3.606    0.723
         6 -12.3768    122.2386     11.3784   3.6986645359e+01   5.1989031711e+01    0.7767276    0.4611249  21.31 0.0007686558    2.422    0.587
         7  -9.7988    116.9631      8.9233   3.7052383804e+01   5.3467889141e+01    0.2959335    0.1929528 -78.95 0.0008565347    1.849    0.459
         8 -12.2412    128.0890      4.9948   3.3967198524e+01   5.1136291796e+01    0.8253893    0.2980561  59.91  0.003620649    2.199    0.545
         9 -11.0067      9.4532     17.1257   8.1670526985e+01   7.2951594387e+01    0.6833791    0.2416985 -34.09  0.003023849    2.791    0.642
        10 -10.5447    153.7304      2.9841   3.0130820045e+01   4.5197331907e+01    0.3574304     0.246281  51.47  0.002102988    1.520    0.342
        11  -9.3777    150.4218     12.2303   3.3137736463e+01   4.5149709638e+01    0.2415938    0.1492031 -64.17  0.001134275    1.734    0.423
        12 -10.5752    155.2611      9.8619   3.1877275403e+01   4.4223227368e+01    0.4721964    0.1990025  79.33  0.002062085    2.362    0.577
        13 -11.3453    150.8912     18.4950   3.4883284245e+01   4.4419826775e+01    0.3472852    0.2504438  79.00  0.000784528    1.253    0.202
        14 -11.1277    155.5801     14.8477   3.3236281967e+01   4.3669534657e+01    0.3321867    0.2802016  41.44  0.001149765    1.382    0.276
        15 -10.9962     57.6051     13.1002   5.4364795706e+01   6.6275972571e+01    0.4908755      0.26776  38.25   0.00191435    1.598    0.374
        16 -11.5428    100.4238     16.2539   4.3022124788e+01   5.6703027700e+01    0.4633442    0.2401295  48.85  0.001146317    1.679    0.404
        17  -9.5278    176.3260     12.1231   3.0212050566e+01   3.9098111310e+01    0.3903248    0.1919658 -76.40  0.001126459    2.335    0.572
        18 -12.5057    187.0996     13.6424   2.9561368217e+01   3.6509299722e+01    0.2996503       0.2199 -66.65 0.0003714957    1.205    0.170
        19 -11.6521    182.5289     12.5011   2.9708242432e+01   3.7651195018e+01    0.3298735    0.2938501  19.69  0.001361303    1.537    0.350
        20 -11.1385    247.1564     12.7915   2.5039739569e+01   2.4369911310e+01    0.1991348    0.1470615 -60.29 0.0002784196    1.032    0.031
        21 -10.4771     75.5607     12.4764   4.7976753810e+01   6.2655695795e+01    0.3265827    0.2086905 -39.77  0.001478093    1.892    0.471
        22 -10.2174    143.8486     10.8248   3.3578247307e+01   4.6851086583e+01    0.3814404    0.2405116 -41.45  0.001956095    1.668    0.401
        23 -12.4269    111.9195     18.9258   4.1523536157e+01   5.3734113317e+01    0.4975375    0.3689483  20.15  0.002782954    1.603    0.376
        24 -11.2299     93.1609     10.9149   4.2623834384e+01   5.8881998276e+01    0.4794766    0.2870364  66.82  0.001646117    1.593    0.372
        25 -12.0046     89.7957      3.5829   4.0442153596e+01   6.0269204734e+01    0.5338564    0.3288815  58.48  0.002510436    1.350    0.259
        26 -10.9220    209.2573      9.6090   2.6833282598e+01   3.2129921736e+01    0.4278406    0.2523716  61.98   0.00121922    1.809    0.447
        27 -10.0050    211.7139      6.0064   2.5888252784e+01   3.1983348626e+01    0.2240284    0.1354734 -83.20 0.0006256101    1.465    0.318
        28 -10.3548    217.2881      4.3084   2.5166261678e+01   3.1010756891e+01    0.1997784    0.1390405 -77.43 0.0003507046    1.184    0.155
        29 -12.2298     46.0089      9.2092   5.7130881832e+01   6.8866029768e+01    0.2719257    0.2064812  17.82 0.0003526814    1.144    0.126
        30  -9.2310    101.4842      8.4539   3.9821545179e+01   5.7169670429e+01    0.1311594    0.1093444  53.16 0.0002290961    1.040    0.039
        31 -10.2831     34.9313      8.6752   6.2060955805e+01   7.0820413238e+01    0.3030665    0.1866062  10.52  0.001311788    1.710    0.415
        32 -11.1919      2.7847      3.9590   7.9357419054e+01   7.5623742253e+01    0.3744166    0.2800094 -59.50   0.00235916    2.380    0.580
        33 -10.7413      8.0623      8.9628   7.8379279295e+01   7.4364464096e+01    0.2282599    0.1590833   5.45 0.0003692052    1.209    0.173
        34 -11.4387     11.2714      3.9758   7.3315757655e+01   7.4723832532e+01    0.5932999    0.3294933  24.51  0.003081597    1.608    0.378
        35 -10.9825    168.1054      5.6259   2.9357579547e+01   4.1607875859e+01    0.3869909    0.3089226 -21.82  0.001841964    1.537    0.349
        36 -10.2280     77.4794      7.0740   4.5029979851e+01   6.2736893492e+01    0.2614886    0.2196585   1.16  0.001188467    1.284    0.221
        37  -8.7457    238.7518      7.6959   2.4553819743e+01   2.6467235150e+01   0.08610416   0.08561435  77.39 0.0001993209    1.499    0.333
        38 -10.9109    106.0631      3.4088   3.7038599900e+01   5.6505752622e+01    0.5914586    0.3274088 -82.63  0.002688396    2.604    0.616
        39  -9.0960     40.8141      5.2039   5.7299902695e+01   7.0213613955e+01    0.1621784    0.1112077  24.74 0.0002485994    1.247    0.198
        40  -9.5934     99.0681      4.1731   3.8682136128e+01   5.8084638750e+01    0.1904267    0.1406709  45.61 0.0002786156    1.221    0.181
        41  -9.7540    244.9919      1.6967   2.3095733831e+01   2.5922303135e+01    0.3118878    0.1261702  83.06  0.001741479    2.402    0.584
        42 -10.8716    216.2579      7.7621   2.5952267728e+01   3.0872914505e+01    0.2240345    0.2060455 -60.65 0.0005041171    1.273    0.215
        43  -9.0586    119.9946      2.0290   3.4202817815e+01   5.3307379512e+01    0.1546662    0.1281404  69.43 0.0004560011    1.021    0.020
        44  -9.4258     33.0743      3.0000   5.9792969158e+01   7.1758395070e+01    0.1886722   0.05904299  44.80 0.0003938877    2.856    0.650
        45  -9.7402    195.1760      1.6048   2.6086271167e+01   3.5910854538e+01    0.1610908   0.09253292  68.00  0.000507658    1.649    0.393
        46  -9.2826    188.7873      8.1485   2.8102887340e+01   3.6684308553e+01    0.1569578    0.1306675  62.68 0.0005830195    1.340    0.254
        47  -8.9815    109.5137    193.5319   8.9162269911e+01   1.9024539243e+01    0.1434064    0.1352038  24.63 0.0001177033    1.013    0.013
        48  -9.5639    157.9637    250.5491   8.6536239799e+01   9.4286991975e-01    0.1818446    0.1027732  27.63 2.703476e-05    1.484    0.326
        49  -9.3066     84.0451    250.5450   1.0237348308e+02   1.0768363451e+01    0.1874841    0.1035181  32.99 0.0003438169    1.515    0.340
        50  -9.4756     68.5598    250.0300   1.0566693510e+02   1.2799472353e+01    0.1631082    0.1183772 -78.94  0.001014206    1.571    0.363
        51  -9.6302      2.3062    249.9654   1.1923975805e+02   1.9870923706e+01    0.1613311    0.1516833  -3.10  0.000705916    1.528    0.346
        52  -8.9880    164.5026    189.4602   7.5246764411e+01   1.0922213280e+01    0.1416325    0.1280114   0.07 0.0001050157    1.014    0.014
        53  -9.6927     62.9782    188.5080   1.0063796001e+02   2.6936798587e+01    0.1960558    0.1840144  83.57 0.0004459695    1.039    0.038
        54  -8.9971    109.5233    185.5506   8.7851185430e+01   2.0843959239e+01    0.1454211    0.1383532  18.50 7.920225e-05    1.025    0.025
        55  -9.2781      1.0000    184.5298   1.1638985846e+02   3.4199179517e+01    0.2616748   0.06220825 -78.80 0.0009066837    3.712    0.731
        56  -9.2844    113.4849    183.9523   8.6552858972e+01   2.0570796182e+01    0.2100039    0.1463437 -55.38 0.0003669784    1.505    0.336
        57  -9.4468     21.1570    183.8108   1.1122215230e+02   3.2707788357e+01    0.1947091    0.1535733  67.14 0.0003507071    1.154    0.133
        58  -8.8902     28.4716    183.5773   1.0928709771e+02   3.2072561732e+01    0.1315222    0.1173723  77.45 0.0001470057    1.014    0.013
        59 -10.0728    110.9396    179.3316   8.6412104263e+01   2.2056691856e+01     0.252028    0.2174918 -70.66 0.0004321192    1.279    0.218
        60  -9.7614    138.3260    178.8409   7.9354942560e+01   1.7539535004e+01    0.2270434    0.1926308  40.46 0.0003548151    1.200    0.167
        61  -9.0624     34.2375    177.6120   1.0716081997e+02   3.2976119719e+01    0.1670789    0.1314831   8.60 0.0003341016    1.539    0.350
        62  -8.4894    128.6701    175.7088   8.1167265648e+01   1.9898695195e+01    0.1525341    0.1145324  -7.88 0.0003632311    1.625    0.385
        63  -9.3262    170.9228    173.2834   7.0691112559e+01   1.3053450643e+01    0.1960206    0.1738139   5.75 0.0003053614    1.075    0.069
        64 -11.1708     68.6434    171.3804   9.6737316132e+01   3.0435985383e+01    0.3278428    0.2825711  13.88 8.255244e-05    1.279    0.218
        65 -10.7886     36.6322    172.5812   1.0596282850e+02   3.3995320365e+01    0.2414149    0.2180726 -72.11 0.0003873305    1.094    0.086
        66  -8.6680    118.3278    172.3299   8.3197171853e+01   2.2449850675e+01    0.1573104    0.1159376 -13.91 0.0007051215    1.709    0.415
        67  -9.4598     87.9145    171.2907   9.1278506786e+01   2.7661475770e+01    0.2053333    0.1875156  27.04 0.0004462807    1.105    0.095
        68  -9.2395     53.9016    168.8578   1.0059985950e+02   3.2985688729e+01     0.215257    0.1806456 -46.25 0.0005574676    1.266    0.210
        69  -9.7482     10.0608    163.6781   1.1252679454e+02   3.8651633754e+01    0.1730389    0.1598427  59.87 0.0003340001    1.137    0.121
        70  -9.1863     10.5043    155.5064   1.1168929534e+02   4.0692040440e+01    0.1333332    0.1147379  88.94 -2.397277e-05    1.028    0.027
        71 -10.9551     80.5999    152.1814   9.0032251306e+01   3.3588799652e+01    0.2567542    0.2420415  33.01 0.0002662015    1.077    0.072
        72  -9.2671    175.1345    150.7898   6.5062346313e+01   1.6814691992e+01    0.2010018    0.1645218  -9.17 0.0004369066    1.297    0.229
        73 -10.9431    125.4326    147.6289   7.6274913441e+01   2.6949236081e+01    0.3405185    0.2885266  89.34  0.001397661    1.468    0.319
        74 -10.3103     30.9833    147.0481   1.0458412729e+02   4.1151368687e+01    0.2029088    0.1858886 -77.05            0    1.014    0.014
        75 -10.2804     11.6783    145.5902   1.1038990001e+02   4.3151231851e+01    0.2935433    0.1768461 -59.71 0.0005909479    1.490    0.329
        76 -10.0074      2.0828    143.7197   1.1312508335e+02   4.4272848537e+01    0.2511253    0.1891625 -81.15 0.0007787691    1.137    0.120
        77 -10.2445     21.3166    141.7845   1.0696885976e+02   4.3389928287e+01    0.3530423    0.1775984  37.70   0.00133383    2.049    0.512
        78  -9.5227     44.9330    141.5079   9.9351825706e+01   4.1150079329e+01    0.2000945    0.1445818  24.10 0.0003400456    1.496    0.332
        79 -11.0129     28.6612    138.4928   1.0418855392e+02   4.3608846087e+01    0.5540642    0.2809869 -79.48  0.001305315    2.036    0.509
        80  -9.1529     37.5154    137.4714   1.0114585444e+02   4.3013125087e+01    0.1429677    0.1300512 -61.19 2.829606e-05    1.040    0.039
        81  -9.1309     46.9781    136.3125   9.7839393628e+01   4.2279408914e+01    0.1903301    0.1856332 -66.02 0.0003966879    1.045    0.043
        82  -9.2898     11.9772    129.0149   1.0846958008e+02   4.7421202425e+01    0.2153102    0.1468482  16.47  0.000324425    1.688    0.408
        83 -10.1557     13.2419    133.8136   1.0861882119e+02   4.6087831877e+01    0.3448112    0.1699917 -69.58 0.0009505129    1.727    0.421
        84 -10.7898     16.0421    130.0108   1.0723532919e+02   4.6872347458e+01    0.6797907    0.1830796 -70.38  0.002329472    3.117    0.679
        85  -9.0714    145.3080    134.9840   6.8279042139e+01   2.5933789204e+01    0.2064755    0.1866246 -34.58 0.0002813174    1.076    0.070
        86  -8.8931     74.1540    134.1600   8.8519094769e+01   3.9190343733e+01    0.1962488    0.1725125  70.68 0.0002512753    1.250    0.200
        87 -10.8340     23.8586    126.3423   1.0408813037e+02   4.7210839372e+01    0.5230819    0.2737622 -66.63  0.002403129    1.669    0.401
        88 -10.9512     48.9794    126.7124   9.5466078704e+01   4.4555337654e+01    0.4985927    0.2853611  13.83  0.001501519    2.157    0.536
        89 -10.6602     45.6204    124.7147   9.6259861135e+01   4.5470886660e+01    0.3448725    0.2411601 -77.14   0.00080018    1.507    0.337
        90  -8.7887     37.5766    126.4249   9.9358430451e+01   4.5903790217e+01    0.1414078    0.1300087 -65.43  0.000216252    1.013    0.013
        91 -10.7441    229.9340    123.1067   4.9248713142e+01   1.2032578825e+01    0.4855572    0.2754263 -55.24  0.002352251    2.052    0.513
        92  -9.6824     31.9994    123.2378   1.0077521975e+02   4.7291169204e+01    0.4306093    0.1853308 -39.29  0.001617939    2.721    0.633
        93  -9.7529      1.3985    124.1027   1.1145006701e+02   4.9336878081e+01    0.2029487    0.1087424 -72.57 0.0006950049    1.562    0.360
        94 -10.9400     93.9576    122.9916   7.9693561003e+01   3.8706849120e+01    0.2312326     0.221591  23.52 -0.002661949    1.056    0.053
        95  -8.7490     59.6458    123.3117   9.1115863256e+01   4.4073371010e+01    0.1560296    0.1128513  65.82 0.0007044478    1.730    0.422
        96 -10.8576     11.0391    122.4752   1.0798392183e+02   4.9177324126e+01    0.3813782    0.2745388  56.76  0.001330937    1.537    0.349
        97 -12.1877      4.4864    116.0764   1.0947725834e+02   5.1223004347e+01    0.5591691    0.3089553  33.54  0.001631006    2.005    0.501
        98 -11.6887      2.2756    112.0558   1.0977431806e+02   5.2368669623e+01    0.5094925    0.3490272 -16.99  0.001017068    1.689    0.408
        99  -9.7747     59.4781    118.6125   9.0180025083e+01   4.5301976836e+01    0.3670615    0.1971015  43.41  0.000724731    2.038    0.509
       100 -10.3737     45.8859    117.3551   9.4758479668e+01   4.7349016096e+01    0.2671037     0.193326 -56.12 0.0003290845    1.265    0.209
       101 -10.1283    233.0618    117.0988   4.7548032261e+01   1.2491713051e+01    0.1884874    0.1610631 -36.73 0.0003714816    1.035    0.034
       102  -9.8042     67.1049    117.0720   8.7173617771e+01   4.4605390467e+01    0.3670591    0.1803817  41.79  0.001435806    2.164    0.538
       103  -9.0633     83.4817    119.4294   8.2194453223e+01   4.1410168181e+01      0.15323    0.1471672 -22.78  0.000158432    1.028    0.028
       104  -8.8985     84.0659    113.0061   8.0422751465e+01   4.2884543845e+01    0.1775705    0.1726837  -3.33 0.0002985574    1.027    0.026
       105  -8.9030     62.4829    112.4760   8.7743082683e+01   4.6437281759e+01    0.1499971    0.1408705 -37.91 0.0001170914    1.014    0.014
       106  -8.5913     14.2982    112.6503   1.0548484178e+02   5.1490958309e+01    0.1389057   0.09617122  68.19 0.0007035809    1.686    0.407
       107  -9.7466     45.1571    109.7111   9.3458762674e+01   4.9393400394e+01    0.2820647    0.1934002  88.49  0.001283876    1.932    0.482
       108 -10.4951     34.8688    109.0236   9.7182882827e+01   5.0687110749e+01    0.4657257    0.1150863 -55.53  0.001532772    3.049    0.672
       109 -10.2829     20.9871    109.9876   1.0258795807e+02   5.1681810870e+01    0.2189946    0.1568421  65.47  0.000789371    1.664    0.399
       110  -9.2387    119.0672    108.1192   6.8375384071e+01   3.7275463132e+01    0.2170414    0.1803386  61.28   0.00104728    1.341    0.254
       111  -9.2182     71.8087    107.6427   8.3263953145e+01   4.6227760416e+01    0.2138882    0.1359523  42.46 0.0007943219    1.668    0.400
       112  -9.6198     17.3548    106.9465   1.0345923153e+02   5.2735359119e+01    0.2632864    0.1226621 -78.32 0.0009351867    2.318    0.569
       113 -10.3790     66.3439    104.8633   8.4514329993e+01   4.7756551646e+01     0.374204    0.2565778 -41.54  0.001753102    1.424    0.298
       114  -8.8144    126.5766    105.5606   6.5626153161e+01   3.6243704812e+01    0.1532973    0.1484427 -77.58 0.0001724343    1.086    0.079
       115 -10.4147     76.2651    104.0475   8.0773786136e+01   4.6372441735e+01    0.2704606      0.21872  31.56 0.0002261977    1.262    0.208
       116 -11.1251     80.8810    103.0678   7.8913721997e+01   4.5819935321e+01    0.3022912     0.248146  12.61            0    1.320    0.242
       117  -9.6722     57.1723    103.8782   8.7641175991e+01   4.9328284065e+01    0.2142468    0.2011872 -79.58 0.0003529502    1.162    0.140
       118  -9.4657    117.9102    103.3054   6.7386723649e+01   3.8570090964e+01    0.2116163    0.1981339  25.20 0.0003409578    1.079    0.073
       119  -9.0274    106.2362    103.3811   7.0811731376e+01   4.0963391991e+01    0.1977641    0.1463349  49.86 0.0001888699    1.423    0.297
       120 -10.8836     44.6831    100.9549   9.1704716216e+01   5.1654070841e+01    0.3513952    0.3060362  69.50  0.001932448    1.357    0.263
       121  -9.7936     52.5846    100.8637   8.8640164098e+01   5.0690424780e+01    0.2311669    0.1924294   3.27 0.0004847919    1.280    0.219
       122 -10.3233     69.9876     97.2026   8.1182303937e+01   4.9029593633e+01    0.4458691    0.3020211 -35.31  0.001809111    1.523    0.344
       123 -11.6239    101.6676     97.8693   7.0660098729e+01   4.3106113782e+01    0.2655697    0.2462396  27.44 0.0002362644    1.076    0.071
       124  -9.9589     61.0711     96.9911   8.4434716282e+01   5.0452089328e+01    0.2757728    0.2112787 -61.17 0.0003948993    1.363    0.266
       125 -11.5996    116.6280     94.0033   6.5120144564e+01   4.0820712003e+01    0.3834943     0.267214 -38.77 0.0004149366    1.454    0.312
       126 -10.4759     49.9684     96.3139   8.8530586149e+01   5.2145706252e+01    0.4356543    0.2400412 -15.12  0.001212823    2.992    0.666
       127  -9.2537     26.7502     97.0049   9.7953231905e+01   5.4493591629e+01    0.2044333    0.1785123 -88.31 0.0003731602    1.270    0.213
       128 -10.3683     26.8533     84.7771   9.5235594710e+01   5.7485201190e+01    0.3357003    0.2284785  30.16  0.001000097    1.606    0.377
       129 -11.5414     30.0333     93.2640   9.5823923197e+01   5.5121828603e+01     0.279473    0.2212467 -37.17 0.0003105653    1.170    0.145
       130 -12.1636     34.7640     89.8234   9.3080058435e+01   5.5494652469e+01    0.4739473     0.357597  83.08  0.002421447    1.772    0.436
       131  -9.5266     96.8120     95.3520   7.1464425680e+01   4.4626620629e+01    0.2164125    0.1866592  31.69  0.001095903    1.162    0.139
       132 -10.0453     16.0843     95.0331   1.0189597461e+02   5.5834282797e+01    0.2056322     0.181191 -52.86 0.0005250142    1.022    0.021
       133  -9.4478     81.6214     94.1532   7.6182420970e+01   4.7757520555e+01    0.2468688    0.1778919  28.56 0.0006034718    1.437    0.304
       134  -9.8393     46.1634     93.7590   8.9396183913e+01   5.3245515349e+01      0.23888    0.1472354  66.02 0.0009460105    2.788    0.641
       135  -9.7694      5.1792     93.8785   1.0612864726e+02   5.6796469860e+01    0.1820555    0.1668123 -79.46 0.0004247046    1.147    0.128
       136 -10.3298    126.4662     91.2908   6.1662022694e+01   3.9225686510e+01    0.2679524    0.2541276  41.45 0.0003144052    1.052    0.049
       137  -8.7477      1.3212     94.3024   1.0774734894e+02   5.6885071126e+01    0.1407122   0.07811629 -42.55 0.0003241826    1.630    0.386
       138  -9.1876     92.5158     91.5045   7.1729548198e+01   4.6311718079e+01    0.1522679    0.1461914  -5.40 -1.338422e-05    1.008    0.008
       139  -9.4947     56.6430     89.2343   8.4047086000e+01   5.2933139895e+01    0.3195513    0.1554729  56.26 0.0009742344    4.433    0.774
       140  -8.9534     50.8055     89.1339   8.6338599344e+01   5.3761284160e+01    0.1975885    0.1539913 -25.72 0.0002840787    1.290    0.225
       141  -8.8570    111.7237     88.3012   6.4846492424e+01   4.3050200593e+01    0.1476104    0.1222567 -84.74 0.0002328102    1.539    0.350
       142 -10.4727     86.5701     86.3463   7.2169525724e+01   4.8573465870e+01    0.3163565    0.2873148  58.52  0.001012475    1.232    0.188
       143  -9.7238     13.0685     88.1642   1.0186065903e+02   5.7739407271e+01    0.1978486    0.1554889 -41.33            0    1.134    0.118
       144  -9.1625      9.4158     87.7165   1.0332401666e+02   5.8078823565e+01    0.1957535    0.1549352  45.78 0.0005061334    1.509    0.337
       145  -9.7635    139.0490     87.0140   5.7297444922e+01   3.7230201906e+01    0.2177468    0.2101739 -62.08            0    1.040    0.038
       146  -9.8548    120.4887     87.3335   6.2102206601e+01   4.1337026234e+01    0.3801059    0.2324833  73.00  0.001245324    2.873    0.652
       147  -9.4696    116.0161     84.9760   6.2630543556e+01   4.2788524150e+01    0.2223215    0.2036078 -77.72  0.000326353    1.220    0.180
       148 -10.7700    131.1903     85.8749   5.8883296908e+01   3.9229435588e+01    0.2478496    0.2273223  40.99 0.0002774975    1.094    0.086
       149 -10.0011    102.7559     85.3334   6.6621520560e+01   4.5555808323e+01    0.2814254    0.2080757 -44.52 0.0006814101    1.370    0.270
       150 -11.0217     76.6634     82.0723   7.4336808644e+01   5.1321152154e+01    0.5376573    0.3907222  18.74  0.002581282    1.516    0.341
       151 -10.5845     71.0224     82.1612   7.6442608054e+01   5.2285456865e+01    0.2397949    0.2069859 -44.35            0    1.160    0.138
       152  -9.8179     20.3175     82.2120   9.7491534720e+01   5.8658365481e+01    0.2405902    0.2144079  83.96  0.001316201    1.336    0.251
       153  -9.2038      1.7127     83.0150   1.0578628494e+02   5.9636096074e+01    0.1775538    0.1428903 -58.81 0.0003178169    1.058    0.055
       154  -9.7846    121.0772     81.9114   6.0324744314e+01   4.2265255385e+01    0.2167874    0.1992455  84.15            0    1.194    0.162
       155  -9.8637     53.9268     81.1195   8.2819546325e+01   5.5189492478e+01    0.2586926    0.1932724 -33.19 0.0007916828    1.291    0.226
       156  -9.9118     45.7581     81.4766   8.6304379496e+01   5.6206522317e+01    0.2903228    0.2459788  79.39  0.001569568    1.565    0.361
       157  -9.5319    143.6227     81.1327   5.4566372099e+01   3.7272169856e+01    0.2126883    0.1837389 -37.53  0.001116135    1.171    0.146
       158  -8.6385    112.6800     81.7252   6.2583328687e+01   4.4158878624e+01    0.1513055     0.118102  11.91  0.000515087    1.573    0.364
       159  -9.9642    104.4477     79.7568   6.4382137868e+01   4.6322558942e+01    0.3239242    0.1496129 -41.91   0.00122849    2.198    0.545
       160 -11.0820    104.8542     74.3250   6.2537458372e+01   4.7286521420e+01    0.3673315    0.3107187 -79.55  0.001865461    1.484    0.326
       161 -10.6378    101.9761     68.9793   6.1657088674e+01   4.8905513725e+01    0.2896343    0.2142092 -41.78  0.001425984    1.398    0.285
       162  -9.7297     91.9824     80.1366   6.8428410438e+01   4.8822669026e+01     0.224076     0.218109  -8.12 0.0006376441    1.038    0.037
       163  -9.0003    154.9937     79.2694   5.1609634390e+01   3.4980615405e+01     0.183917     0.126915  56.11 0.0004251853    1.458    0.314
       164  -9.5250    121.8387     78.1244   5.8974075083e+01   4.2811005455e+01    0.2110171    0.1987896 -81.29 0.0002817809    1.139    0.122
       165  -9.6442     73.1090     77.1737   7.4097904872e+01   5.2996055343e+01    0.2314725    0.2002879 -48.29 0.0005354584    1.212    0.175
       166 -10.8921     77.1695     74.8372   7.1847750701e+01   5.2752498454e+01    0.4592828    0.3041513  38.54 0.0007661494    1.499    0.333
       167 -10.1846     60.4602     76.4924   7.8769481603e+01   5.5243356163e+01    0.3569891     0.242161  -5.47 0.0008827914    1.878    0.468
       168 -11.0078      4.6827     75.9262   1.0316357878e+02   6.1189102578e+01    0.4846228    0.2452467 -51.51  0.002293948    1.575    0.365
       169 -10.8027     83.4759     74.6262   6.9534172341e+01   5.1610237344e+01    0.3081638    0.2479109 -29.00 0.0005453518    1.258    0.205
       170 -11.1275     47.2805     73.7046   8.3373618117e+01   5.7763325208e+01    0.6030626    0.3987356  61.90  0.002364487    2.530    0.605
       171 -11.3865     17.4165     71.1236   9.6182745920e+01   6.1495637157e+01    0.4292866     0.245942 -45.54  0.001207351    1.476    0.322
       172  -9.1559     11.4477     75.4569   9.9972885089e+01   6.0905227542e+01    0.1344419    0.1096352 -42.61 0.0001358262    1.037    0.036
       173  -9.1516    136.2836     74.3457   5.4264911307e+01   4.0181859810e+01    0.2319521    0.1541842 -31.47 0.0005079711    1.623    0.384
       174 -10.2841    140.3984     72.5200   5.2791653232e+01   3.9541303761e+01    0.2331449    0.2156391 -64.41 9.407073e-05    1.100    0.091
       175 -11.3469    136.9735     69.5091   5.2665827816e+01   4.0856507429e+01    0.3025619    0.2585721 -44.91 0.0003083418    1.189    0.159
       176  -8.7418    130.6958     74.7150   5.5700260210e+01   4.1410266809e+01    0.1469954    0.1162313  17.48 0.0002363731    1.561    0.359
       177  -9.8904    152.1997     72.8383   5.0379249185e+01   3.6731419881e+01    0.1956799      0.17326  20.51 0.0005463757    1.315    0.240
       178  -9.7354     57.0171     72.4813   7.8891818696e+01   5.6637616952e+01    0.2773823    0.1794424 -32.97 0.0006981698    1.563    0.360
       179 -10.6840     33.2121     62.8788   8.6342292430e+01   6.1848477901e+01    0.3043889    0.2263791 -34.65  0.001039919    1.201    0.168
       180 -10.0278     33.1301     71.9364   8.9113119993e+01   5.9863805667e+01    0.2005674    0.1817274 -28.52 0.0002760267    1.051    0.048
       181 -10.7189     35.2879     67.4343   8.6791253203e+01   6.0626699541e+01    0.3951659    0.2335513 -57.36  0.001067367    1.731    0.422
       182  -9.9139     63.6324     70.4325   7.5543589793e+01   5.6020353067e+01    0.2671648    0.2177836  33.60 0.0007625943    1.243    0.196
       183  -8.7801    129.2472     70.6915   5.4829641404e+01   4.2454538934e+01     0.142914    0.1133579 -70.88 0.0002111874    1.506    0.336
       184 -10.5551     76.2668     66.3502   6.9322887544e+01   5.4611828284e+01    0.3228517    0.2628442  -4.14  0.001476135    1.308    0.235
       185 -11.3584    111.0012     65.8714   5.8026301798e+01   4.7470524013e+01     0.257358    0.2335194 -45.20  0.000306745    1.158    0.136
       186 -10.0539    108.1905     62.8261   5.7803420304e+01   4.8627828434e+01    0.2364451    0.2074345 -12.90 0.0002203271    1.224    0.183
       187  -9.5865     89.6507     66.9611   6.4869761295e+01   5.1872808094e+01     0.311373    0.2281531 -70.63 0.0009758746    2.041    0.510
       188 -11.5537     70.6574     64.0774   7.0627415627e+01   5.6080468401e+01    0.3811013    0.3534839  55.47 0.0005385649    1.269    0.212
       189 -10.5167     48.6897     66.6593   8.0521184673e+01   5.9090115521e+01    0.3289876    0.2653604  38.88  0.001570772    1.379    0.275
       190  -9.9071     40.0546     66.7998   8.4412002014e+01   6.0199268825e+01    0.2746623    0.1963003  23.44 0.0006323062    1.422    0.297
       191 -10.3970     42.7565     64.3600   8.2398755560e+01   6.0376970100e+01    0.3232367    0.2706935  10.36  0.001165581    1.165    0.142
       192  -9.2808     10.0931     66.3929   9.8523749024e+01   6.3097524553e+01    0.3090189    0.1820614  66.79  0.001364332    3.068    0.674
       193 -10.6517      2.6072     66.0635   1.0209376816e+02   6.3598994992e+01    0.4609525    0.2738096  85.75  0.002228216    2.478    0.596
       194  -9.1279    121.4424     66.4791   5.5452161488e+01   4.4986759265e+01    0.1449131    0.1411136  53.21  5.70915e-05    1.012    0.012
       195 -10.0731     59.2040     66.0111   7.5843647918e+01   5.7645543949e+01    0.4415707    0.2354426  24.54  0.001879823    2.112    0.526
       196 -10.1532     97.1311     69.5767   6.3342791635e+01   4.9830205226e+01    0.3007545    0.2038329 -33.72 0.0008871706    1.541    0.351
       197 -10.4041    194.9194     62.6133   4.0567650367e+01   2.8626905376e+01    0.5023493    0.3149867  -3.83 0.0005434725    3.431    0.709
       198  -8.8994    118.9942     63.9782   5.5278618014e+01   4.5975677350e+01    0.1698253    0.1643521 -29.93            0    1.072    0.067
       199  -9.9417     83.1064     63.1567   6.5769955319e+01   5.3896011134e+01    0.2271343    0.2026096 -29.63 0.0003998632    1.138    0.121
       200 -10.9119    147.1088     61.6418   4.8182630796e+01   3.9749846564e+01    0.2416702     0.212272 -58.28 0.0003636973    1.150    0.130
       201 -12.9658    150.7838     57.7035   4.6323627960e+01   3.9483910051e+01    0.3845633    0.3314286 -52.50 0.0004750063    1.164    0.141
       202 -10.2769    219.0273     59.2804   3.6847437808e+01   2.4055590785e+01    0.2736419    0.1548662 -37.96 0.0008228775    1.600    0.375
       203  -8.9497    167.5098     61.4950   4.4412537049e+01   3.4976474189e+01    0.1379245    0.1308074 -81.97 0.0008103859    1.032    0.031
       204  -9.0965    116.1881     61.0168   5.5042519981e+01   4.7115775075e+01    0.2188232    0.1597608  72.84  0.001038104    1.644    0.392
       205 -10.1375    102.0958     59.4978   5.8424445276e+01   5.0549102750e+01    0.5186342    0.2888972  29.98  0.001765351    2.327    0.570
       206  -9.7249      9.8201     60.8825   9.7275089771e+01   6.4358897443e+01    0.1616068    0.1522691  77.17 0.0006073233    1.353    0.261
       207 -11.2530     61.6248     57.4028   7.1794139270e+01   5.8931509733e+01    0.3806064     0.267746 -14.54 8.870151e-05    1.604    0.376
       208 -10.5965     57.0133     57.0000   7.3562407852e+01   5.9771775609e+01     0.521997     0.302378  54.87  0.002181123    2.713    0.631
       209  -9.8290    213.9366     58.4341   3.7228646860e+01   2.5207650891e+01    0.2149148    0.1483241 -50.79  0.001244355    1.259    0.205
       210  -9.8844      4.0014     59.3482   9.9844334347e+01   6.5048536843e+01    0.2485543    0.1487935 -15.06 0.0006764665    1.701    0.412
       211 -10.9219      4.6887     50.0530   9.7030017687e+01   6.7041410874e+01    0.5969703    0.3581277 -35.03  0.003388243    1.406    0.289
       212  -9.8032      7.5313     57.0190   9.7429883746e+01   6.5359991231e+01    0.2151163    0.1442052 -31.16 0.0004050224    1.303    0.233
       213 -10.6668     10.5969     55.8122   9.5502613579e+01   6.5423369866e+01    0.2639771    0.2081978  88.99  0.001554935    1.759    0.431
       214 -10.4530     94.9279     55.4028   5.9145354253e+01   5.2798513756e+01    0.4903961    0.3559932 -78.97  0.002219813    2.260    0.558
       215  -8.9978     37.6527     58.1882   8.2686992843e+01   6.2309432440e+01    0.2051333    0.1075125 -40.78 0.0009516955    1.765    0.433
       216 -10.2808    184.8954     54.6065   3.9960413868e+01   3.2006014094e+01    0.3910961    0.1666934 -45.24  0.001255976    2.195    0.544
       217 -10.8020    160.9316     56.0688   4.4037597606e+01   3.7326647955e+01    0.3626882     0.348762 -83.34  0.001375173    1.054    0.051
       218  -9.9370     80.5819     44.1442   5.9595979927e+01   5.7620656299e+01    0.3573543    0.2460826  10.30  0.001735463    1.814    0.449
       219 -10.9409     85.2603     49.1989   5.9960950334e+01   5.5860235100e+01    0.4897643    0.3561673   6.45  0.001860562    1.673    0.402
       220  -9.9951     81.7060     47.7050   6.0586903883e+01   5.6833618659e+01    0.3476781    0.1993637 -25.75  0.001123055    2.009    0.502
       221 -11.1387     78.5136     55.6614   6.4688271281e+01   5.6147658028e+01    0.4288879    0.3436418   8.62 0.0009562167    1.321    0.243
       222 -10.6277     83.6460     54.8191   6.2590182067e+01   5.5265694224e+01    0.3528577    0.2321381  42.43  0.001724884    1.444    0.308
       223 -10.4578     35.0475     51.3178   8.1514476728e+01   6.4012563880e+01    0.2265849     0.176708 -37.17 0.0002681508    1.199    0.166
       224 -11.2687     30.7001     53.6347   8.4493727223e+01   6.4061363764e+01     0.411079    0.3463187 -89.75  0.001751174    1.801    0.445
       225  -9.9689     27.0853     56.4072   8.7234807807e+01   6.3878994601e+01    0.2443612    0.1727508   7.76 0.0009008474    1.421    0.296
       226 -11.0268    246.0949     55.7033   3.3422784465e+01   1.9384471403e+01    0.2023811    0.1520705 -49.21 0.0002300155    1.085    0.078
       227 -10.5242    200.7496     54.7647   3.7936414459e+01   2.8492599910e+01    0.2477107    0.2417738  60.22  0.000751632    1.239    0.193
       228 -10.2203    201.3637     50.1479   3.6773315546e+01   2.8996957196e+01    0.2495104    0.2096239 -86.57 0.0009702341    1.126    0.112
       229 -10.8274    175.9551     55.3802   4.1446992549e+01   3.3928924686e+01      0.41087    0.2544799 -63.22  0.001297324    1.806    0.446
       230 -11.3083    127.8056     52.2502   4.9386103262e+01   4.5772812571e+01    0.5165536    0.3416829 -53.78  0.002467234    1.733    0.423
       231 -10.8270    121.8775     48.4213   4.9492546722e+01   4.7739449908e+01    0.2705655    0.2388061 -86.87 0.0003286522    1.232    0.188
       232  -9.0952    135.6887     53.7075   4.8132820488e+01   4.3679676076e+01    0.1424497    0.1078936  28.29 0.0004232781    1.589    0.371
       233 -10.1112     63.7849     49.1534   6.7789100670e+01   6.0043425100e+01    0.2827769    0.2527709 -83.24 0.0009738072    1.593    0.372
       234 -10.5594     23.7502     50.8160   8.7059441009e+01   6.5372163649e+01    0.2401053    0.1818996 -16.20 0.0002764311    1.199    0.166
       235  -9.8188     26.5129     47.5617   8.4470193863e+01   6.5738502636e+01     0.295682    0.2141762 -67.37  0.001609517    1.921    0.480
       236 -11.0801     17.8292     49.1654   8.9626804673e+01   6.6264582041e+01    0.3591186    0.2497992 -49.85  0.001127034    1.348    0.258
       237 -10.9057    211.7468     49.5156   3.5460947856e+01   2.6885832143e+01    0.2853006     0.207474  88.98 0.0008084814    1.379    0.275
       238 -11.9696    137.5402     47.2489   4.5755752153e+01   4.4169410876e+01    0.3430795    0.2780484 -76.10 0.0007761231    1.353    0.261
       239  -9.8401    104.8750     49.7871   5.4255155793e+01   5.1484712825e+01    0.4736236    0.2350654  70.36  0.001548976    3.845    0.740
       240  -9.5153     55.1164     49.9057   7.1690779883e+01   6.1394100141e+01    0.2160202    0.1511746  -5.70 0.0007807612    1.623    0.384
       241  -9.4278     45.2527     48.8746   7.5706709292e+01   6.3107123847e+01    0.2938055    0.1452919 -34.37  0.001308143    2.071    0.517
       242 -10.0837    246.3029     48.0975   3.1896819023e+01   2.0344514819e+01    0.2134822    0.1611271 -24.63 0.0009738335    1.639    0.390
       243  -9.2305    233.1790     48.3856   3.3094261164e+01   2.2753757948e+01    0.1549969    0.1027328 -87.47 0.0003734331    1.576    0.365
       244 -10.2186     32.9808     45.5550   8.0386621412e+01   6.5379618171e+01    0.5362022    0.2436512 -29.14  0.002213786    2.654    0.623
       245  -9.9269     90.7063     62.2385   6.2894575572e+01   5.2517667004e+01    0.3482596    0.2274338  66.35 0.0009839715    2.211    0.548
       246 -12.2810    163.3548     42.4582   3.9870923069e+01   3.8647765358e+01    0.3847593    0.2731122 -88.98 0.0001086771    1.486    0.327
       247 -10.1834     90.8367     43.8457   5.6166169900e+01   5.5495464518e+01    0.3468583    0.2307257  40.99 0.0007663656    1.404    0.288
       248 -10.5428     91.1025     40.1734   5.4691460450e+01   5.5968203279e+01    0.4648889    0.2256649  38.87   0.00023084    2.115    0.527
       249 -11.0556    109.0235     43.3707   5.0896378698e+01   5.1470896019e+01    0.3131281    0.2335194  63.72 0.0003438026    1.352    0.260
       250 -10.7675     54.3003     36.8169   6.6685049339e+01   6.3737070516e+01    0.3649072    0.2019824  34.51 0.0004583172    1.700    0.412
       251 -12.0121     57.2266     41.6141   6.7458438223e+01   6.2464008534e+01    0.4635748    0.2923545  25.74 0.0004234424    1.588    0.370
       252 -10.9694     62.5820     37.6852   6.3611500354e+01   6.2127022058e+01    0.3953734    0.2653294  40.68 0.0008530109    1.405    0.289
       253  -9.1217     39.9711     44.4870   7.6491883438e+01   6.4663326063e+01    0.1887874     0.122122  29.15 0.0004934101    1.507    0.337
       254 -10.7993    141.8042     42.9986   4.3634005152e+01   4.3725723876e+01    0.4803616    0.1677387  55.21 0.0007834206    2.550    0.608
       255  -8.7953    128.3312     43.6653   4.6508180089e+01   4.6871545849e+01    0.1460873    0.1053386 -73.46  0.000705218    1.730    0.422
       256 -10.8234     17.9398     41.5426   8.6889737075e+01   6.7779733790e+01    0.3158543    0.2424379 -55.76  0.001383467    1.479    0.324
       257  -9.4303     97.9400     41.6948   5.3268821130e+01   5.4236784530e+01    0.1920744    0.1674957  47.24 0.0004369647    1.066    0.062
       258  -8.9522    218.2969     41.6643   3.3052251517e+01   2.6565557647e+01    0.1320981   0.07613863 -61.97 0.0007030775    1.650    0.394
       259  -8.9014    204.5604     41.5218   3.4404650906e+01   2.9450802669e+01    0.1288814    0.1050656 -66.40 7.059693e-05    1.057    0.054
       260  -9.9592     28.5342     40.7857   8.0823785463e+01   6.6807089923e+01    0.2735749    0.1731185 -15.41 0.0007318166    1.647    0.393
       261  -9.7438    230.8347     39.6016   3.1479290369e+01   2.4331541010e+01    0.2302063    0.1358898 -47.91  0.000665921    1.393    0.282
       262  -9.1095     76.4883     40.5255   5.9578231796e+01   5.9003375103e+01    0.1375428    0.1247897  24.97 7.195948e-05    1.033    0.032
       263 -10.5876     43.9880     39.0841   7.2337083460e+01   6.5031791241e+01    0.2275347     0.169819 -25.28 0.0003534721    1.271    0.213
       264 -11.5863    140.2610     37.8831   4.2351360935e+01   4.4763049719e+01    0.2415234    0.2290356 -74.71 0.0002103916    1.076    0.071
       265 -10.7205     83.3114     36.6301   5.5730977098e+01   5.8145778777e+01    0.4159238    0.2175974 -54.45  0.001602341    3.347    0.701
       266 -10.6322     81.4926     33.4933   5.5055055179e+01   5.8958807139e+01    0.3631035    0.2825269   7.04  0.002027536    1.395    0.283
       267 -10.5303    201.9928     37.3994   3.3719950202e+01   3.0523963587e+01    0.2218233    0.1668392 -46.28 0.0002621067    1.233    0.189
       268 -10.1601    127.3570     37.4890   4.4702828868e+01   4.7919712978e+01    0.3745427    0.2088258  64.54  0.001732126    1.719    0.418
       269 -10.8357     72.3529     36.4853   5.9400178592e+01   6.0426684175e+01    0.4313607    0.2599815  15.16  0.001013121    2.292    0.564
       270  -9.5644      2.3273     38.1160   9.4734146829e+01   6.9655770912e+01    0.2033373    0.1494962  -4.57 0.0002505804    1.287    0.223
       271 -10.1490      6.8281     37.3913   9.1800910264e+01   6.9505142706e+01    0.2815152      0.12603 -13.14  0.001231957    2.792    0.642
       272 -10.4748    193.9415     36.1837   3.4295496450e+01   3.2432484061e+01     0.372734     0.198987 -45.08  0.001468621    1.701    0.412
       273  -9.3624    111.9308     36.6469   4.7813490843e+01   5.1696741773e+01    0.2429471     0.133619 -63.61 0.0006957732    3.288    0.696
       274  -9.1780     32.5891     37.4724   7.7333464441e+01   6.6906223308e+01    0.1314259     0.107118  -9.95 5.530064e-05    1.047    0.045
       275  -9.7042    241.0898     36.4703   3.0011119261e+01   2.2766742061e+01    0.1513693    0.1044763  81.48  0.000320565    1.484    0.326
       276  -9.5946    161.7622     35.6224   3.8213782481e+01   3.9894295104e+01    0.2524881    0.1620906  81.01  0.001178348    1.579    0.367
       277 -11.0583    246.3921     32.4146   2.8822838700e+01   2.2278736868e+01    0.3331548    0.1607134 -47.75  0.001070671    1.608    0.378
       278 -10.6329    169.9054     33.7547   3.6579239657e+01   3.8205051351e+01    0.2696907    0.1965879 -40.14 0.0005594933    1.388    0.280
       279  -9.7351    115.3702     34.6393   4.6315875593e+01   5.1139861326e+01    0.3219182    0.1201477 -34.91  0.001256816    2.776    0.640
       280  -9.1523    106.7133     34.7662   4.8407073691e+01   5.3157343002e+01    0.1872075    0.1502945  46.99  0.000316014    1.137    0.120
       281 -11.5072     40.2298     33.0436   7.1532244358e+01   6.6593113861e+01     0.294324    0.2188362  -0.17  0.001726476    1.280    0.219
       282 -11.0267     47.1588     27.4192   6.5661475580e+01   6.6361022415e+01     0.457189    0.2590902 -40.01  0.002199071    1.943    0.485
       283 -10.7144    123.7225     30.8098   4.3232156532e+01   4.9612229040e+01    0.3420056    0.2505423  34.47  0.001510457    1.509    0.337
       284  -9.8821     97.0629     33.1371   5.0304529842e+01   5.5581800172e+01    0.1989397    0.1769323  47.44 0.0002767293    1.032    0.031
       285  -9.7175     16.8257     32.8023   8.4115409671e+01   6.9533357614e+01     0.212506     0.142383 -31.13 0.0005855057    1.286    0.222
       286 -10.7134     16.1120     28.1177   8.2550407373e+01   7.0440965893e+01    0.3701702    0.2246151  -2.21  0.002060447    1.676    0.403
       287 -11.2692    236.4020     29.8859   2.9053571161e+01   2.4444388124e+01     0.373882    0.2697873 -54.56  0.001850084    1.111    0.100
       288  -9.7812    154.9342     31.9022   3.8167291066e+01   4.1970054678e+01    0.1940728     0.169731  59.07 0.0004534018    1.159    0.137
       289 -11.2531    132.0804     29.5754   4.1228934443e+01   4.7744652449e+01    0.3107328    0.2452263 -15.44            0    1.509    0.337
       290  -9.0463    142.4983     31.4923   4.0008681320e+01   4.5006274844e+01    0.1348101    0.1219569  71.35  0.000810432    1.032    0.031
       291  -9.7935    110.3478     29.6336   4.5694660846e+01   5.2934452591e+01    0.2550468    0.1996116  66.27  0.001153014    1.224    0.183
       292 -11.4875     35.8483     27.0904   7.1012825379e+01   6.8175495083e+01    0.6685008    0.3528384  19.35  0.002485937    2.122    0.529
       293  -9.8741    220.0116    247.2323   7.3992735755e+01  -6.2373756935e+00    0.1504715   0.08059321  24.62 0.0008851698    1.657    0.397
       294 -11.0578     46.8667     19.6480   6.2070451492e+01   6.7474626614e+01    0.4721365     0.244356  56.44  0.001499618    3.054    0.673
       295  -9.8020    181.8224    247.1870   8.1214763204e+01  -1.6382941897e+00    0.1778499     0.121301   2.81  0.001075206    1.353    0.261
       296  -8.8307     76.9596    246.9840   1.0357590640e+02   1.2341197758e+01    0.1486577    0.1234872  42.62 0.0003655777    1.007    0.007
       297 -10.6616     30.0769    245.0548   1.1345127924e+02   1.8146241307e+01    0.2787851    0.1686742  85.71   0.00100277    1.666    0.400
       298 -10.9041      4.8386    246.2710   1.1860293030e+02   2.0361821646e+01    0.3216119     0.121269  42.67  0.001737596    1.959    0.490
       299  -9.6582    215.9730     29.0181   3.0509386759e+01   2.8595553508e+01     0.186632    0.1499301 -69.41 0.0004920853    1.026    0.026
       300 -10.6324     80.3152     27.1230   5.2810883548e+01   6.0025382088e+01    0.5060159    0.2395342  39.28  0.002234858    2.053    0.513
       301  -9.6879    179.8459     28.4869   3.3980836563e+01   3.6529393755e+01     0.189659    0.1154409  71.64 0.0006754142    1.533    0.348
       302  -9.8127    121.0654     26.6184   4.2352763294e+01   5.0731808824e+01    0.2992843    0.1769068  56.33  0.000866849    1.489    0.329
       303  -9.7253    207.0107     25.5071   3.0518830811e+01   3.0876785355e+01    0.1886055    0.1647709 -25.76 0.0004643731    1.426    0.299
       304  -9.7977    183.4251     25.3250   3.2787218224e+01   3.6076694637e+01    0.2181885    0.1695409 -56.93 0.0008936682    1.188    0.158
       305 -10.3139     73.0768     25.4975   5.4489261309e+01   6.1746551336e+01    0.2308341    0.2167687   3.38 0.0008072063    1.138    0.121
       306  -9.5888     66.2613     25.6240   5.6955690058e+01   6.3109227857e+01    0.2121398    0.1567211 -40.16 0.0004361567    1.598    0.374
       307 -10.1489     98.7300     23.5886   4.6229529454e+01   5.6332387014e+01    0.2590889    0.2490307  71.75 0.0009353004    1.127    0.112
       308  -9.5677     23.4425     24.7462   7.6680610429e+01   7.0198034293e+01    0.2181881     0.114022 -45.02   0.00112929    2.010    0.503
       309  -9.9401    212.4366     22.7732   2.9448372438e+01   3.0049011374e+01    0.2607906    0.1656814 -30.40  0.001543664    1.723    0.420
       310 -10.4532    164.2480     22.6859   3.4324453753e+01   4.0806322113e+01    0.3287924    0.2356111  40.74  0.001506818    1.702    0.413
       311  -9.8328      1.3129     22.6587   8.9638522836e+01   7.2672072980e+01      0.24341    0.1193738 -60.55  0.001034477    2.525    0.604
       312  -9.2214      2.3446     19.3515   8.7510340427e+01   7.3184060200e+01    0.2042341    0.1088847 -32.55 0.0007332849    1.572    0.364
       313 -10.1552    224.9836     23.0171   2.8509733988e+01   2.7467216611e+01    0.2342628    0.1523499  71.15   0.00032779    1.575    0.365
       314 -10.1041    158.7930     22.8107   3.5056388781e+01   4.2082448800e+01    0.2114038    0.1820056  72.74 0.0006435382    1.091    0.083
       315 -10.9863    106.2424    244.1495   9.6834108951e+01   9.0436289175e+00    0.2831041    0.2592591  60.23 0.0007668879    1.201    0.167
       316  -9.4674    223.3960    245.1896   7.3070051878e+01  -6.3435743455e+00    0.1419087   0.09899754 -36.21 0.0005961963    1.632    0.387
       317 -10.7341     15.9375    249.5173   1.1655945988e+02   1.8687715766e+01    0.2893656     0.240371  33.11  0.001298141    1.318    0.241
       318 -11.3982    238.3671     20.9572   2.7145186198e+01   2.5103239713e+01    0.3467042    0.2799883  49.85  0.001650315    1.757    0.431
       319 -10.6876    236.5204     16.5354   2.6399415297e+01   2.5945152363e+01    0.2063211    0.1244643  88.75 0.0006701766    1.569    0.363
       320  -8.9296    187.9569     21.9948   3.1497550287e+01   3.5428199515e+01    0.1468495    0.1244381 -75.12 0.0003148723    1.016    0.016
       321 -10.1262    179.5042     21.5895   3.2273378204e+01   3.7384532288e+01    0.2931443    0.1824222 -63.06  0.001608569    1.570    0.363
       322 -10.7588    165.9229    243.3014   8.3862989471e+01   1.0416579898e+00    0.2162846    0.1899864  19.27 0.0003642328    1.186    0.157
       323 -10.1237      5.3293     15.9140   8.3862571516e+01   7.3526585407e+01    0.2035114    0.1481776   6.67 0.0002997448    1.233    0.189
       324  -9.1533    142.7026     21.6056   3.6976357884e+01   4.6062129359e+01    0.2626503    0.1057944  62.20   0.00100411    2.120    0.528
       325 -10.7252    159.8581    242.8978   8.5064545426e+01   1.9223831271e+00    0.2058298    0.1762492 -37.03  0.001354064    1.364    0.267
       326 -10.1234     41.9150    242.1003   1.1076673760e+02   1.7466995016e+01    0.1813153    0.1545948  53.86 0.0006043972    1.056    0.053
       327 -10.8653      4.6411    238.5726   1.1831966704e+02   2.1913199573e+01    0.1983029    0.1579687  79.55 0.0008395376    1.145    0.127
       328  -9.3914     52.2410    238.5794   1.0826570489e+02   1.7009277657e+01    0.1596318    0.1111566  22.27 0.0003111343    1.544    0.352
       329 -10.5139     14.8946    237.9079   1.1619934336e+02   2.1102077097e+01    0.1598848    0.1518306  84.52 0.0005421639    1.277    0.217
       330  -9.5360     81.3757     18.8883   4.9026579271e+01   6.0740759850e+01    0.2943043    0.1299776 -21.42  0.001263008    2.717    0.632
       331  -9.3242    131.1275     19.6841   3.8221500921e+01   4.9052204210e+01    0.2843656    0.1165704  74.19  0.001107282    2.684    0.627
       332  -9.0784     69.0000     18.9753   5.2997985005e+01   6.3353839511e+01    0.1917914   0.07327922 -28.08 0.0004395355    2.861    0.651
       333 -10.8945     56.0269     18.1137   5.7415038763e+01   6.6009515244e+01    0.6280336    0.2107494  40.56  0.002519235    2.704    0.630
       334 -10.4433    125.5302    236.8129   9.1641693183e+01   7.7407054780e+00    0.2558355    0.1650783  30.68  0.001398681    1.332    0.249
       335 -12.0519    119.2446    231.3268   9.2328450777e+01   9.6614765717e+00    0.4410195    0.2966196 -47.76 0.0005634979    1.664    0.399
       336 -10.6942    193.5050     16.8143   2.9733341087e+01   3.4758271908e+01    0.2148349    0.1726756 -85.77 0.0002947325    1.076    0.071
       337  -9.4816    198.0163    235.3227   7.6216610364e+01  -1.9132498714e+00    0.1701056    0.1332204   8.08 0.0004525995    1.062    0.059
       338  -9.5254     89.4586    235.4923   9.9623534099e+01   1.2968161420e+01    0.1294255    0.1121471  39.73 -1.052641e-05    1.004    0.004
       339 -10.0822     27.6431    233.9525   1.1328974029e+02   2.0658159015e+01    0.3275662   0.09983919  52.89  0.001340204    3.023    0.669
       340 -10.9740      5.8310    233.9386   1.1787401436e+02   2.2752757533e+01     0.226944    0.1425196  27.84  0.001415716    1.656    0.396
       341  -9.4007    160.3231    232.3265   8.3404324133e+01   3.6283023100e+00    0.1352432    0.0901864  -4.34 0.0004407328    1.689    0.408
       342  -9.2291     43.9827    232.0409   1.0958171181e+02   1.9305204005e+01    0.1468968    0.1237982  59.95 0.0009658374    1.023    0.023
       343 -11.3560    140.4035    227.3983   8.7008271637e+01   7.3544887493e+00    0.2939051    0.2109813  23.79  0.001222305    1.242    0.195
       344 -10.2444      4.0741    228.4928   1.1799024058e+02   2.4040689429e+01    0.1660459    0.1019137  33.47 0.0005468986    1.554    0.356
       345 -11.0072     22.9730    224.9957   1.1374870810e+02   2.3025784800e+01    0.3398176    0.2783076 -35.52  0.002212602    1.665    0.400
       346 -10.4655      7.5298    225.0221   1.1709742937e+02   2.4470359406e+01     0.171245    0.1023809 -85.68 0.0004709295    1.553    0.356
       347 -11.5208    108.2527    220.2078   9.3389635990e+01   1.3450949967e+01    0.4157334    0.2497925  41.75 0.0008608485    1.532    0.347
       348 -11.4819     72.9268    213.6215   1.0108231708e+02   1.9779430851e+01    0.6743875    0.4339446  29.74  0.003515679    1.483    0.326
       349 -10.0432    122.0022    225.0407   9.0842718632e+01   1.0482602609e+01    0.2456968    0.1963419 -53.75 0.0009498413    1.423    0.297
       350  -9.7989     98.1281    225.1627   9.6415373075e+01   1.3873130912e+01    0.1966588     0.175705   3.99 0.0005191078    1.208    0.172
       351 -11.4559    118.7059    216.3767   9.0381997977e+01   1.2701168485e+01    0.4266232     0.345096 -71.30   0.00241109    1.509    0.337
       352 -10.3298     12.0313    216.9939   1.1569465059e+02   2.5806106801e+01    0.1829705    0.1490499  70.07 0.0003503085    1.020    0.019
       353 -10.9489     76.9911    219.2585   1.0073332767e+02   1.8005279054e+01    0.6142447    0.3891189  11.32  0.002978913    2.057    0.514
       354 -10.0706     91.7182    214.3344   9.6585926560e+01   1.7059442390e+01    0.4295331    0.1515633  32.22  0.001636187    2.544    0.607
       355  -9.1994     23.0430    213.4795   1.1298512250e+02   2.5551824431e+01    0.1608783    0.1051424 -13.54  0.000809763    2.559    0.609
       356  -9.2793    248.8854     22.4586   2.6752027489e+01   2.2985911685e+01    0.1500999   0.09699958  83.44  0.001013332    1.544    0.352
       357 -11.7162    149.0214    210.8087   8.2485314158e+01   9.2068869914e+00      0.24761    0.2239394 -15.30 0.0004226912    1.104    0.095
       358  -8.8711     42.2742    208.3216   1.0802691729e+02   2.4716317521e+01    0.1225542   0.09675382 -40.13 0.0002571786    1.575    0.365
       359 -11.1932     90.1154    204.6422   9.5710745615e+01   1.9429577569e+01    0.5052854    0.3290527 -86.32  0.001704848    2.048    0.512
       360  -9.4309    193.6765    206.6773   7.2250905422e+01   3.2726762976e+00    0.1386063   0.09014647  -6.36  0.000704699    1.681    0.405
       361  -9.9615     73.9604    205.0417   9.9824687307e+01   2.1580466152e+01       0.2881    0.1937698  23.37  0.001197744    1.557    0.358
       362 -11.1904     11.3182    202.3137   1.1498969691e+02   2.9180474015e+01    0.2693337    0.2056031  80.98  0.001317254    1.134    0.118
       363 -10.8922    167.1089    198.2099   7.6278203085e+01   8.8088533339e+00     0.232294    0.2052877 -10.34 0.0002362535    1.048    0.046
       364  -9.1875    135.5432    198.0620   8.3486885162e+01   1.3888739659e+01    0.2037682    0.1408337 -50.46 0.0004866308    1.546    0.353
       365 -10.2594    103.6391    194.2068   9.0766760466e+01   1.9784509339e+01    0.3802315    0.2488916 -19.30   0.00165794    2.222    0.550
       366  -9.1892     58.0692    196.5280   1.0288038224e+02   2.5624533524e+01    0.2045279    0.1233021  35.97 0.0007149462    1.549    0.355
