#   1 NUMBER                 Running object number                                     
#   2 MAG_AUTO               Kron-like elliptical aperture magnitude                    [mag]
#   3 X_IMAGE                Object position along x                                    [pixel]
#   4 Y_IMAGE                Object position along y                                    [pixel]
#   5 X_WORLD                Barycenter position along world x axis                     [deg]
#   6 Y_WORLD                Barycenter position along world y axis                     [deg]
#   7 A_WORLD                Profile RMS along major axis (world units)                 [deg]
#   8 B_WORLD                Profile RMS along minor axis (world units)                 [deg]
#   9 THETA_WORLD            Position angle (CCW/world-x)                               [deg]
#  10 FWHM_WORLD             FWHM assuming a gaussian core                              [deg]
#  11 ELONGATION             A_IMAGE/B_IMAGE                                           
#  12 ELLIPTICITY            1 - B_IMAGE/A_IMAGE                                       
         1 -12.9198    204.4836     49.0587   2.4292849457e+01   2.6726954349e+01     1.041097     1.009706  25.74  0.003999386    1.163    0.140
         2 -13.1219    214.8074     40.6295   2.0626283918e+01   2.5292364057e+01    0.8441562    0.6973023  52.00  0.001344098    1.295    0.228
         3 -12.7923    242.1171     16.9167   1.1903002429e+01   2.1691849807e+01    0.8926079    0.7590386 -64.24  0.004456877    1.057    0.054
         4 -11.3433      2.4524     10.2434   7.1251576231e+01   7.1644808675e+01    0.4105538    0.1516832 -47.16  0.002269243    2.055    0.513
         5  -9.1923    119.2522    243.6383   8.3211193322e+01   8.9021120396e+00    0.1903591     0.159156 -80.13 0.0006872807    1.384    0.278
         6 -13.5578     49.8055    180.6051   9.0137333443e+01   3.1321498827e+01     2.267916    0.9253989  59.89  0.009861256    2.776    0.640
         7 -15.1378      7.4797    144.1614   9.5903144733e+01   4.3593090221e+01     7.495428     1.426387 -77.15   0.02297348    5.628    0.822
         8 -16.1076     11.6512    243.6488   1.0157844431e+02   2.3312088744e+01     1.007867    0.6582302  61.96   0.00676078    1.144    0.126
         9  -9.9608    124.0909    219.5229   7.9398370694e+01   1.2218937600e+01    0.2381782    0.1772631 -58.42 0.0005570328    1.567    0.362
        10 -10.2912     95.0373    219.9384   8.5174033969e+01   1.6895552482e+01    0.1899582    0.1510302  64.39 0.0004192036    1.025    0.025
        11  -9.8618    142.7767    218.4022   7.5519981680e+01   9.1595145195e+00    0.2097921    0.1795942 -60.66 0.0005357057    1.380    0.275
        12 -11.1275    135.9969    199.9578   7.4173475026e+01   1.3732333734e+01    0.3327166    0.2352935 -57.84  0.001090476    1.603    0.376
        13  -9.8673    132.3885    213.2135   7.6876743449e+01   1.1918018816e+01    0.2218686    0.1581205 -74.72  0.001225335    1.730    0.422
        14 -11.8290    130.2910    203.6490   7.5929767936e+01   1.4065554075e+01    0.4499838     0.319211 -44.36   0.00245828    1.714    0.416
        15 -16.9684      6.0804    234.4529   1.0201856200e+02   2.5487397955e+01     1.830247     1.429024  36.56  0.009862672    1.811    0.448
        16  -9.4758    119.3252    239.7765   8.2768470146e+01   9.5216800228e+00    0.2133645    0.1547154  79.79 0.0007294196    1.532    0.347
        17 -10.4917    191.5843    192.5037   6.1344579938e+01   4.4675334711e+00    0.6067201    0.3444519 -66.96  0.001954104    5.264    0.810
        18 -10.8369    163.5750    193.5617   6.7299077185e+01   9.7114917751e+00    0.5225242    0.2354132 -57.03  0.001965664    3.292    0.696
        19 -10.1177    117.7699    196.5835   7.7537416126e+01   1.7663190437e+01    0.1954336    0.1114135  51.77 0.0005692612    1.593    0.372
        20  -9.0667    227.6087    190.2018   5.3936476870e+01  -1.9089106652e+00    0.3680801    0.1119971 -42.85  0.001259871    4.081    0.755
        21 -11.0898     98.1638    181.2251   7.9582477174e+01   2.4202763931e+01    0.4386868    0.3853735  57.15  0.001789686    1.099    0.090
        22 -10.0876     76.2870    182.5926   8.4628670193e+01   2.7322604055e+01    0.5201152    0.2532357  73.17  0.002033677    3.193    0.687
        23 -10.3176    180.4608    177.7880   6.0804522294e+01   9.2335333396e+00    0.2989877    0.2752412 -79.50  0.001083386    1.310    0.236
        24  -9.1828    127.4761    177.5009   7.2372234070e+01   1.9801343771e+01    0.1433263    0.1301559  60.15 0.0008102024    1.006    0.006
        25 -10.1236    101.7639    242.0064   8.6235374442e+01   1.1925067551e+01    0.1654972    0.1338301  62.83  0.001134077    1.071    0.066
        26  -9.5757    199.8389    174.0828   5.6072630894e+01   5.9705423382e+00    0.2083086    0.1985947 -78.00 0.0007610034    1.296    0.228
        27 -11.5074     69.5043    171.9275   8.4771903412e+01   3.0641503017e+01    0.6100234     0.311321  53.26  0.002940726    1.924    0.480
        28 -12.5312     75.2556    167.1218   8.2793896749e+01   3.0894512385e+01     1.609705    0.4747339  41.25  0.005259311    3.125    0.680
        29 -12.9741     77.7433    154.8025   8.0361867278e+01   3.3335704720e+01     1.689095      0.81455  65.85  0.006191036    3.345    0.701
        30 -14.0384     67.3725    147.3980   8.1778708300e+01   3.6537217361e+01     1.878344    0.8763022 -72.77  0.007887374    2.363    0.577
        31 -11.2266     76.6349    143.2889   7.8751178937e+01   3.6172925415e+01    0.4340513    0.2955048  70.07  0.001628542    1.665    0.399
        32 -11.3631     65.2515    165.8324   8.4945959858e+01   3.2597056140e+01    0.3528298    0.2692381 -25.12  0.001923169    2.092    0.522
        33 -11.5052     69.9253    161.6728   8.3277486911e+01   3.2893431444e+01    0.3792509    0.3019775 -34.87  0.001069815    1.705    0.414
        34 -10.9158    103.8429    171.5167   7.6794211485e+01   2.5353820651e+01    0.4274685    0.2508981  61.25  0.001945772    1.887    0.470
        35 -10.8688    246.7844    168.9026   4.6185464999e+01  -2.1882055715e+00    0.2497423    0.1836488 -44.99  0.001373127    1.627    0.385
        36  -9.5468     59.4946    166.9791   8.6423147536e+01   3.3106081827e+01    0.2073953    0.1553374  66.08 0.0003211069    1.237    0.192
        37 -10.5085     55.7366    162.9258   8.6778861289e+01   3.4503089088e+01    0.4293035     0.257439  41.65  0.002073222    1.700    0.412
        38 -10.8426    230.1895    166.8707   4.8720222722e+01   1.1926562207e+00    0.3580067    0.1755527 -44.54  0.001519219    2.353    0.575
        39  -9.7037    110.6134    167.3513   7.4518973667e+01   2.5080408083e+01    0.2942205    0.2181406  88.08  0.001037569    1.536    0.349
        40 -10.0855     54.8953    168.0922   8.7609566357e+01   3.3446381282e+01    0.3532924    0.1768457  65.49 0.0009619987    2.330    0.571
        41 -14.2811      8.6386    188.1639   9.9054472364e+01   3.4097340087e+01     1.566619    0.5510956  60.20  0.007771525    2.703    0.630
        42  -9.4985    245.3195    160.3271   4.4634845792e+01  -6.2757077578e-01    0.1426708   0.09725375   5.66 0.0007046926    1.682    0.406
        43  -9.9237     88.0828    140.5089   7.5293748712e+01   3.5050206648e+01    0.2458389    0.1904144 -81.59  0.001024101    1.329    0.248
        44 -10.7188     87.9346    156.3610   7.8113531837e+01   3.1404770777e+01    0.2582707    0.2110348 -86.66 0.0002849567    1.180    0.153
        45 -12.0762     85.4479    148.8288   7.7459762520e+01   3.3535482561e+01    0.6816471    0.5154773 -38.05  0.002134053    1.624    0.384
        46 -10.6276     33.1650    155.9824   9.1184681290e+01   3.8659366792e+01    0.3759286    0.2052144  68.00  0.001930112    1.946    0.486
        47 -10.3694     28.9767    155.4854   9.2092995675e+01   3.9193395217e+01    0.2886736    0.1589634  61.65  0.001188777    1.850    0.460
        48 -10.5957    134.2800    147.6221   6.5060050929e+01   2.4891297008e+01    0.7652408    0.2324655 -51.97  0.002303289    3.630    0.725
        49  -9.9459    132.5437    140.0772   6.3857229163e+01   2.6910374019e+01    0.4693094    0.2196666 -54.75  0.001731955    2.359    0.576
        50 -10.1406     22.7221    146.5630   9.2598392990e+01   4.1790649324e+01    0.2929609    0.1764829  79.07  0.001687384    1.621    0.383
        51 -15.7315      8.4206    207.5396   1.0026639729e+02   3.0258293498e+01     1.132323    0.9756798  79.20  0.007129299    1.330    0.248
        52  -9.0218     35.3547    142.9877   8.9143260267e+01   4.1388719455e+01    0.2779345    0.1184251 -57.65 0.0005393861    2.071    0.517
        53  -9.7597     31.8463    143.3843   9.0051095164e+01   4.1649836538e+01    0.2383016    0.2059011  47.87  0.001097969    1.319    0.242
        54 -10.6513    101.2899    135.1734   7.0792926393e+01   3.4052628144e+01    0.5238447    0.3418689 -15.97  0.002005836    3.063    0.674
        55 -10.2001    105.6962    130.5958   6.8663890330e+01   3.4315248627e+01    0.4130712     0.332563  78.80  0.001862872    1.401    0.286
        56  -9.0014     21.3151    136.9598   9.1877039235e+01   4.4085870384e+01    0.1679923    0.1245465 -75.95 0.0005233462    1.085    0.079
        57 -11.5484     87.8652    134.5954   7.4224942757e+01   3.6466890238e+01    0.2771189    0.2477895 -61.85 0.0003631926    1.085    0.078
        58 -10.1582     44.7800    127.1283   8.4495723152e+01   4.4066926818e+01    0.3042106    0.2405062 -82.88  0.001221791    1.150    0.131
        59  -9.8017    110.3393    127.5080   6.6751672138e+01   3.4158826671e+01    0.2984791    0.2326107   2.42 0.0007653621    1.814    0.449
        60 -10.3643     54.8842    147.3073   8.4888428022e+01   3.8189184730e+01    0.2444355    0.1622184 -81.10  0.001331326    1.423    0.297
        61 -10.1457     18.4407    125.6688   9.1265271645e+01   4.6889901327e+01    0.2682576     0.164949  66.98 0.0007689017    1.783    0.439
        62  -9.9980     97.5386    122.8645   6.9169550094e+01   3.7568981956e+01    0.2863791    0.2394579 -17.57  0.001049211    1.485    0.327
        63 -11.7920    142.5301    227.5375   7.6835283695e+01   7.6549685878e+00    0.4787317    0.1639437  45.14  0.001984541    2.378    0.579
        64 -11.0744     54.4165    117.0766   8.0116318811e+01   4.5311706870e+01    0.4861314    0.2299626 -65.02  0.002186302    1.947    0.486
        65  -9.6210     32.3311    118.1768   8.6517619529e+01   4.7406024839e+01    0.1955631    0.1689298  57.19 0.0004714223    1.286    0.222
        66  -9.1033    110.3973    117.4748   6.4406228472e+01   3.6438118923e+01    0.2305841    0.1913555  55.97  0.000119905    1.252    0.201
        67  -9.3503    106.9862    117.0189   6.5229739854e+01   3.7192077505e+01    0.2454292    0.2189966  20.07            0    1.254    0.203
        68  -9.6576     69.4295    116.4031   7.5688378471e+01   4.3518998265e+01    0.2535303    0.2146709  86.33 0.0008791889    1.248    0.199
        69  -8.5017    183.4927    116.4545   4.6265645181e+01   2.0357912183e+01    0.1555781    0.1525548  25.98 0.0002592539    1.007    0.007
        70  -8.9948     78.7379    113.7261   7.2443443784e+01   4.2782587471e+01    0.1908593    0.1575276  84.77 0.0008248006    1.357    0.263
        71  -9.7331    103.6258    109.7652   6.4398576787e+01   3.9470115931e+01    0.5869014    0.3484428  88.04  0.001706612    4.927    0.797
        72  -9.6380    205.4793    110.4320   4.0310270149e+01   1.6266749305e+01    0.2592928    0.2543278  36.09 0.0005686558    1.033    0.032
        73  -8.7681    119.4894    118.0149   6.2087745588e+01   3.4519134308e+01    0.2189885    0.1347436 -72.74 0.0008096708    2.524    0.604
        74  -8.9150     70.4498    107.9194   7.3592925345e+01   4.5349385907e+01    0.2058941     0.125609 -56.82 0.0003749359    1.488    0.328
        75  -9.5467     29.0193    107.5064   8.5780686302e+01   5.0158569344e+01    0.1599134    0.1253237  27.70 0.0004634272    1.548    0.354
        76  -9.4117     24.2124    105.4321   8.6848612636e+01   5.1037080353e+01    0.2400152    0.1433042 -66.05  0.001133316    1.351    0.260
        77  -9.4449    120.6725    102.6881   5.7833068688e+01   3.7663499513e+01    0.1566881    0.1231665  -1.07 0.0003087495    1.665    0.400
        78  -8.5408     45.6707    102.2664   7.9871520309e+01   4.9742076598e+01    0.1249192   0.09487766  73.80 0.0001546047    1.576    0.365
        79 -10.1545     19.0602     99.5273   8.7430939609e+01   5.2774355988e+01    0.1573989    0.1211253  25.79  0.001034654    1.607    0.378
        80 -16.4489     34.6940    188.7798   9.4038815233e+01   3.1342258397e+01     8.601841     4.036056  73.14    0.0432604    2.264    0.558
        81  -9.3875     52.6601     95.3057   7.6247218008e+01   5.0546035251e+01    0.1311256   0.09951415  77.33 0.0004640851    1.680    0.405
        82 -10.1503     18.9722     90.6060   8.5967031267e+01   5.4779412338e+01    0.2473373    0.1305884  39.03  0.001353663    2.277    0.561
        83  -8.7686     77.4834     89.9828   6.7105596319e+01   4.8372937166e+01    0.2088195    0.1304059 -52.00 0.0004820643    1.491    0.329
        84  -8.7164    160.6930     85.6849   4.2946973717e+01   3.1872061239e+01    0.1612633    0.1248704  14.73 0.0007027537    1.627    0.385
        85  -9.5128     27.4428     66.8701   7.8154250765e+01   5.9289374024e+01    0.1858288    0.1618496  32.12  0.000679593    1.407    0.290
        86  -9.5639     75.2482     65.8208   6.0831244913e+01   5.3796223300e+01    0.2494303    0.2076622  70.12  0.000794513    1.675    0.403
        87 -10.8407      1.8646     63.2246   8.6641662411e+01   6.1718957065e+01    0.3665023    0.1293482 -67.87  0.001736446    2.415    0.586
        88 -11.9553    192.9476     56.9638   2.8291213444e+01   2.8520230208e+01    0.5498683    0.4216246  50.95   0.00087991    1.306    0.234
        89 -10.2524    167.1488    225.3480   7.1732343477e+01   3.6784030714e+00    0.2030302    0.1762278 -10.93 0.0007062018    1.390    0.280
        90  -9.2316    112.0993    245.2740   8.4692623729e+01   9.7735434348e+00    0.1649912    0.1532177 -83.60 0.0004314819    1.334    0.250
        91  -9.0598     33.0127     52.7466   7.2217978550e+01   6.1682070324e+01    0.1660203    0.1392387 -28.56 0.0003999688    1.069    0.064
        92 -10.9395     13.3193     60.2121   8.1779986740e+01   6.1705323521e+01    0.2526419     0.171733 -46.34  0.000519009    1.156    0.135
        93  -9.5429     29.4620     33.5081   6.7355298813e+01   6.5610902707e+01    0.1207126   0.09441213 -27.24 4.780118e-05    1.003    0.003
        94  -9.2794     33.2036     26.3999   6.3027278666e+01   6.6447468839e+01    0.1438865    0.1067579  30.41 0.0005853231    1.595    0.373
        95 -11.0356      2.2861     24.3692   7.6502910918e+01   6.9258059336e+01     0.315481    0.1519596 -52.70  0.001653624    1.647    0.393
        96  -9.3840    148.4966    244.0152   7.7849753412e+01   4.0320103265e+00    0.1524597    0.1245334 -52.93    0.0006131    1.559    0.359
        97  -9.1870     60.3621     21.0942   4.9560368025e+01   6.3715381216e+01    0.2006622     0.149105  14.15 0.0003968762    1.229    0.186
