#   1 NUMBER                 Running object number                                     
#   2 MAG_AUTO               Kron-like elliptical aperture magnitude                    [mag]
#   3 X_IMAGE                Object position along x                                    [pixel]
#   4 Y_IMAGE                Object position along y                                    [pixel]
#   5 X_WORLD                Barycenter position along world x axis                     [deg]
#   6 Y_WORLD                Barycenter position along world y axis                     [deg]
#   7 A_WORLD                Profile RMS along major axis (world units)                 [deg]
#   8 B_WORLD                Profile RMS along minor axis (world units)                 [deg]
#   9 THETA_WORLD            Position angle (CCW/world-x)                               [deg]
#  10 FWHM_WORLD             FWHM assuming a gaussian core                              [deg]
#  11 ELONGATION             A_IMAGE/B_IMAGE                                           
#  12 ELLIPTICITY            1 - B_IMAGE/A_IMAGE                                       
         1 -13.2411    195.8055     32.7196   6.2078709310e+01   3.1978177312e+01     1.234862     1.143616  49.16  0.006105517    1.076    0.071
         2 -13.9988    208.8139     16.8441   5.5799111966e+01   3.0407694355e+01     1.714572     1.165801  23.67  0.008463995    1.824    0.452
         3 -10.8439      1.9680     13.8831   1.2117800142e+02   7.2581102602e+01    0.2738914    0.1854792 -78.30  0.001519874    1.799    0.444
         4 -11.2625      1.9823      6.0568   1.1826968733e+02   7.4137860284e+01     0.655648    0.1420363 -53.60  0.002848273    2.743    0.635
         5  -8.7134     33.2862     24.6610   1.0750293581e+02   6.8216991661e+01    0.1125041   0.09938515 -79.15 0.0004379057    1.635    0.388
         6 -12.1792    138.6378    248.1869   1.2011821249e+02   8.9758275735e+00    0.4421681     0.245156  48.44  0.002801054    1.564    0.361
         7 -11.8511    126.9266    248.5964   1.2224702866e+02   1.0534754091e+01    0.3360283     0.262748 -15.16  0.002449607    1.910    0.476
         8 -13.8946     93.9726    248.2841   1.2805138637e+02   1.4910992722e+01     4.682473     2.383135  20.14  0.004252126    4.012    0.751
         9 -11.2997      3.7472    250.2115   1.4300410748e+02   2.4183014149e+01    0.5178753    0.1455621  32.90  0.001451728    3.181    0.686
        10 -11.5880      2.6186    246.1564   1.4307287102e+02   2.4889096314e+01    0.7178008    0.1915582 -85.19  0.004024755    3.667    0.727
        11 -10.6893    162.5630    248.8834   1.1593803448e+02   5.5244716257e+00    0.2431145    0.1421768  21.32   0.00148966    1.796    0.443
        12 -12.7319     35.5935    225.4701   1.3688657807e+02   2.5154663405e+01    0.2900758    0.2294516  46.44 0.0007659037    1.253    0.202
        13 -11.8774     18.2169    241.8667   1.4049993495e+02   2.4176467185e+01    0.4338784    0.1580024  57.33  0.001537049    1.984    0.496
        14  -9.4894     29.1516    240.8065   1.3868214047e+02   2.3311848435e+01    0.1504185   0.09124222  59.93 0.0005264932    1.195    0.163
        15 -10.7316     54.7295    238.4899   1.3424304096e+02   2.1033291842e+01     0.212308    0.1829046  30.10 0.0006971863    1.490    0.329
        16 -14.1864     10.0137    206.6236   1.4060409277e+02   3.0763027494e+01     1.920368    0.8019629 -86.12  0.009175265    2.171    0.539
        17  -9.8300    172.0000    245.9747   1.1392338290e+02   4.5277342974e+00    0.1418623    0.0651058 -42.72 0.0007983787    2.914    0.657
        18 -10.2239     51.8415    233.9450   1.3448511621e+02   2.2070196196e+01    0.1793342    0.1663492 -52.37  0.001001759    1.600    0.375
        19 -10.2437     53.0565    228.5783   1.3395298048e+02   2.2808882198e+01    0.2029936    0.1165889  76.18 0.0004173586    1.710    0.415
        20 -15.2639     10.1963    152.9605   1.3798402270e+02   4.1177194693e+01      4.44078     1.376427 -88.37    0.0190953    3.274    0.695
        21 -11.9310     18.6665    228.9653   1.3995648647e+02   2.6193058057e+01    0.3591758    0.2402582  24.16  0.002053273    1.966    0.491
        22  -9.2216     42.4390    231.9382   1.3601854825e+02   2.3392554633e+01    0.1350882   0.08763721 -86.18 0.0006503138    1.559    0.359
        23 -13.8704     42.7535    216.5384   1.3511113343e+02   2.5942379279e+01    0.8708738    0.5534874  55.00  0.003990147    1.211    0.174
        24 -10.9997     26.1317    224.2793   1.3848670236e+02   2.6275258379e+01    0.2707478    0.1529971 -60.91  0.001878137    2.250    0.555
        25 -11.4727     21.5247    236.0046   1.3974852309e+02   2.4793434052e+01    0.2744128    0.2114748  37.37   0.00214714    1.458    0.314
        26 -12.7248     30.2663    248.0145   1.3879368281e+02   2.2094006744e+01    0.8820729    0.5346528  30.24  0.006636691    1.849    0.459
        27 -10.4627     23.8607    213.4428   1.3839896047e+02   2.8340161551e+01    0.2098278    0.1404012  39.95  0.001041437    1.409    0.290
        28 -10.9672    227.4797    203.5440   9.7751135228e+01   1.2223053552e+00    0.2761237    0.2257556 -44.94 0.0007327075    1.991    0.498
        29  -9.8852    192.6005    194.2626   1.0259265600e+02   8.0182696721e+00    0.4558398    0.2318967 -57.48  0.001482917    6.652    0.850
        30 -11.6151     62.2392    192.9334   1.2958813641e+02   2.8079499173e+01    0.3019489    0.2388853 -40.70  0.001241896    1.766    0.434
        31 -10.9640     40.8056    247.6620   1.3706631695e+02   2.1094281609e+01    0.3130523    0.1834893  74.08  0.001473519    1.530    0.346
        32  -8.6442    181.5029    192.4680   1.0446145623e+02   1.0143753590e+01    0.1318031    0.1069698  24.43 5.318945e-05    1.008    0.007
        33 -11.7528     68.0122    185.7205   1.2770066116e+02   2.8777590650e+01    0.2519552     0.217558 -53.55 0.0006244073    1.416    0.294
        34 -11.0285     77.7686    173.8944   1.2427344107e+02   2.9895667856e+01    0.2184888    0.1976208 -80.56 0.0003822477    1.157    0.135
        35 -13.2536     64.8443    171.2824   1.2694821813e+02   3.2054563673e+01    0.4479827    0.2567093 -46.10  0.001790067    2.265    0.559
        36 -12.1139     85.6171    165.4645   1.2139837277e+02   3.0563622609e+01    0.9399861    0.5067949  53.78  0.004647143    1.891    0.471
        37 -12.8179     67.5441    144.3077   1.2304723145e+02   3.7502768565e+01    0.9156994    0.5552775  79.97  0.002579583    2.041    0.510
        38 -12.1260     57.2783    131.0663   1.2395498948e+02   4.1717069736e+01     1.645542    0.5429443 -78.05  0.004395473    6.633    0.849
        39 -14.7989     50.4617    206.9080   1.3304056297e+02   2.6823162989e+01     5.616374    0.8272282  50.36   0.01815483    5.999    0.833
        40  -9.8951     98.1992    149.7690   1.1600311493e+02   3.2027397353e+01    0.2396466    0.2333198 -25.08 0.0007676887    1.146    0.128
        41  -9.1981    101.1382    145.8404   1.1460006930e+02   3.2409747680e+01    0.2467119    0.1657708 -31.45 0.0009450964    1.984    0.496
        42 -12.1199     86.7803    148.6982   1.1873158855e+02   3.3956312227e+01    0.2637299    0.2304183 -43.33 0.0005647611    1.284    0.221
        43  -9.8559     38.4564    243.5049   1.3726246172e+02   2.1969802274e+01    0.1934328      0.12353  65.02 0.0008277781    1.223    0.182
        44  -9.4797    109.6918    135.6308   1.1051868367e+02   3.3206615675e+01    0.2976086    0.2220105 -12.66 0.0009494546    1.861    0.463
        45 -10.4801     97.0308    132.5220   1.1329742074e+02   3.5964258956e+01    0.2584332    0.2224486 -24.34 0.0006943346    1.348    0.258
        46  -9.0392    106.8652    122.8419   1.0867989130e+02   3.6479302698e+01    0.1946633    0.1851756  -8.00   0.00029749    1.110    0.099
        47 -10.4898    167.9786    112.9588   9.0746679584e+01   2.6252011436e+01    0.3489109    0.2942587 -80.89  0.001129108    1.644    0.392
        48  -9.3999    204.2400    111.2056   8.2720275488e+01   1.8571515868e+01    0.3476417    0.1469595  36.61  0.001238044    2.692    0.629
        49  -9.5935    231.3159    168.6643   9.0610963779e+01   4.9049404643e+00     0.112051    0.1073018 -62.40 0.0007047654    1.694    0.410
        50 -10.1687     17.0230    249.9661   1.4095987638e+02   2.3048626807e+01    0.3864028    0.1235372  31.28  0.002152139    3.234    0.691
        51 -11.0087    243.6483     94.4438   7.1909675674e+01   1.2694073158e+01    0.2364904    0.2125858 -69.70  0.001397179    1.448    0.309
        52 -11.1598      2.0875     80.3815   1.3428311231e+02   5.7853180558e+01    0.4662845   0.09743735 -70.25  0.001823777    3.141    0.682
        53  -8.7416    158.3177     77.6898   8.3108172277e+01   3.4883540295e+01    0.1546482    0.1261214 -74.30 0.0002940778    1.639    0.390
        54  -9.0538     13.2899     61.6596   1.2741055121e+02   6.1647162969e+01    0.1182825   0.08482076  76.38 0.0003652576    1.646    0.392
        55  -9.5730    246.9787    249.6541   1.0171317493e+02  -6.1325508375e+00    0.1555483   0.07530602  48.66 0.0007050134    4.435    0.775
        56 -11.5597    185.8163    249.8114   1.1196774768e+02   2.1267248620e+00    0.4635453    0.1174464  36.29  0.001987193    2.989    0.665
        57 -10.8646    189.7917     15.4877   5.7620064873e+01   3.5415495852e+01    0.2559555    0.2036407 -23.49 0.0007780529    1.295    0.228
        58 -11.9123    107.9474    245.6133   1.2535931171e+02   1.3493212355e+01    0.2990183    0.2409285  65.95  0.001437114    1.287    0.223
        59 -11.9654     12.6840    240.3684   1.4133521528e+02   2.4908378500e+01     0.536453    0.1795099  66.84  0.003173738    2.570    0.611
