#   1 NUMBER                 Running object number                                     
#   2 MAG_AUTO               Kron-like elliptical aperture magnitude                    [mag]
#   3 X_IMAGE                Object position along x                                    [pixel]
#   4 Y_IMAGE                Object position along y                                    [pixel]
#   5 X_WORLD                Barycenter position along world x axis                     [deg]
#   6 Y_WORLD                Barycenter position along world y axis                     [deg]
#   7 A_WORLD                Profile RMS along major axis (world units)                 [deg]
#   8 B_WORLD                Profile RMS along minor axis (world units)                 [deg]
#   9 THETA_WORLD            Position angle (CCW/world-x)                               [deg]
#  10 FWHM_WORLD             FWHM assuming a gaussian core                              [deg]
#  11 ELONGATION             A_IMAGE/B_IMAGE                                           
#  12 ELLIPTICITY            1 - B_IMAGE/A_IMAGE                                       
         1 -10.8813     34.3470     61.9877   1.0377530479e+02   6.0225024462e+01     1.869464    0.6617413 -39.94    0.0058659    5.480    0.818
         2 -11.1508     23.9204     32.0532   1.0044479113e+02   6.8091164499e+01      1.68691    0.4003054 -49.87  0.003368035    3.260    0.693
         3 -10.3233      8.6135     20.4511   1.0493797856e+02   7.1840765509e+01     1.341781    0.3458239 -39.01  0.004228587    5.891    0.830
         4 -10.2930     18.3091      5.6580   9.2888767487e+01   7.4257165973e+01     0.696373    0.4817658 -69.58  0.002744454    1.673    0.402
         5 -10.6430     37.2936      9.6315   8.3785179081e+01   7.1336201690e+01    0.9148576    0.3104661 -48.96  0.002145999    2.639    0.621
         6 -10.0655     26.4697     11.2813   9.0745730218e+01   7.2307049256e+01    0.7310488    0.4345556  22.24  0.003405569    2.111    0.526
         7 -10.1901      6.1797      5.1941   1.0080815752e+02   7.5314650151e+01    0.4116895    0.2703103 -45.82  0.001312387    1.234    0.189
         8  -9.9363      2.6554      3.1302   1.0239878314e+02   7.5968423695e+01    0.2730971    0.1631072 -54.87  0.001019426    1.245    0.197
         9  -9.7501      2.3132     14.3491   1.0678410389e+02   7.3554221425e+01    0.7260965     0.220051 -74.89   0.00270569    3.757    0.734
        10 -10.8347    134.0277     31.0353   6.0463417050e+01   4.8016951126e+01    0.4065088     0.303265  -3.18  0.001889946    1.514    0.340
        11  -8.2843     72.0442      8.4957   6.7357863904e+01   6.5717415221e+01    0.2737077    0.2115526 -31.21 0.0005856667    1.181    0.153
        12 -10.0131     73.4749     18.7105   7.2303593450e+01   6.3809023318e+01    0.9690322    0.2464902 -39.36  0.002192341    3.478    0.712
        13  -9.5503     77.8349      4.2299   6.2858539112e+01   6.5127157642e+01    0.7646785    0.3987969 -13.46  0.003176758    2.276    0.561
        14 -10.1267     69.5527     40.4669   8.3519078138e+01   6.0398855307e+01     1.012351    0.4071359 -46.01  0.002593193    2.215    0.549
        15 -10.3725     45.6070     29.3038   8.9012355906e+01   6.6312562581e+01    0.5260688    0.3990484 -79.21  0.002645086    1.676    0.403
        16  -9.8359     63.1104     20.9038   7.7492173772e+01   6.5310665046e+01    0.8190362    0.3152679 -47.34  0.002447725    2.572    0.611
        17  -9.7626     64.5744     13.3772   7.2985840032e+01   6.6370092944e+01    0.3446141    0.3008415 -32.17  0.000222456    1.067    0.063
        18 -10.1320     50.3749     15.7221   8.0472908589e+01   6.8334253410e+01     1.196318    0.6402082 -16.39   0.00428587    4.011    0.751
        19  -8.5854    104.3846     15.0300   6.0601322632e+01   5.7660949759e+01     0.400407     0.220905   6.95  0.001415406    3.056    0.673
        20  -8.9295    102.2016      8.1720   5.7771846331e+01   5.9078997084e+01    0.5824463    0.2479764 -45.94  0.001397665    2.893    0.654
        21  -9.4704    102.6927     21.0948   6.3953570608e+01   5.7191059204e+01    0.6009024     0.304002 -32.65  0.001913899    1.840    0.457
        22  -8.6949     97.4543      5.8045   5.7802321674e+01   6.0505837206e+01    0.2925571    0.2495017  29.76 0.0008688521    1.163    0.140
        23  -8.3248     96.0161      2.7634   5.6567127811e+01   6.1208174083e+01    0.2445287    0.1874925  41.82 0.0006267549    1.299    0.230
        24  -9.5785    152.4671     28.5393   5.5764843679e+01   4.3522560286e+01    0.4488343    0.2321471  -7.95  0.001586195    2.604    0.616
        25  -9.7423    119.1309     20.3171   5.9343278291e+01   5.3318910996e+01    0.6936767    0.3136605 -20.09  0.001366468    2.459    0.593
        26  -9.5055    133.3985     11.4370   5.2364878896e+01   5.0728544212e+01     0.472718    0.2157396 -38.31  0.001797182    2.162    0.537
        27  -8.6452    137.5757      9.7406   5.0856618266e+01   4.9796604846e+01    0.2998825    0.2428987  -0.83  0.001249693    1.265    0.209
        28  -9.3544     96.1583     14.9597   6.2863662919e+01   5.9597731400e+01    0.6432395    0.2966195 -18.87  0.002141384    2.604    0.616
        29  -8.7809    112.4883     15.5349   5.8764579631e+01   5.5619956405e+01    0.3495074    0.2271443 -42.89  0.000807732    1.593    0.372
        30  -9.2489    113.8616     10.1738   5.5896762217e+01   5.5955199176e+01    0.3897867    0.2500081  32.05 0.0003662342    1.714    0.416
        31  -9.1152     89.2991      3.6871   5.8945590729e+01   6.2665808373e+01    0.5296252    0.4382779  50.83  0.002104614    1.267    0.210
        32  -9.7349     85.1547     12.6724   6.5082373475e+01   6.2377680050e+01    0.6734092    0.2970116 -43.81   0.00199837    2.443    0.591
        33  -8.2928     80.4020     12.3179   6.6480974612e+01   6.3439874938e+01    0.2750529    0.1783431 -31.58  0.001356125    1.409    0.290
        34 -10.5028     62.0981      3.8892   6.8536011601e+01   6.8323220313e+01    0.7789288    0.5507215 -11.74   0.00419024    1.442    0.306
        35  -9.3726    120.9121      6.5874   5.2647734666e+01   5.4561015684e+01    0.5430914    0.3298783 -85.03  0.002189164    2.408    0.585
        36  -8.8589    125.0640     13.0435   5.4750214220e+01   5.2737514651e+01    0.3033301    0.2063574 -35.18 0.0006959815    1.440    0.305
        37  -9.5213    110.7263      5.4347   5.4311634628e+01   5.7298522805e+01    0.5020793    0.2708313  -0.59  0.001954855    2.368    0.578
        38  -9.0266    115.4271      4.2510   5.2686121706e+01   5.6232889271e+01    0.3436575    0.2332815 -51.10 0.0005952282    1.690    0.408
        39  -8.7159    126.6544      9.1696   5.2672123599e+01   5.2771352356e+01    0.2673573    0.1998521  52.47 0.0005094937    1.323    0.244
        40  -8.9414    125.9069      4.8932   5.0861641639e+01   5.3431154427e+01    0.3298862    0.2508644  10.14 0.0009211193    1.384    0.278
        41  -8.0238    168.9754     11.4876   4.6673689799e+01   4.1005518106e+01     0.219997     0.191074 -21.36 0.0001050979    1.127    0.113
        42  -8.1764    141.8443     11.9663   5.1045051625e+01   4.8399168766e+01    0.2402337    0.1981011  22.07  0.000693802    1.260    0.206
        43  -8.6945    155.6583      8.1455   4.7259183533e+01   4.5019521736e+01    0.3252363    0.2463369 -17.04  0.001578105    1.310    0.236
        44  -8.0278     68.0082      9.2482   6.9320277397e+01   6.6392642568e+01    0.1823727    0.1679731 -11.02 0.0004151862    1.060    0.056
        45  -9.3058    135.4098      2.1494   4.7914087569e+01   5.1157081114e+01    0.4995254       0.3151  32.44  0.002208084    1.704    0.413
        46  -8.2158    143.0671      5.0207   4.7905768241e+01   4.8792504448e+01    0.2490858     0.166055 -55.44 0.0005562021    1.705    0.413
        47 -10.1164      4.6385     41.9576   1.1217259660e+02   6.7153347327e+01    0.6907844    0.2886288 -71.05  0.003201821    1.797    0.443
        48  -8.5599    104.4906      2.0394   5.4047896802e+01   5.9231512294e+01    0.2675315    0.1887072  38.86 0.0007307419    1.417    0.294
        49  -7.4814    150.6821      1.3131   4.5210892127e+01   4.7045163377e+01    0.1598667    0.1074121 -54.80 0.0002553586    1.646    0.393
        50 -10.3826    108.9611    112.9056   9.1828448274e+01   3.8051887759e+01     1.535135    0.4092307 -52.13  0.005012866    3.834    0.739
        51 -10.8767    200.6648    248.9282   9.4852638004e+01   4.0050887020e+00    0.5225592      0.18149  44.99  0.003032309    2.305    0.566
        52 -10.0450    192.3111    248.4687   9.6020443616e+01   5.1447991202e+00    0.2561662    0.1609986 -35.77  0.002059863    2.256    0.557
        53 -10.4355    184.0475    248.9862   9.7292654134e+01   6.1935255093e+00    0.2951012    0.1727242  37.34  0.002289153    1.160    0.138
        54 -10.5400    169.5925    248.4237   9.9391108616e+01   8.1648310877e+00    0.3348651    0.2102525  58.70  0.002447409    2.022    0.505
        55 -10.7413    108.7438     99.4946   8.8933743844e+01   4.0855854377e+01     1.009251     0.699952  83.35   0.00335468    1.967    0.492
        56  -9.8079     41.6427    122.3262   1.1083603826e+02   4.5665757192e+01    0.6179805    0.2609412  83.81  0.002563928    3.200    0.688
        57 -10.0335     27.0655    122.6806   1.1465684329e+02   4.7041432086e+01    0.5087832    0.2082341  67.51  0.001931602    2.634    0.620
        58  -8.1272    158.4723    122.4938   8.2596943476e+01   2.6689696071e+01     0.240297    0.1271886  57.33  0.001019514    2.172    0.539
        59  -9.9936    140.6482    118.5395   8.5558491218e+01   3.0957517056e+01    0.4246975    0.3135001 -85.19   0.00127376    1.900    0.474
        60  -9.6472    142.0369    112.0977   8.3810883811e+01   3.1858778294e+01    0.4582426    0.2863317  18.04  0.001845382    2.802    0.643
        61  -8.5869      1.5211    116.5329   1.2082980833e+02   5.0401139128e+01    0.3137909   0.09913376  89.13  0.001180749    2.790    0.642
        62 -10.1648     91.7524    113.0087   9.6234580199e+01   4.0964900774e+01    0.5257484    0.3511919 -87.42  0.001630556    1.819    0.450
        63 -10.2231     78.1942    113.0453   9.9814030834e+01   4.3055967440e+01    0.5039287    0.2929761 -86.64  0.001673889    2.221    0.550
        64  -7.8092     78.2798    105.2679   9.8376591506e+01   4.4743095030e+01    0.2810993    0.1929818 -19.25   0.00128221    2.799    0.643
        65  -9.8282     81.6623     99.1080   9.6212199444e+01   4.5583116169e+01    0.7289311    0.2793008 -55.68  0.002102132    2.447    0.591
        66  -9.7051    139.3469    104.5278   8.2640383662e+01   3.3813431405e+01    0.5357174    0.3176131 -49.34  0.001616558    1.779    0.438
        67  -8.1419    152.7859    115.5755   8.2252840824e+01   2.9037728389e+01    0.1894357    0.1295287  58.42 0.0003506113    1.562    0.360
        68  -8.0853    167.1872    114.2915   7.8963875886e+01   2.6259345657e+01    0.1889006    0.1707442  -9.47  0.000392168    1.147    0.128
        69  -8.6698    158.9658    112.1900   8.0164011842e+01   2.8339907818e+01    0.2421944    0.1917022 -65.52 0.0004930662    1.564    0.361
        70 -10.4297     65.9551    109.1244   1.0247182374e+02   4.5644734906e+01    0.9971845    0.4657798 -66.76  0.003077543    2.037    0.509
        71  -9.7807     59.2375    109.6349   1.0441571315e+02   4.6409929080e+01    0.3696747     0.256296 -80.48  0.001642322    1.330    0.248
        72 -10.4813     63.0278     95.7100   1.0094860140e+02   4.9049903312e+01    0.6323423    0.3513814  85.20  0.001611082    2.565    0.610
        73  -9.5422     64.8440     84.6579   9.8160894823e+01   5.1320356554e+01    0.6500275    0.5047479 -65.93  0.003781088    1.154    0.134
        74  -8.8341     14.0216    105.0508   1.1663700898e+02   5.2014755371e+01     0.234216    0.1531991 -66.23 0.0007265738    1.444    0.307
        75  -8.5018    241.2413    111.9771   6.5695804110e+01   1.1337316097e+01    0.1739991   0.09938656 -22.67 0.0007770956    1.614    0.381
        76 -10.9303     44.8059    102.5709   1.0746647850e+02   4.9713495378e+01    0.9044994     0.380922  65.88  0.003198157    3.600    0.722
        77 -10.9602     21.9502    102.2825   1.1409900926e+02   5.1999656467e+01     1.355964    0.4858058  70.48  0.003295504    4.053    0.753
        78  -9.9209    162.4897    248.7096   1.0049011717e+02   9.0800588706e+00    0.2407846    0.1408292  33.94  0.001825323    1.327    0.246
        79 -10.0505     19.6027     86.7623   1.1307546908e+02   5.5733746223e+01    0.8412241    0.1849154 -68.65  0.002871394    3.217    0.689
        80 -10.6530     25.5779     78.1228   1.0991466975e+02   5.7249470474e+01    0.7055078    0.3979406  76.82  0.001960364    1.907    0.476
        81  -9.8632     50.0170     54.5828   9.5842900917e+01   6.0181820423e+01    0.4102486    0.2887909 -88.17   0.00116322    1.704    0.413
        82  -9.8904     55.4908     44.0994   9.0354155680e+01   6.1794837335e+01     1.070976    0.5999405 -14.31  0.003258337    6.000    0.833
        83  -9.9742     34.5127     90.5991   1.0884359590e+02   5.3529815060e+01    0.6120374    0.2515905 -88.47  0.001822523    3.243    0.692
        84 -10.0052     37.0361     80.9637   1.0649287413e+02   5.5516851844e+01    0.6067647    0.3624354 -20.85  0.002688449    3.252    0.692
        85  -8.8606     36.2940    111.2390   1.1101475074e+02   4.8662025189e+01    0.2374221    0.1420449  47.96 0.0009004956    1.612    0.380
        86  -8.7887     40.3351    107.0434   1.0936462115e+02   4.9185083767e+01    0.2499409    0.1294703 -81.72 0.0007492137    1.808    0.447
        87  -8.1527    215.8649    106.6451   6.8305292052e+01   1.7070053298e+01     0.227922    0.1734233  -4.06 0.0004161868    1.289    0.224
        88  -9.5812      6.4671    103.9200   1.1868380017e+02   5.2811684084e+01    0.4504887    0.2113689  65.47    0.0019292    1.945    0.486
        89  -8.2221    249.0147    105.5003   6.3119532034e+01   1.0570943332e+01    0.1875557    0.1224146  47.07   0.00103373    1.593    0.372
        90  -8.2904    165.9881    104.3259   7.6813598072e+01   2.8169047622e+01    0.2588984    0.1942165 -53.80 0.0005533108    1.540    0.351
        91 -10.2410    149.4421    102.2305   7.9805761921e+01   3.2108533279e+01    0.7806092    0.2880675 -41.99  0.001494634    2.766    0.638
        92  -8.9161     92.1788    103.7285   9.4270718495e+01   4.2879206043e+01    0.4214003    0.3022762  15.91  0.002042645    2.154    0.536
        93  -8.2339     36.3178    105.3027   1.1029106850e+02   4.9990893017e+01    0.1159638   0.08638599 -47.83 0.0002752261    1.623    0.384
        94  -8.0069     73.8323    103.1001   9.9208523889e+01   4.5879347860e+01    0.2081477    0.1589407  85.18 0.0006182971    1.316    0.240
        95  -8.4784    158.9381    101.1811   7.7492137163e+01   3.0240236735e+01    0.2126815    0.1914128 -87.04 0.0004738215    1.285    0.222
        96  -9.5042     94.4336     97.3313   9.2267881046e+01   4.3876258366e+01    0.3516912    0.2582381 -73.24  0.000690027    1.433    0.302
        97  -8.7190     96.4004     90.7206   9.0175417076e+01   4.4957198231e+01    0.4279022     0.292372 -17.89  0.001855196    2.614    0.617
        98  -9.5852    239.3046     95.7598   6.2150254079e+01   1.3577016143e+01    0.2818018    0.2294871 -47.31  0.001432236    1.512    0.339
        99  -8.5235    164.5103     94.4713   7.4596073819e+01   3.0150453811e+01    0.2861733    0.2425823 -61.80 0.0008245876    1.362    0.266
       100  -9.3802    138.7661     92.7656   7.9804275997e+01   3.6143228308e+01    0.4044639    0.3071544  72.28   0.00105161    1.574    0.365
       101  -8.0131    139.5073     87.8186   7.8299981795e+01   3.6909498572e+01    0.3566295    0.1840037  36.43  0.001378208    2.363    0.577
       102 -10.2902      4.2835     89.1144   1.1816570878e+02   5.6271294512e+01    0.8429794     0.255844  88.29  0.003327676    3.454    0.710
       103  -9.4765      6.2068     79.0323   1.1660963318e+02   5.8455469451e+01    0.3910204    0.1919853 -46.54  0.002081571    2.396    0.583
       104  -7.8054    157.5325     91.5058   7.5270002737e+01   3.2228783164e+01    0.2051678    0.1370996 -47.21 0.0006679614    1.586    0.370
       105  -8.2176    157.1341     88.1814   7.4451450829e+01   3.2896150023e+01    0.2812577    0.2432666 -56.83 0.0008878676    1.257    0.205
       106  -8.8792    150.7797     89.3265   7.6147072777e+01   3.4131033928e+01    0.2484142    0.1944233 -50.06 0.0007804446    1.343    0.255
       107 -10.2159     85.3518     86.5266   9.2333719218e+01   4.7769206434e+01    0.5447289    0.3543933  72.15 0.0008322017    2.031    0.508
       108  -9.5593     87.5183     78.6152   8.9683402169e+01   4.9142531871e+01    0.5794284    0.3811804  21.04  0.001600514    2.320    0.569
       109 -10.0657     81.5618     72.2928   8.9808771387e+01   5.1544963887e+01    0.4818757    0.3093522 -73.23  0.001006025    1.895    0.472
       110  -9.1128     83.4574     64.6055   8.6965709561e+01   5.2900725735e+01    0.5246913    0.3614553 -18.51  0.002367371    2.267    0.559
       111 -10.5202     48.1561     83.4474   1.0326632579e+02   5.3730234733e+01     1.009352    0.4081581 -62.85  0.002160403    2.099    0.524
       112  -9.9768     63.0666     60.8205   9.2779180367e+01   5.6999381903e+01    0.7117384    0.3066685  36.78  0.001154205    2.636    0.621
       113 -10.5658     55.2176     70.9448   9.8218913170e+01   5.5762839371e+01    0.6234204    0.3635496  59.16    0.0012565    2.117    0.528
       114  -7.7995    174.6569     87.9246   7.0802105708e+01   2.8910391426e+01    0.2887838    0.1396715 -25.08  0.001086737    2.413    0.586
       115  -8.3969    163.5394     86.9097   7.2753691009e+01   3.1645769585e+01    0.2660178    0.1460123 -31.80 0.0008659941    1.880    0.468
       116  -9.5970    210.9322    110.2500   6.9971177316e+01   1.7623759458e+01    0.2415372    0.2102401  27.26 0.0003092434    1.080    0.074
       117 -10.2422    103.9419     82.5623   8.5973932363e+01   4.5306819598e+01    0.5325851    0.2915685 -58.89 0.0008908121    2.012    0.503
       118  -9.4771    104.9872     71.8644   8.2631830214e+01   4.7335600716e+01    0.8207852    0.3791359 -36.82  0.003078376    2.524    0.604
       119  -8.8683    157.8052     83.0310   7.2869293627e+01   3.3631922578e+01    0.4309595    0.2074858 -34.94  0.001236198    2.092    0.522
       120  -8.7976    140.2493     82.9515   7.6767409499e+01   3.7651221944e+01    0.4123962    0.2845306 -64.75  0.001686906    1.870    0.465
       121  -9.4987    140.3195     76.2943   7.4812039225e+01   3.8862443486e+01     0.710821    0.3438253 -41.47  0.001961763    2.033    0.508
       122  -7.8585    170.4751     83.0773   7.0279281841e+01   3.0665933719e+01    0.2280901    0.1438766 -33.98 0.0007913715    1.569    0.363
       123  -8.5951    149.8603     80.4855   7.3867062266e+01   3.5914768556e+01    0.3534244    0.2055832 -43.82 0.0008988937    1.740    0.425
       124  -9.7252    114.8677     71.2256   7.9692308457e+01   4.5442868890e+01    0.5634665    0.3296271 -45.85  0.002485965    1.656    0.396
       125  -8.8882    119.0248     80.4834   8.1319030145e+01   4.2721559122e+01    0.3341297    0.2550089 -76.05 0.0006354382    1.607    0.378
       126  -8.4312    119.9375     76.0409   7.9791719531e+01   4.3414140365e+01     0.337104    0.2538661  11.17 0.0007905375    1.890    0.471
       127  -9.1607     74.1099     79.0742   9.3943559312e+01   5.1230437497e+01    0.6044574    0.2625287 -56.85  0.001766978    2.116    0.527
       128  -9.8912     14.2347    111.4097   1.1710512276e+02   5.0591673747e+01    0.4513265    0.1811166  73.35   0.00202202    2.567    0.610
       129  -8.9682    240.4012     80.6106   5.8237907538e+01   1.5100896388e+01    0.2848781   0.07884631 -36.65 0.0009579586    3.403    0.706
       130  -8.0383    166.3621     78.7793   6.9874517406e+01   3.2338350696e+01     0.202166    0.1409558 -22.70 0.0004469592    1.524    0.344
       131  -8.1362    184.1409     78.3009   6.6331030417e+01   2.8179411823e+01    0.2392632    0.1690689  34.99 0.0005615024    1.486    0.327
       132  -8.3660    156.8190     76.5189   7.1191361490e+01   3.4979133865e+01    0.3150508    0.2148756 -25.77 0.0002959649    1.555    0.357
       133  -8.7380    156.7846     70.3241   6.9330554037e+01   3.6036795855e+01     0.439215    0.1853751 -40.51  0.001286251    2.328    0.570
       134  -9.4746    127.4223     75.3941   7.7676509525e+01   4.1924136432e+01    0.3597124    0.2476352 -60.29  0.000769362    1.690    0.408
       135  -9.3370     55.1657     63.2165   9.6292525386e+01   5.7546812083e+01    0.3855433    0.3191659 -20.39  0.001394978    1.538    0.350
       136  -9.6269    154.7655    248.5988   1.0165117820e+02   1.0113375608e+01    0.1998802    0.1159147  54.05  0.001458765    1.698    0.411
       137  -9.9323     15.9509     70.6199   1.1219242407e+02   5.9760707782e+01    0.5034544    0.2132359 -68.51  0.001582713    1.827    0.453
       138  -9.8218     16.7832     61.8962   1.1053408026e+02   6.1742877866e+01    0.6932796    0.3152708 -62.38   0.00359766    1.732    0.423
       139  -9.9990    179.9894    245.4955   9.7529896498e+01   7.0517351921e+00     0.197654    0.1133754  40.69  0.001485316    1.223    0.182
       140 -10.1644    122.1481    242.4230   1.0616434556e+02   1.5065404836e+01     0.160648    0.1290945  47.61 0.0002509412    1.163    0.140
       141  -9.1656    187.9992    233.5253   9.4994387266e+01   7.0795904262e+00    0.1644938    0.1463179  15.96 0.0008165861    1.318    0.241
       142  -7.7982    246.3088    228.7279   8.5861138504e+01  -4.3723138742e-01   0.08443952   0.06650773  37.52 0.0002493149    1.546    0.353
       143 -10.8584     21.9250     53.4613   1.0689383365e+02   6.3328668558e+01    0.9086193    0.4151528  81.45  0.003079738    3.795    0.736
       144 -10.2366     12.6416     45.6098   1.0925634803e+02   6.5834217303e+01    0.6538429     0.367697 -15.05  0.002663772    2.754    0.637
       145  -9.5987      6.6855     32.7724   1.0930156365e+02   6.9162653022e+01    0.3166862    0.2057711 -32.19  0.001203969    1.763    0.433
       146  -9.9718      7.3618     28.2641   1.0785432349e+02   7.0154558895e+01    0.3147171    0.2275475  75.68  0.001057366    1.578    0.366
       147  -8.2708    124.6762    228.0872   1.0451347382e+02   1.6460008622e+01    0.1738387    0.1057326  54.23 0.0006540241    1.398    0.285
       148  -8.5224    233.3155    217.1103   8.6108923550e+01   2.2019014083e+00      0.17145    0.1139494  36.51 0.0003475402    1.266    0.210
       149  -7.9646    162.8906     73.0789   6.8898472319e+01   3.4106287350e+01    0.2321536     0.197289 -63.17 0.0005755429    1.338    0.253
       150  -7.6263    175.4437     72.4677   6.6248769384e+01   3.1164678338e+01     0.149408     0.143446  -4.68 0.0002585604    1.005    0.005
       151  -8.0220    169.4804     71.0883   6.6982503636e+01   3.2831833061e+01     0.226398    0.1460348 -31.99 0.0004757599    1.518    0.341
       152  -9.3965    146.9583     69.1413   7.1103451820e+01   3.8594571456e+01    0.4405324     0.272635 -49.55 0.0009121872    1.751    0.429
       153  -8.4132    147.5018     63.5047   6.9190006273e+01   3.9438596589e+01    0.3200542    0.1797467  41.29  0.001293192    1.941    0.485
       154  -8.4083    128.3398     69.3548   7.5594307234e+01   4.2871807796e+01    0.3069438    0.2089873  20.07   0.00111802    2.141    0.533
       155  -8.8588    130.9547     65.7554   7.3797090303e+01   4.2950051946e+01    0.5287943    0.3005373 -46.66  0.002010005    1.784    0.440
       156  -9.8062     94.8155     68.3567   8.4558283402e+01   5.0037611349e+01     0.459382    0.2488007 -53.30 0.0008223531    1.811    0.448
       157  -9.5363     97.5626     58.0621   8.0420386995e+01   5.1643371799e+01    0.7480105    0.5339434 -32.03  0.003649998    1.495    0.331
       158  -7.8917     23.2840     69.0561   1.0928278849e+02   5.9563569870e+01    0.1757862    0.1289869 -79.20 0.0003616863    1.116    0.104
       159  -8.4032    170.5505     65.3756   6.5031509669e+01   3.3466671551e+01    0.3734692    0.2386366   0.82 0.0009496322    2.221    0.550
       160  -9.1176    121.0574     65.8785   7.6359097149e+01   4.5156157969e+01      0.39101    0.2487067 -50.06 0.0009517602    1.604    0.376
       161  -8.4836    121.8294     61.3882   7.4683514673e+01   4.5838786280e+01    0.3230075    0.2381257  33.05 0.0009236035    1.551    0.355
       162  -9.3112    109.7350     63.9787   7.8821537101e+01   4.7965906975e+01    0.3530787    0.2657274 -57.11 0.0007537854    1.377    0.274
       163  -8.9606    110.8073     58.1179   7.6563429377e+01   4.8889763004e+01    0.3776149    0.3067787   5.48 0.0009534172    1.555    0.357
       164  -9.0434    210.4615     62.3248   5.7439728013e+01   2.4082142652e+01    0.3949704     0.249774 -23.59  0.001843928    1.485    0.327
       165  -8.3058    157.6324     63.2143   6.6924177413e+01   3.7008168248e+01    0.2590486    0.2191285 -54.17 0.0007276215    1.265    0.209
       166 -10.1789     85.1230     48.0402   8.0852887938e+01   5.6083148668e+01    0.4551215    0.3183916 -68.07 0.0009887049    1.789    0.441
       167 -10.4364     89.5144     38.3875   7.5636567992e+01   5.7119955096e+01    0.9390733    0.4145247  34.46  0.003230435    3.431    0.709
       168  -8.8158     80.0118     46.4281   8.1999435220e+01   5.7352839945e+01    0.3989302    0.2257292 -33.80 0.0005000808    1.954    0.488
       169  -9.2397     49.2570     60.7114   9.7811738722e+01   5.8872847171e+01    0.2957852    0.1415788 -60.06  0.001368783    1.788    0.441
       170  -8.0352    164.7929     60.3449   6.4561629462e+01   3.5685374067e+01    0.2140325    0.1862167 -40.35 0.0007383169    1.148    0.129
       171  -9.1632    137.9622     65.6079   7.2054965818e+01   4.1348427122e+01    0.6006026    0.3529169 -25.37  0.001370014    1.978    0.495
       172  -7.6215      2.5074    217.4594   1.2420923589e+02   3.1775746286e+01   0.09308203     0.060323  61.13 6.858247e-05    1.017    0.016
       173  -8.7267    146.5218     59.0132   6.7932714822e+01   4.0439586896e+01    0.2762603    0.2331943 -37.21 0.0008187246    1.159    0.137
       174  -8.5731    147.7376     54.6378   6.6191221044e+01   4.0866306194e+01    0.3734864    0.2236692 -24.36  0.001549234    1.786    0.440
       175  -9.0418    129.9707     57.1826   7.1185939264e+01   4.4739225757e+01    0.5475348    0.2408854 -35.66  0.002018005    2.227    0.551
       176  -8.6182    139.3976     39.9267   6.2738498573e+01   4.5311979588e+01    0.4096948    0.3584938 -53.45  0.001363126    1.199    0.166
       177  -9.6504    130.5618     46.3828   6.7189686426e+01   4.6473507042e+01     1.018032    0.4152623 -22.45  0.001798786    3.812    0.738
       178  -8.9807    132.9770     35.9467   6.2646343648e+01   4.7551077092e+01    0.4693278    0.2587932 -49.51 0.0005352642    2.077    0.519
       179 -10.0319     10.3131    207.6822   1.2266403477e+02   3.2617357177e+01    0.3365977    0.2550044  15.96  0.002743254    2.222    0.550
       180  -9.3332     87.9622     56.9104   8.3042569678e+01   5.3726366390e+01    0.7123331     0.340873 -37.10  0.002796263    2.335    0.572
       181  -8.8286    138.9325     56.9270   6.8950500046e+01   4.2644434853e+01    0.3244921    0.2078527 -41.96 0.0004866229    1.534    0.348
       182  -8.2419    139.0300     51.9940   6.7219759371e+01   4.3459249695e+01    0.3750362     0.246787  18.48  0.001393453    2.184    0.542
       183  -8.5528    142.0038     48.5147   6.5314126261e+01   4.3295672608e+01    0.2798966    0.2003001 -45.90 0.0005957544    1.427    0.299
       184  -9.2787    118.3136     54.6913   7.3314334371e+01   4.7883379180e+01    0.5737624    0.3230532 -35.66  0.001541807    1.746    0.427
       185  -9.0397    121.0823     46.9928   6.9789341290e+01   4.8635669246e+01    0.3701968    0.2280177 -41.63 0.0004838228    1.567    0.362
       186  -9.7824    162.7262     53.2944   6.2659284459e+01   3.7296489236e+01    0.6415024    0.2890294 -41.94  0.002352111    2.248    0.555
       187  -9.3315    105.4461     51.8593   7.5893929886e+01   5.1246713505e+01    0.6940511    0.2728213 -39.89   0.00214683    2.426    0.588
       188  -8.7938    156.9040     48.2616   6.2092435503e+01   3.9552712233e+01    0.4176223    0.1744304 -40.43  0.001474339    2.354    0.575
       189  -8.9218    149.8372     48.1520   6.3494908656e+01   4.1376812737e+01    0.3733898    0.2016068 -38.02 0.0008027185    1.784    0.439
       190  -8.5762    111.9376     47.0088   7.2252776873e+01   5.0733147009e+01    0.2766564    0.2283132 -50.80 0.0004914603    1.221    0.181
       191  -8.7682     39.9315     34.8782   9.3764909842e+01   6.5820817962e+01    0.3060813     0.271123 -73.32  0.001180357    1.174    0.148
       192 -10.0617     37.7699     42.1623   9.7175305743e+01   6.4443722860e+01    0.4696078     0.291012  87.93  0.001772909    2.406    0.584
       193 -10.1639     35.8945     37.9931   9.6678746293e+01   6.5584899102e+01     0.353553    0.2119037 -58.90 0.0003642277    1.389    0.280
       194  -9.2290    231.9613    199.5250   8.3734259831e+01   3.8964375559e+00    0.2176665    0.2113166  26.62  0.001012492    1.635    0.388
       195  -9.0112     70.0018     26.5174   7.7418408117e+01   6.3063855961e+01    0.3709445    0.3006994  36.34  0.001809634    1.367    0.268
       196  -8.9907    192.3724    194.8561   8.9249027310e+01   1.0421186463e+01    0.4893458    0.2793122 -60.26  0.002170369    5.078    0.803
       197  -8.9699    219.8864    194.0702   8.4730259529e+01   6.2189290384e+00    0.2133842     0.129238  42.92  0.000473837    1.467    0.318
       198 -10.1671    250.5443    191.7891   7.9802321052e+01   1.8507875374e+00    0.1646736    0.1086351 -11.57 0.0003077195    1.479    0.324
       199 -10.0309     76.1702     31.9762   7.7549784830e+01   6.0913059579e+01    0.4947164    0.3518769  55.14  0.001822377    1.659    0.397
       200  -9.9168     79.4889     24.0078   7.2711231671e+01   6.1728549441e+01    0.6263422    0.3662162  21.89  0.001869901    2.760    0.638
       201  -8.9160     84.7045     21.9108   6.9895558912e+01   6.1029077492e+01    0.3003231    0.2175731 -32.81 0.0006669026    1.268    0.211
       202  -9.4121    153.2324     40.7844   6.0172874717e+01   4.1617725226e+01    0.3698214    0.2278813 -25.72   0.00107084    1.608    0.378
       203  -8.6601    113.9013     41.6020   6.9634140858e+01   5.1249407946e+01    0.3392567    0.2292658   8.48  0.001401137    2.234    0.552
       204  -9.1850    104.8407     41.1372   7.2002332315e+01   5.3377219881e+01    0.4018952    0.2609583 -57.46 0.0009528598    1.854    0.461
       205  -8.4371    106.4868     36.4687   6.9635876990e+01   5.3833708775e+01    0.2907086    0.2274588  32.77  0.001004974    1.403    0.287
       206  -7.9412    159.9698     40.3733   5.8732541765e+01   3.9914128888e+01    0.3178408    0.1774735  -5.71  0.001145852    2.523    0.604
       207  -8.1979    123.3531     40.5497   6.6751775241e+01   4.9195429525e+01    0.3550482    0.2203969  19.05   0.00126401    2.508    0.601
       208  -9.1970     41.0942     21.5087   8.7785590136e+01   6.8511944822e+01    0.3722168    0.1665824 -53.11 0.0008680345    1.992    0.498
       209  -9.1355     53.1986     38.8876   8.9424447384e+01   6.3245496147e+01     0.240209    0.1669402 -61.69 0.0008432624    1.398    0.285
       210  -9.7999     59.5337     33.9240   8.4854176436e+01   6.3358196768e+01    0.7011732    0.4973225 -33.81  0.003246482    1.398    0.284
       211  -9.2102    220.9346    189.2671   8.3814399748e+01   6.5289894600e+00    0.2327338    0.1572364  21.77 0.0009219306    1.239    0.193
       212  -8.7852    221.2986    184.8406   8.3045799141e+01   6.9139654866e+00    0.2265326     0.130141  37.39 0.0004802139    1.401    0.286
       213  -7.2445    231.2362    184.6512   8.1484224020e+01   5.3796260134e+00   0.09069353   0.08669215 -19.34 0.0004229249    1.565    0.361
       214  -8.5642    144.2162     36.4855   6.0407137178e+01   4.4591704627e+01    0.3062161    0.2171969 -43.48 0.0005486581    1.426    0.299
       215  -8.9210    118.8984     34.5990   6.5507511259e+01   5.1242905963e+01    0.3829055    0.2083079 -32.42 0.0008717317    1.756    0.430
       216 -10.2273    189.0911    180.9822   8.7686809061e+01   1.2563120596e+01    0.2056358    0.1765309  29.64 0.0003268875    1.089    0.082
       217  -9.1380    110.3684     33.1324   6.7158612034e+01   5.3505447383e+01    0.3682729    0.2330185 -45.62 0.0007180823    1.611    0.379
       218  -8.0770    141.6390    181.9620   9.6338915715e+01   2.0228341483e+01    0.1794998    0.1329724  37.03  0.001010949    1.200    0.167
       219  -8.1878      1.6653    182.0784   1.2344267611e+02   3.7619404945e+01    0.1369043   0.09553771  71.63 0.0007549751    1.073    0.068
       220  -9.1396    101.0896     31.8252   6.9247042498e+01   5.5839361614e+01    0.6447378     0.204053 -40.40  0.001639979    2.938    0.660
       221  -8.6809    247.7503    179.9427   7.8241806994e+01   3.2857951742e+00    0.1873903    0.1298757  29.56 0.0006678508    1.171    0.146
       222  -9.2753     74.6109    179.1477   1.0906790356e+02   3.0501303739e+01    0.1875747    0.1448986  53.96 0.0002875162    1.096    0.088
       223  -8.1309    230.6647    168.1231   7.8737219159e+01   7.1073738259e+00    0.2120407    0.0958525 -34.62  0.001095515    2.534    0.605
       224 -10.1305     73.7187     56.8313   8.7795270456e+01   5.6236791611e+01     1.197755     0.378258 -44.43  0.003602856    3.170    0.685
       225  -8.5302    209.5109    164.6476   8.1493455652e+01   1.1046024516e+01    0.1937681    0.1571134  22.11 0.0003964134    1.019    0.019
       226  -8.8161    144.2852     25.8889   5.6282026381e+01   4.6051197136e+01    0.3197677    0.2405334 -19.30  0.001427098    1.323    0.244
       227  -8.6976    128.3979     25.8402   5.9587187398e+01   5.0202545635e+01    0.3957289     0.226209 -47.12  0.001040627    1.918    0.479
       228  -8.1145    129.6430     21.6885   5.7557568204e+01   5.0451412245e+01    0.2524909    0.1706433  23.99  0.001099092    1.752    0.429
       229  -9.1728     91.2342     26.1923   6.9770615676e+01   5.8940704461e+01    0.4158742    0.2314418 -46.64  0.001221408    1.868    0.465
       230  -8.5499     92.0280     20.8571   6.7006076417e+01   5.9637982568e+01    0.3391636    0.2168086  30.92 0.0009997482    1.859    0.462
       231  -8.8506    156.2216     26.8182   5.4434557495e+01   4.2738205783e+01    0.2661256     0.186434 -58.68  0.001179298    1.656    0.396
       232  -8.8845    139.5168     22.1013   5.5689140826e+01   4.7809336761e+01     0.305135    0.2743834  37.03  0.001383703    1.120    0.107
       233  -8.1955    139.4960     17.9957   5.3997419217e+01   4.8329168246e+01    0.2196257    0.1925584 -26.91 0.0004004714    1.114    0.102
       234  -8.6344     74.7810    163.6670   1.0751107086e+02   3.3269160064e+01    0.1680891    0.1529909  63.56 0.0004045498    1.209    0.173
       235  -8.8891    111.5097     21.2884   6.1667445593e+01   5.5065033299e+01      0.35894    0.1458634 -26.72  0.001278358    2.449    0.592
       236  -7.3667    151.2847     20.3435   5.2798422920e+01   4.4872734272e+01    0.1620638    0.1127802  24.46 0.0006268381    1.641    0.391
       237  -8.3960    155.1642     17.8607   5.1168226801e+01   4.4110282896e+01    0.2388224    0.2026751 -52.56 0.0006107846    1.234    0.190
       238  -8.7058    132.8397     17.1281   5.4938503719e+01   5.0202049040e+01    0.2780313    0.2014641 -29.24 0.0005187746    1.333    0.250
       239  -7.6269    195.5578    162.7728   8.3517117281e+01   1.3704398105e+01    0.1466853     0.117314 -42.63 0.0009302959    1.571    0.363
       240  -8.6708    237.4855    153.0000   7.4888794817e+01   7.5339213326e+00    0.1675127    0.1080992 -19.63 0.0004078554    1.519    0.341
       241  -8.2710    128.9804     16.1219   5.5294904270e+01   5.1339893919e+01    0.2658286    0.2137722 -35.78  0.000628403    1.231    0.188
       242  -8.3501    133.8334    147.1020   9.2563222892e+01   2.7128257251e+01    0.3537406    0.1371744 -54.51  0.001432109    3.191    0.687
       243  -7.5166    189.3785     16.1857   4.5764525594e+01   3.4949892719e+01    0.2219606    0.1232743 -33.47 0.0004972584    1.672    0.402
       244  -9.2782     66.8712    144.3112   1.0713044347e+02   3.8054539411e+01    0.4681374    0.2079534  55.27  0.002282273    2.190    0.543
       245  -7.7052    228.2254    140.3625   7.3809868269e+01   1.0536001219e+01    0.1575613    0.1120935  49.65 0.0002743701    1.532    0.347
       246  -8.5640    239.7657    137.8320   7.1526542347e+01   8.7477720421e+00    0.2290145    0.1110545  17.02 0.0009656037    2.903    0.656
       247  -7.1801    166.7165    137.7454   8.4114385420e+01   2.2576065377e+01    0.1272299    0.0963686  19.37 0.0002262984    1.473    0.321
       248  -7.2199     95.6112    136.2918   9.9295404290e+01   3.5557478459e+01    0.1382044   0.08736042  68.09 0.0002601288    1.768    0.434
       249  -8.4830    112.1655    133.8620   9.5041746933e+01   3.3325714113e+01    0.2657346    0.1762006  73.27  0.001076941    1.874    0.466
       250  -9.7900    134.0619    131.8021   8.9734057333e+01   2.9803440904e+01    0.4949952    0.3163688  51.89  0.002554856    1.493    0.330
       251  -8.6390     83.5345    132.0033   1.0152332610e+02   3.8259306216e+01    0.5474396    0.2599572  67.01  0.002146646    3.339    0.700
       252 -10.8650     69.8936    126.8033   1.0414163663e+02   4.1274902855e+01     0.655772    0.5644642 -30.79   0.00193649    1.630    0.387
       253 -10.1754     58.3442    124.4980   1.0677035555e+02   4.3266320967e+01    0.6005414    0.2926187  74.73  0.002257043    2.793    0.642
       254  -8.6790    238.5084    132.4659   7.0596968505e+01   9.5577739024e+00    0.1279133    0.1046116  11.01 0.0001798782    1.008    0.008
       255  -8.1186    142.5554    131.7930   8.7889702040e+01   2.8208861408e+01    0.2655417    0.2006163 -86.11  0.001393634    1.806    0.446
       256  -9.8533     98.8007    128.7482   9.7305204284e+01   3.6560481370e+01    0.6165619    0.3248456  68.47  0.002375856    2.956    0.662
       257  -9.9358    117.3688    125.6124   9.2326730095e+01   3.4014730827e+01    0.7043555    0.4224913  74.87  0.002501523    2.701    0.630
       258 -11.1889    120.8479    111.5459   8.8620703179e+01   3.6135139571e+01     1.491787    0.7020697 -44.40  0.004941428    2.265    0.558
       259 -10.6063    132.0248    119.8846   8.7787567640e+01   3.2390944491e+01    0.8687022    0.5278507  76.69  0.003453173    3.023    0.669
       260  -9.8743    127.8412    102.4594   8.4847933986e+01   3.6557258698e+01    0.4740806    0.3056986 -53.23  0.001462963    1.624    0.384
       261 -10.8675    123.3438     91.2543   8.3147856910e+01   3.9679281151e+01     1.379314    0.5893201  52.61  0.004649422    2.532    0.605
       262  -9.0445    125.9063     84.0642   8.0562670278e+01   4.0565853923e+01    0.5353729     0.337774  12.05  0.001876434    3.449    0.710
       263 -11.5674    133.2021    109.4148   8.5212135119e+01   3.4141650377e+01     1.623303    0.8074297 -44.94  0.006991312    2.081    0.519
