#   1 NUMBER                 Running object number                                     
#   2 MAG_AUTO               Kron-like elliptical aperture magnitude                    [mag]
#   3 X_IMAGE                Object position along x                                    [pixel]
#   4 Y_IMAGE                Object position along y                                    [pixel]
#   5 X_WORLD                Barycenter position along world x axis                     [deg]
#   6 Y_WORLD                Barycenter position along world y axis                     [deg]
#   7 A_WORLD                Profile RMS along major axis (world units)                 [deg]
#   8 B_WORLD                Profile RMS along minor axis (world units)                 [deg]
#   9 THETA_WORLD            Position angle (CCW/world-x)                               [deg]
#  10 FWHM_WORLD             FWHM assuming a gaussian core                              [deg]
#  11 ELONGATION             A_IMAGE/B_IMAGE                                           
#  12 ELLIPTICITY            1 - B_IMAGE/A_IMAGE                                       
         1 -14.8435     88.4731     76.1955   8.0175302366e+01   5.0449870250e+01     6.656995     6.175445   0.20   0.03771311    1.037    0.036
         2 -14.6611     14.9982    100.5654   1.1233543919e+02   5.3857406618e+01     5.954903     1.519825 -60.21   0.02358782    2.661    0.624
         3 -10.3359     75.2144     17.7945   6.2803532587e+01   6.2410083338e+01    0.2920074    0.2196349 -30.45 0.0007581563    1.467    0.318
         4 -10.9136     79.8907     12.2326   5.8842026118e+01   6.2097120678e+01     0.337648    0.2572241  52.92  0.001439453    1.336    0.251
         5 -14.2601     41.8901    112.2576   1.0535680525e+02   4.8767769423e+01     2.534077     1.891008 -68.12 0.0007009529    1.223    0.182
         6 -13.4285     47.1464     87.2470   9.8138479573e+01   5.4163319760e+01     2.528386    0.9811427 -54.96  0.008006913    2.218    0.549
         7  -9.6910     73.0295      3.0377   5.6903804021e+01   6.4342434360e+01    0.2616029    0.1764204 -56.74  0.001364743    2.624    0.619
         8 -10.1874    106.0095      2.1453   4.7789216890e+01   5.7364493404e+01    0.2887906    0.1864611  27.96  0.001585998    1.611    0.379
         9 -10.9138     18.1885      3.0839   8.1105723922e+01   7.2854214541e+01    0.3293959    0.2413074  30.01  0.001495784    1.620    0.383
        10  -8.2715    179.3138    117.6592   6.7575050693e+01   2.2111118276e+01    0.1588778     0.122296 -77.25 0.0007047145    1.702    0.412
        11  -9.3463    212.9250    249.7647   8.7049726619e+01  -7.2933821586e+00    0.3852964    0.1550597  32.59  0.001895207    2.099    0.523
        12  -9.3768    204.4096    250.5064   8.8756188115e+01  -6.1921544111e+00    0.3411591   0.09611645  39.02  0.001376121    3.101    0.677
        13  -9.1205    188.6982    249.0820   9.1543302466e+01  -3.7097703657e+00    0.2680913    0.2001383  24.88  0.001172489    1.076    0.070
        14 -10.3286    162.2893    249.3033   9.6762270350e+01   2.5795027181e-01    0.9625868    0.2381845  36.23  0.003449284    3.426    0.708
        15  -8.9299    171.9526    245.9946   9.4377438590e+01  -7.2258277689e-01    0.2354496    0.1621539  21.88 0.0003631514    1.334    0.250
        16 -10.8957    190.9707    232.7843   8.8595280926e+01  -1.6523137434e+00    0.6812322    0.4133522  -2.42  0.003332672    2.302    0.566
        17  -9.6130    132.5894    247.1674   1.0245637319e+02   5.1978632961e+00    0.3416269    0.1170462  46.46  0.001386476    2.697    0.629
        18  -8.2225    103.6830    250.3470   1.0863084042e+02   9.0152533014e+00    0.1295066   0.07887549  62.23  0.000108933    1.725    0.420
        19  -9.5570     89.3661    237.9090   1.1024471625e+02   1.3380140044e+01    0.2382107    0.1434801  49.07   0.00134027    1.378    0.274
        20  -8.7391    166.3716    235.3426   9.3946519847e+01   1.8306462365e+00    0.2725602    0.2280324  10.21  0.001723417    1.181    0.153
        21  -8.6532    225.3376    229.1378   8.1408230588e+01  -6.2608741067e+00    0.2120071    0.1401909  17.82 0.0008337093    1.330    0.248
        22  -8.2535    205.6953    228.2834   8.4976499250e+01  -3.2402311734e+00    0.2581821    0.1398651 -15.99  0.001187844    2.555    0.609
        23  -8.7204    141.0769    227.6517   9.8106499791e+01   7.2612998113e+00    0.2798228    0.1961274 -76.03  0.001470404    2.061    0.515
        24  -8.0516    111.7922    226.9685   1.0429156399e+02   1.2103768329e+01    0.1812741     0.137663  18.52 0.0004657379    1.585    0.369
        25 -10.5507    211.5498    223.0811   8.2969183137e+01  -3.3560102691e+00    0.5018237    0.4059161  58.66  0.002988175    1.913    0.477
        26 -10.5083    218.7743    219.8382   8.1033540178e+01  -3.9669921048e+00     0.420258     0.315558  33.36  0.001770834    1.329    0.248
        27  -9.6402    212.9088    216.6802   8.1597000235e+01  -2.5975228278e+00    0.3277139    0.2618534 -35.33  0.001090065    1.400    0.286
        28  -8.7276    184.2058    226.0361   8.8862789910e+01   4.7674962126e-01    0.2630076    0.2019466 -12.69  0.001492881    1.389    0.280
        29 -10.6772    182.4122    222.0345   8.8572434254e+01   1.4200922302e+00    0.4995428    0.2170483 -34.89  0.002128675    2.764    0.638
        30  -9.9411    204.1898    213.9603   8.2813549409e+01  -8.0041303768e-01    0.3972698    0.2567391  40.66  0.001923416    1.553    0.356
        31  -9.3297    179.0089    218.0491   8.8611278833e+01   2.6482572363e+00    0.2147818    0.1847096  19.81 0.0006474238    1.009    0.008
        32  -7.4184    149.3120    217.6965   9.4857700433e+01   7.7152684165e+00    0.1338482    0.1007682  63.27 0.0002397211    1.613    0.380
        33  -9.6719    223.0831    215.3588   7.9434922770e+01  -3.9507548646e+00    0.2388735    0.1796947 -35.54  0.001458366    1.452    0.311
        34  -9.2262    227.9884    214.0278   7.8286865507e+01  -4.4865742284e+00     0.205609    0.1330301  -0.86  0.000841543    1.633    0.387
        35  -8.7310    157.6479    223.3654   9.3947781830e+01   5.2889908648e+00    0.1982559    0.1527007  62.69  0.001052522    1.616    0.381
        36  -8.0976    174.5498    214.4989   8.8946164264e+01   4.0078746796e+00      0.13567    0.1188556  21.75 9.950316e-05    1.007    0.007
        37  -8.9193    239.4877    212.0376   7.5845876639e+01  -5.8723655892e+00     0.179673    0.1091768 -31.11  0.000362824    1.550    0.355
        38  -7.8156    153.8305    212.6324   9.3074968520e+01   7.8875699568e+00    0.2103152    0.1132674  45.28 0.0009590431    1.759    0.431
        39  -9.7921    234.0864    210.6649   7.6567184016e+01  -4.8930169208e+00    0.2733532    0.1719989  22.71  0.001136962    1.495    0.331
        40  -8.7213    219.9460    209.6289   7.8995984449e+01  -2.6063042491e+00    0.2987818    0.2110201 -43.11   0.00170757    1.661    0.398
        41 -11.5219    179.6295    240.6248   9.2062957867e+01  -1.0896533098e+00    0.9400987    0.8006831 -21.90  0.005770853    1.296    0.229
        42  -8.0896    191.5195    206.4813   8.4026435830e+01   2.5202650894e+00     0.136531    0.1189965  13.13 8.062711e-05    1.000    0.000
        43  -9.3933    166.4840    205.0058   8.9045619560e+01   7.1106589029e+00      0.25713    0.2362203 -77.75 0.0005514423    1.362    0.266
        44  -8.4974    123.9906    206.0003   9.8702731005e+01   1.4310369808e+01    0.1958625    0.1805106  39.45            0    1.057    0.054
        45  -7.4561     41.6977    206.7347   1.1735059755e+02   2.6103887059e+01    0.1062703   0.09475812 -43.96 0.0001926125    1.522    0.343
        46  -8.9686    230.3386    205.1753   7.6246625807e+01  -3.5195488052e+00     0.219537    0.1768935  19.79  0.001383247    1.163    0.140
        47  -8.1450    237.5608    203.2590   7.4585044074e+01  -4.3140277851e+00    0.1732932    0.1057443 -22.31 0.0009398262    1.555    0.357
        48  -8.4700    225.2195    197.1451   7.5692401739e+01  -1.4851875069e+00    0.3782979    0.1847464  18.99  0.001508858    3.029    0.670
        49  -7.6330    183.6604    183.6794   8.1389966445e+01   8.0236952215e+00    0.1505146    0.1078206   1.59 0.0007050152    1.716    0.417
        50  -9.1186     15.8361    174.3748   1.2046032970e+02   3.6085509903e+01    0.4663358    0.1736037 -82.90  0.001705452    2.542    0.607
        51  -8.3171    187.5249    173.9641   7.8619176305e+01   9.1524892482e+00    0.2191854    0.1399671 -39.65  0.001025775    1.574    0.365
        52  -8.6307     19.5679    171.2163   1.1931678748e+02   3.6491176436e+01    0.1761411   0.09704021 -66.62 0.0009483805    1.601    0.375
        53  -9.6058      7.7532    166.6715   1.2174921119e+02   3.8547489515e+01    0.2768183    0.1854845 -85.64  0.001687607    1.210    0.174
        54  -9.1257    201.9662    165.6895   7.3911001598e+01   7.9805816337e+00    0.2040153    0.1856383  24.89 0.0006711565    1.104    0.094
        55  -8.8805     25.6925    161.3441   1.1688629199e+02   3.8275741116e+01    0.2099347     0.122817  68.06  0.001088926    1.750    0.429
        56 -12.1537     32.5353    148.1970   1.1362237622e+02   4.0822176151e+01     2.008142     1.111025  81.52  0.009459644    2.073    0.518
        57  -8.1001    228.8516    249.1697   8.4043533368e+01  -9.3812826445e+00    0.1641692    0.1100066  -3.22  0.000449413    1.371    0.271
        58  -9.8208    133.3736    110.0781   7.6585565288e+01   3.4057069758e+01    0.3759457    0.2615978  67.26  0.001574567    1.869    0.465
        59  -9.4346    136.2013    105.6870   7.4655958201e+01   3.4386703690e+01    0.3782081    0.2804706  60.66   0.00066173    1.510    0.338
        60  -9.5264    145.3702    102.8353   7.1528243525e+01   3.2920167199e+01    0.3357946    0.2817011 -28.35  0.001084166    1.261    0.207
        61 -10.2196     56.8647    142.9011   1.0603994592e+02   3.9448537681e+01    0.4287997    0.2963064 -84.06  0.001186161    1.502    0.334
        62  -9.6776    153.2973     96.6316   6.7890631382e+01   3.2348783654e+01    0.5305796    0.3066465  50.10  0.002176398    1.728    0.421
        63  -9.2322    166.3603     96.9073   6.4985884934e+01   2.9214394042e+01    0.2890722    0.2295428  50.62 0.0003789691    1.264    0.209
        64  -8.8511    171.7414    100.0826   6.4668904859e+01   2.7328899165e+01    0.3039758    0.2256081  46.67 0.0008056136    1.369    0.269
        65  -8.7118    158.9390     85.6249   6.3513775090e+01   3.3139620766e+01    0.2675761     0.217376 -23.33 0.0006972951    1.365    0.267
        66  -9.1150    198.1341    247.4553   8.9484763979e+01  -4.8708290600e+00    0.3289625     0.256334  69.81  0.001895347    2.477    0.596
        67 -10.1046     50.7925    141.5617   1.0757776840e+02   4.0516584397e+01     0.371383    0.2952993 -48.32  0.001321203    1.293    0.226
        68 -12.1694     63.8223     80.3895   9.0139231684e+01   5.3579264927e+01    0.8943158    0.5346346  52.87  0.000589987    2.354    0.575
        69  -9.6176     22.5360    157.3840   1.1728944709e+02   3.9515233058e+01    0.2785621    0.1902683 -73.08  0.001636288    1.245    0.197
        70  -9.9701     84.8208     21.2171   6.1117663481e+01   6.0113642484e+01    0.3085115    0.2051788 -34.57  0.001684113    1.672    0.402
        71  -8.3074    139.4491    248.9953   1.0129791025e+02   3.8341450815e+00    0.1649608    0.1257463 -51.52 0.0006251596    1.609    0.379
        72  -7.6986    233.3024     18.7299   3.5391446213e+01   2.5389176212e+01    0.1275768   0.07636918 -67.06 0.0001546968    1.531    0.347
        73  -9.9896     66.8449    138.8945   1.0246362765e+02   3.9144813706e+01    0.2439602    0.2050849  80.99 0.0002503324    1.231    0.188
        74  -8.5165    121.2920     13.3350   4.8684453751e+01   5.2817924248e+01    0.1397624   0.08970493  33.51 0.0003690086    1.638    0.390
        75  -9.2058     58.6939    248.4281   1.1723563476e+02   1.5560398856e+01    0.2234782   0.08603206  41.49 0.0008433519    2.034    0.508
        76  -9.8655    207.0262    130.6873   6.5155776051e+01   1.3564804394e+01    0.2076231    0.1977829  20.81  0.001172264    1.091    0.083
        77  -9.0435    117.1716    130.2714   8.6095342446e+01   3.2807699183e+01    0.4677702    0.2139798 -45.45  0.000950086    2.204    0.546
        78  -9.6115    144.8733    243.6934   9.9515726393e+01   3.8656896357e+00    0.2941893    0.2054222   6.04  0.001605668    1.931    0.482
        79  -7.9069    229.3113    244.6582   8.3242752921e+01  -8.8743936870e+00    0.1004831   0.09276341  41.52   0.00070458    1.698    0.411
        80  -9.2416    245.0034    242.1807   8.0057865292e+01  -1.0612111086e+01    0.2387984    0.1713172 -13.99  0.001105382    1.229    0.187
        81  -7.9136    212.0015    241.7679   8.5969970136e+01  -6.0940045210e+00    0.2443442   0.08003276  38.11  0.001042585    2.705    0.630
        82 -10.1363     63.4518    144.3916   1.0439209210e+02   3.8229273306e+01    0.3373234    0.2313575  -8.70  0.001540411    2.281    0.562
        83  -9.4441     19.8405    146.3586   1.1684790947e+02   4.2412055860e+01    0.3604117    0.1573064 -53.95  0.001684444    2.158    0.537
        84  -8.3342    101.4582    242.4803   1.0825124265e+02   1.0756209970e+01    0.1272781    0.1018151  53.01 -7.124153e-05    1.042    0.040
        85 -12.6241     38.2311     97.7646   1.0375312241e+02   5.2637270757e+01     1.284769    0.7123268  24.42  0.006345786    2.040    0.510
