#   1 NUMBER                 Running object number                                     
#   2 MAG_AUTO               Kron-like elliptical aperture magnitude                    [mag]
#   3 X_IMAGE                Object position along x                                    [pixel]
#   4 Y_IMAGE                Object position along y                                    [pixel]
#   5 X_WORLD                Barycenter position along world x axis                     [deg]
#   6 Y_WORLD                Barycenter position along world y axis                     [deg]
#   7 A_WORLD                Profile RMS along major axis (world units)                 [deg]
#   8 B_WORLD                Profile RMS along minor axis (world units)                 [deg]
#   9 THETA_WORLD            Position angle (CCW/world-x)                               [deg]
#  10 FWHM_WORLD             FWHM assuming a gaussian core                              [deg]
#  11 ELONGATION             A_IMAGE/B_IMAGE                                           
#  12 ELLIPTICITY            1 - B_IMAGE/A_IMAGE                                       
         1  -9.8580    204.8616     23.8417   3.0908950440e+01   3.0656317486e+01    0.2636149    0.2520275  63.55   0.00061461    1.160    0.138
         2  -8.8004     46.3691     21.2249   6.5433153498e+01   6.7368504385e+01    0.4143251    0.1313111 -39.09  0.001631415    2.924    0.658
         3  -9.8185     77.7049     13.1214   4.9647011109e+01   6.2739465822e+01      0.71294    0.2534887  51.11  0.002887666    2.591    0.614
         4  -8.8307     64.9060     13.6334   5.4164266039e+01   6.5231727279e+01    0.2984482    0.1639126  38.08 0.0006832299    1.810    0.447
         5 -10.8678    218.4809      7.8573   2.5525545961e+01   2.9147634650e+01    0.7013643    0.5474833 -16.13  0.004234198    1.460    0.315
         6 -11.8450    236.8252      3.4511   2.3202154086e+01   2.5484501713e+01       1.3572    0.4922445  75.76   0.00606782    2.779    0.640
         7  -9.2316     31.8388     10.8702   6.6960063058e+01   7.1075883016e+01    0.2453752    0.1621809  26.28 0.0003214154    1.552    0.356
         8  -8.4253     97.1994     11.4470   4.3504187053e+01   5.8648636139e+01    0.2584537    0.1853186  24.72 0.0007201658    1.463    0.317
         9  -8.6206    125.3930     10.0024   3.7027799644e+01   5.2022272550e+01    0.2476531    0.1663443  48.97 0.0001799053    1.412    0.292
        10  -9.9104     21.0399      8.3858   7.1422951391e+01   7.2836130553e+01    0.2923158    0.2295623  48.47 0.0004846713    1.851    0.460
        11  -8.3215    142.9208      9.1319   3.3878071949e+01   4.7695305615e+01    0.2116863    0.1475105  37.76 0.0004560401    1.545    0.353
        12 -10.0875     13.8712      4.2273   7.3314058608e+01   7.4294333450e+01    0.2323396    0.1746968 -16.30 0.0002294846    1.124    0.110
        13  -9.8228      8.2763      5.1896   7.7401495079e+01   7.4703943491e+01    0.5591968    0.2707497   8.79  0.002780652    2.915    0.657
        14  -8.8263     41.1043      5.5494   5.9435911679e+01   7.0440720895e+01    0.2758739    0.1714245  -9.11  0.001228221    1.736    0.424
        15  -9.9938     85.0037      5.1258   4.3682230478e+01   6.2031356713e+01    0.2498147    0.2264827   7.34 0.0003859451    1.066    0.062
        16  -8.9675     77.4799      5.7713   4.6097278661e+01   6.3592919445e+01    0.3323861    0.2809646 -83.76  0.001989398    1.577    0.366
        17  -8.8945    156.2620      9.0482   3.2013620636e+01   4.4308995137e+01    0.4804273    0.1249264 -20.77  0.001500219    4.306    0.768
        18  -7.9351     32.4187      5.5264   6.3624519787e+01   7.1763456117e+01    0.1206622   0.09892469  -9.04 4.836687e-05    1.013    0.013
        19  -8.1734    111.0684      3.9849   3.7253840111e+01   5.6091705431e+01    0.1626447    0.1456587  53.85  0.000404275    1.042    0.040
        20  -9.3770     57.4950      3.2808   5.1362451263e+01   6.7855773872e+01    0.2932374    0.1798341  39.94  0.000251808    1.533    0.348
        21  -8.4025    154.1729      2.9187   3.0232270991e+01   4.5396063304e+01    0.2746483    0.1336574  49.08 0.0006609558    2.073    0.518
        22  -7.9154    125.4821      3.0460   3.4317983378e+01   5.2631870253e+01    0.1840938    0.1342903 -16.07 0.0004127449    1.475    0.322
        23  -8.4759    105.4100      1.9780   3.7514057457e+01   5.7624227176e+01    0.2787489    0.1558681  48.07  0.001364311    1.630    0.386
        24  -9.4660     67.1389    144.4149   9.2711662754e+01   3.7788941255e+01    0.4519652    0.3320014  70.72  0.002498726    1.390    0.280
        25 -10.8305     46.7957    247.9765   1.0706761612e+02   1.9668692875e+01    0.4916928    0.1115375  50.90  0.002228376    3.230    0.690
        26 -11.5198     32.6326    244.1171   1.0931099827e+02   2.1860380578e+01    0.4763117    0.2901081 -63.58   0.00338399    2.048    0.512
        27  -7.9319     75.8153    133.8300   8.8632534975e+01   3.8993990793e+01    0.1861233     0.148697  72.15 0.0003514908    1.281    0.219
        28  -8.8798     66.8033    128.4349   9.0174083150e+01   4.1558549021e+01    0.3315894    0.1767898 -35.21  0.001305208    3.043    0.671
        29  -7.8760    119.2112    118.6026   7.3843603159e+01   3.4894397786e+01    0.2063368    0.1405408  32.86 0.0009437752    1.649    0.394
        30  -7.4682    159.6608    116.7078   6.3849176405e+01   2.6869889779e+01    0.1505323    0.1164273  10.40 0.0003694034    1.648    0.393
        31  -8.7901    135.6662    113.3266   6.8468447250e+01   3.2657806258e+01    0.3864966    0.2796287 -81.20  0.001712119    1.975    0.494
        32  -9.5820    134.1258    106.3601   6.7059798756e+01   3.4410017144e+01    0.6001356    0.2407818 -40.33  0.002111771    2.567    0.610
        33  -8.1945     52.1747    112.7913   9.1652792157e+01   4.7205462231e+01      0.23952     0.128996  70.02 0.0009541772    2.887    0.654
        34  -8.8338      9.4103    109.2424   1.0438080686e+02   5.2215774326e+01    0.2230482    0.1716585  67.80 0.0006346572    1.295    0.228
        35  -7.9125    180.4003    107.1895   5.7242164176e+01   2.4091421803e+01    0.2096298    0.1312362 -46.57 0.0009398596    1.628    0.386
        36  -9.0968    115.5256    106.9798   7.1939099852e+01   3.8128200508e+01    0.2734761    0.2091306  67.37 0.0009621661    1.523    0.344
        37  -8.1733    125.0207    106.3108   6.9308329034e+01   3.6336023555e+01    0.2421409    0.1188388  27.02 0.0007042832    4.222    0.763
        38  -8.7544     62.2238    106.3820   8.7275527153e+01   4.7403477692e+01    0.1955808    0.1216305  47.84 0.0007299666    1.733    0.423
        39  -8.4005     13.8374    105.7464   1.0256201701e+02   5.2716921630e+01    0.2109236   0.09334923 -42.52 0.0009420982    2.740    0.635
        40  -8.2150     86.9865    105.5157   7.9554842950e+01   4.3764632194e+01    0.2048086    0.1419878  42.84 0.0005162415    1.502    0.334
        41  -9.1288     72.0852    104.9295   8.3903549376e+01   4.6308880870e+01    0.3663474     0.181615  48.21  0.001016878    2.247    0.555
        42  -9.2791    246.9941    101.0334   4.5186770031e+01   1.1284963056e+01    0.1642393     0.136042 -28.23 0.0008986046    1.038    0.037
        43  -9.2894    140.8826     99.1711   6.3528173485e+01   3.4386984331e+01    0.4619978    0.2987858  19.29  0.001819992    2.477    0.596
        44  -8.1806     94.7138    102.5848   7.6576299583e+01   4.3066849868e+01    0.2762495    0.1443071  36.28  0.001135469    2.119    0.528
        45  -9.6877     12.6612     94.7247   1.0142321181e+02   5.5411006499e+01    0.4349527    0.2681007 -77.31  0.002479702    1.394    0.283
        46  -9.1945     55.3435     92.7844   8.6493348187e+01   5.1530952893e+01    0.3434443    0.2621976  24.98  0.001763052    1.522    0.343
        47  -8.7282      1.5347     92.5127   1.0489441433e+02   5.6656963630e+01    0.2266286    0.1194546 -78.39 0.0005766874    1.581    0.367
        48  -8.7283     43.4136     91.7305   9.0312974928e+01   5.3253520272e+01     0.225361    0.1650922 -13.25   0.00120143    1.844    0.458
        49  -8.2505     96.2411     90.0760   7.2798113598e+01   4.5541018796e+01    0.2936051     0.191898  12.43  0.001170937    2.632    0.620
        50  -9.3820    248.6012     90.8350   4.2668075152e+01   1.2395541925e+01    0.1968293    0.1003333 -40.12 0.0009495273    1.714    0.416
        51  -9.4561    151.4754     86.7395   5.7651813697e+01   3.4359624268e+01    0.5339042     0.345622  21.14  0.002136313    2.379    0.580
        52  -7.8059     62.3126     88.3271   8.3070865419e+01   5.1601756102e+01    0.1421773     0.102726 -28.19 0.0007042174    1.666    0.400
        53  -8.5233     72.9296     85.3554   7.8755990746e+01   5.0661897163e+01    0.3185489     0.167829  49.58   0.00135782    2.219    0.549
        54  -8.3684     65.9804     83.6806   8.0618320105e+01   5.2118995278e+01    0.1848609    0.1796363 -44.20 0.0005157416    1.064    0.060
        55 -10.6669     37.8388     80.6720   8.9825859557e+01   5.6460088170e+01    0.6366331    0.3630119 -11.83  0.002678987    3.223    0.690
        56  -7.6554    127.6561     82.6841   6.2039324778e+01   4.0558016448e+01    0.1554154    0.1201833   9.04 0.0007048245    1.715    0.417
        57  -8.8200    250.2382     79.9713   3.9986001530e+01   1.3560635736e+01    0.1794936    0.0943637 -32.19 0.0008713958    1.615    0.381
        58  -8.3159     96.3471     78.6187   6.9408684570e+01   4.7951962297e+01    0.4343521    0.2216306  61.69  0.001504664    3.295    0.696
        59  -8.6974     88.6079     78.4446   7.1723666618e+01   4.9458668110e+01    0.6033641    0.2082705  34.64  0.001821176    4.184    0.761
        60  -8.9075    184.5285     77.7696   4.8685778851e+01   2.8137747436e+01    0.2591849    0.2043205  56.87 0.0006961809    1.319    0.242
        61  -8.9853     20.9946     84.0670   9.6720405903e+01   5.7276146509e+01    0.1908828    0.1596485 -62.82 0.0003377566    1.031    0.030
        62  -9.6536      7.9434     77.1259   1.0033145796e+02   5.9855027217e+01    0.3572436    0.1975761 -39.42  0.001938733    1.906    0.475
        63  -8.5732    111.6306     76.0626   6.4219731796e+01   4.5349200272e+01    0.4175605     0.207193  64.03  0.001374602    3.461    0.711
        64  -9.3876     53.8802     75.8532   8.2724503555e+01   5.5609821565e+01    0.4326321    0.1148168  42.31   0.00139339    4.342    0.770
        65  -8.9822    167.9839     74.5224   5.0755768861e+01   3.2601328757e+01    0.3232847    0.2948967  -6.17  0.001607184    1.182    0.154
        66 -10.0963    164.2702     70.8857   5.0400051882e+01   3.4097534220e+01    0.4366522    0.3492538 -45.93  0.001555331    1.230    0.187
        67  -9.4857     29.4898     68.9584   9.0200719790e+01   6.0004466929e+01    0.3173122    0.1603978 -37.59  0.001302372    2.180    0.541
        68  -8.5072     23.2314     69.1668   9.2751001665e+01   6.0535514252e+01    0.2455263    0.1851123  55.36 0.0004695575    1.601    0.375
        69  -9.0685     23.5055     74.0012   9.3735371353e+01   5.9404056283e+01    0.2983357   0.08590241 -57.72  0.001184652    2.579    0.612
        70  -8.1254     75.1006     74.1229   7.4782986407e+01   5.2767148248e+01    0.2138714    0.1847699 -22.24 0.0004202445    1.229    0.187
        71  -8.8366     47.9919     70.9896   8.3551771737e+01   5.7468936633e+01    0.2074719     0.160465  85.39  0.001124583    1.670    0.401
        72  -8.4775     36.4895     68.9802   8.7436663335e+01   5.9277075573e+01    0.1813291    0.1099861 -85.52 0.0008098523    2.490    0.598
        73  -8.3916    107.1765     66.6884   6.2429954866e+01   4.8109583479e+01     0.343992    0.1653132  32.75  0.001187816    3.072    0.675
        74  -9.2585     85.1893     63.5477   6.8019635303e+01   5.3146320460e+01     0.634142    0.2686888  38.29  0.002406115    2.657    0.624
        75  -7.9776    163.6320     63.1547   4.8208026957e+01   3.5504017106e+01    0.2122487    0.1412492 -20.26 0.0009431107    1.722    0.419
        76  -9.4718     25.6084     62.3498   9.0094725289e+01   6.1858700541e+01    0.2870806    0.2118471 -71.73  0.001042119    1.354    0.262
        77 -10.5675     62.3531     60.9108   7.5052581468e+01   5.7611657601e+01    0.4885604    0.2666035  30.82 0.0002862426    2.119    0.528
        78  -9.4404      5.1706     61.4020   9.8502743725e+01   6.3624400623e+01    0.3274868    0.1472548  41.19  0.001618939    2.750    0.636
        79  -9.2772    183.0583     58.7287   4.3555673039e+01   3.1431712926e+01    0.3580869    0.2669515 -48.70  0.001239351    1.316    0.240
        80 -10.3635    178.5108     54.3860   4.3013294096e+01   3.3177799730e+01    0.4180181    0.3477264  85.75  0.001150783    1.277    0.217
        81  -8.4965     44.8511     59.8261   8.1460403684e+01   6.0306049742e+01    0.1773591    0.1548628 -85.12 0.0009140304    1.363    0.266
        82  -9.7715     36.7322     58.8317   8.4468676168e+01   6.1490869650e+01    0.4196061    0.2440926  -7.19  0.001861165    2.872    0.652
        83  -8.5432     19.9201     60.6960   9.2064460799e+01   6.2728482542e+01    0.1627623    0.1505891 -42.14 0.0005258267    1.118    0.106
        84  -8.2523     49.5437     58.6963   7.9227378177e+01   5.9932917195e+01    0.2030171    0.1559266  58.74 0.0006755015    1.678    0.404
        85  -9.4322     99.8058     54.7044   6.0386525717e+01   5.1878116970e+01    0.3486168    0.3319423 -53.30 0.0006576066    1.102    0.093
        86  -8.1777    118.7506     50.8851   5.3873050570e+01   4.8311201647e+01    0.2174291    0.1931081  11.90 0.0004942655    1.208    0.172
        87 -10.6999     75.5022     49.9012   6.6369757596e+01   5.7551435519e+01    0.3808274    0.2648531  48.81 0.0003528929    1.579    0.366
        88  -8.9924     45.2691     48.4569   7.7462374649e+01   6.2613275613e+01    0.2487314    0.1986102 -11.70 0.0008610659    1.343    0.255
        89  -8.2555    107.2987     48.0302   5.5822917422e+01   5.1387862601e+01    0.2453098    0.1899568  35.07 0.0006055679    1.348    0.258
        90  -9.5260      8.3325     46.7974   9.3648089741e+01   6.6650253079e+01     0.537362    0.1998435  27.14  0.002563317    3.000    0.667
        91  -8.3310     13.8024     45.3570   9.0638190552e+01   6.6564374165e+01    0.1850074    0.1702473  40.88 0.0007232898    1.335    0.251
        92  -8.7273     81.4753     43.5369   6.1863233857e+01   5.7558894311e+01     0.249318    0.2019586 -26.32 0.0005934874    1.195    0.163
        93 -10.5116     83.0690     39.7241   5.9803558426e+01   5.7884306537e+01    0.4399078    0.2748812  35.06  0.000243497    1.718    0.418
        94  -9.2936     65.4599     43.0788   6.7340925732e+01   6.0570529626e+01    0.3680481    0.2161903 -63.30  0.001499139    2.985    0.665
        95  -8.0177    222.8251     43.1400   3.4112988297e+01   2.4174275057e+01    0.1691331    0.1548317  19.14            0    1.302    0.232
        96  -8.9103     93.5408     42.3636   5.7586945974e+01   5.5304034400e+01    0.4811051    0.2344804  35.73  0.001896835    2.504    0.601
        97  -8.8656     99.5602     41.8936   5.5643348167e+01   5.4086693943e+01    0.3679242    0.2029167  60.41  0.001373004    2.124    0.529
        98  -9.3958     57.0119     41.9277   7.0148829656e+01   6.2167819097e+01    0.4075652     0.237831  -8.53  0.001607379    3.246    0.692
        99  -8.7901     31.7605     42.9738   8.1421006195e+01   6.5368272655e+01    0.5638717    0.1411335  35.00  0.002059754    4.215    0.763
       100  -8.8989     35.5968     37.7854   7.7704206781e+01   6.5945429171e+01    0.3363028    0.1551235 -49.59  0.001009792    1.944    0.486
       101  -9.0427     38.7536     35.3453   7.5272506841e+01   6.6012568339e+01    0.3091446    0.1920178  21.71 0.0009931765    1.847    0.458
       102  -8.1228    113.4734     41.7461   5.1855095369e+01   5.0973184798e+01    0.3544992    0.1520068  30.57 0.0008920893    6.043    0.835
       103  -9.4006     19.7343     35.0708   8.4328220056e+01   6.8183168138e+01    0.3974983    0.3292514 -84.62  0.002157866    1.618    0.382
       104  -8.8447     22.0176     31.7645   8.1913782523e+01   6.8612625690e+01    0.1866907    0.1528904 -36.55 0.0003458036    1.016    0.016
       105  -9.0971    203.5552     38.4025   3.5015313600e+01   2.9240344781e+01    0.2417925    0.2280704 -53.11  0.001120876    1.047    0.045
       106  -8.1709      3.6211     39.2421   9.3868324101e+01   6.8562553150e+01    0.1782314    0.0817449 -53.55 0.0009467848    1.650    0.394
       107  -7.6900    235.4492     38.5242   3.1705645418e+01   2.1953686539e+01    0.1314763     0.111703 -50.12 3.222138e-05    1.019    0.019
       108  -8.7198    185.6987     35.9956   3.6557003519e+01   3.3885732222e+01    0.2863753    0.2225567 -13.64 0.0009717983    1.454    0.312
       109  -8.7770     67.4975     37.4957   6.4288856683e+01   6.1195242554e+01     0.197698    0.1253473  31.58 0.0009826215    1.712    0.416
       110  -9.3359     73.1395     35.1078   6.1239313558e+01   6.0560422579e+01    0.5390075    0.1817183  49.31  0.001958909    3.240    0.691
       111  -8.4861    106.5523     36.2104   5.1506195137e+01   5.3388769168e+01    0.4905289    0.1349449  50.84  0.001592274    3.345    0.701
       112  -8.8403     45.5765     35.6572   7.2351615112e+01   6.5030082215e+01    0.2325396    0.1601259  36.19   0.00085132    1.584    0.369
       113  -8.4615    177.9874     34.4823   3.7150112923e+01   3.5994500164e+01    0.2255201    0.1971463  -4.29 0.0004941308    1.298    0.229
       114  -9.6117    179.5764     30.4647   3.5726466397e+01   3.6088618889e+01    0.2579092    0.2268581  33.15 0.0004817359    1.284    0.221
       115  -8.4800     55.8997     35.1229   6.7774042525e+01   6.3565593326e+01    0.1888484    0.1750384 -40.84 0.0005351937    1.184    0.155
       116  -9.1647     12.2793     34.3779   8.7892337746e+01   6.8964377180e+01    0.2967212    0.1814067  55.01  0.001560356    2.682    0.627
       117  -9.3245      5.7178     33.8789   9.1159989069e+01   6.9544724074e+01    0.2843011    0.1710379   0.91  0.001097514    1.995    0.499
       118  -9.8884    197.1482     32.4834   3.4129424903e+01   3.1509326644e+01    0.2754964    0.2523823   3.15 0.0004343225    1.262    0.207
       119  -8.9638     96.3204     32.8342   5.2933722216e+01   5.6169929557e+01    0.2508022    0.2041648  28.63 0.0003216126    1.247    0.198
       120  -9.3767    211.9454     30.4975   3.1969241961e+01   2.8214456743e+01    0.2621002    0.2266665  76.19 0.0005793346    1.191    0.160
       121 -11.1872     80.9127     22.9100   5.3241086886e+01   6.0840177992e+01    0.5786474    0.2567348  40.69 0.0009101225    2.345    0.573
       122  -8.9927     71.0443     30.2498   5.9863929319e+01   6.1725295181e+01    0.1927316    0.1846704 -55.03 0.0003904917    1.238    0.192
       123  -9.5255     70.2577     26.2653   5.8345083885e+01   6.2477741785e+01    0.4187305    0.2372201  28.94  0.001940487    2.096    0.523
       124  -9.1568     62.8962     26.6525   6.1232413343e+01   6.3773225681e+01    0.4474918    0.2280888  39.69  0.001539532    2.017    0.504
       125  -8.4096    190.9515     27.9632   3.3575139684e+01   3.3560433030e+01    0.2342505    0.1480447 -62.81 0.0009113586    1.692    0.409
       126  -8.8524     42.2956     27.8232   7.0393383815e+01   6.6885392294e+01     0.196373    0.1707917   0.95 0.0005919674    1.113    0.102
       127  -8.2893      1.4424     28.4633   9.1703069355e+01   7.0919827558e+01    0.1184289   0.09058558 -43.99 1.896639e-05    1.035    0.034
       128  -8.6763    185.9981     26.5196   3.3746733451e+01   3.4952442670e+01    0.1994421    0.1843171 -47.33 0.0005190131    1.066    0.062
       129  -8.5307    174.1396     26.6291   3.5282584184e+01   3.7908011419e+01    0.2566566    0.1651618  59.41  0.001212324    1.521    0.343
       130  -9.3310    214.7811    249.6156   7.7929659398e+01  -2.9454022455e+00    0.1705001   0.08338039  33.49 0.0009604265    1.610    0.379
       131  -7.6888    103.3157     24.6611   4.7668576200e+01   5.5707307018e+01    0.1415455    0.1064666 -63.59 0.0007048042    1.702    0.412
       132  -7.6784     79.3436    139.2552   8.8636628952e+01   3.7211092269e+01     0.128716    0.1088429 -15.00 0.0001859034    1.585    0.369
       133  -8.0754      3.4611     24.5188   8.9178035182e+01   7.1576038478e+01    0.1192151   0.09049404 -39.98 1.137745e-05    1.052    0.049
       134  -7.3650    137.3002     22.7117   3.9658865736e+01   4.7698465485e+01    0.1421172    0.1046715 -65.10 0.0002593705    1.559    0.359
       135  -9.1101    128.8870     21.9870   4.0951133627e+01   4.9885405323e+01    0.2203507    0.1920402  57.13 0.0003008883    1.101    0.091
       136  -8.8603     92.4741     20.4323   4.8719419391e+01   5.8685933767e+01    0.2794146    0.1987184  28.48 0.0006114757    1.471    0.320
       137  -7.4755    109.6755     25.3039   4.6369291563e+01   5.4145510562e+01    0.1405632    0.1077194 -67.14 0.0003296586    1.641    0.391
       138  -9.1329     17.7607     17.4479   7.7984860907e+01   7.1689607741e+01    0.3434798    0.1604882  37.25  0.001772957    2.567    0.610
       139  -9.0685      8.9366     19.5462   8.4018223331e+01   7.2121440279e+01    0.2782136    0.2075513 -24.61   0.00100224    1.195    0.163
       140  -8.4207     12.5210     17.9916   8.1239804272e+01   7.2098034306e+01    0.1703082    0.1297953 -31.01 0.0005689561    1.070    0.065
       141  -7.2098    112.2589     18.7169   4.3100839769e+01   5.4320374065e+01    0.1311537    0.1041189 -60.93            0    1.479    0.324
       142  -8.7969    189.5410     15.4861   3.0149696765e+01   3.5286752502e+01    0.2579456    0.1824898  89.81  0.001156912    1.412    0.292
       143  -7.9804    127.5460     16.4617   3.9116182592e+01   5.0831230084e+01    0.1362856    0.1316649  73.91 0.0002178431    1.039    0.037
       144 -10.3296    184.6515    242.0616   8.1920397514e+01   2.0075263424e+00    0.2778378    0.2299783  55.55  0.001072776    1.589    0.371
       145  -7.8460    176.9818     15.5693   3.1552047147e+01   3.8408686933e+01     0.191532    0.0934822  47.02 0.0003848512    2.293    0.564
       146  -8.1764    146.9902     14.0188   3.4990668448e+01   4.6183061742e+01    0.2119529    0.1923109  72.29 0.0006926329    1.048    0.046
       147 -10.4161    205.2130    236.5116   7.7670854871e+01  -2.1091105303e-01    0.1917563    0.1619698   7.92 0.0002368669    1.150    0.131
       148  -7.7406    195.6372    238.2889   7.9533367159e+01   9.1680681084e-01    0.1045045   0.08001802  52.01 0.0007024986    1.695    0.410
       149  -9.5002    172.2864    236.2837   8.3308811421e+01   4.5096327953e+00    0.1993374    0.1630775  44.14 0.0001763581    1.256    0.204
       150  -9.0595    188.0187    233.6658   8.0196470437e+01   2.5665825739e+00    0.1770709    0.1605873  69.33 0.0009683215    1.622    0.384
       151  -7.9115    185.3707    227.7950   7.9829562034e+01   3.7032864085e+00    0.1421244     0.102423 -19.50 0.0003489217    1.571    0.363
       152  -8.5154    174.9624    227.0006   8.1568017227e+01   5.3544823198e+00    0.1694304    0.1411216  30.50 0.0003217497    1.058    0.055
       153 -11.5759     40.7754    218.8765   1.0636818642e+02   2.5407733428e+01    0.8589353    0.4585543  56.37  0.003823578    1.509    0.337
       154  -9.6001     30.6629    211.8967   1.0787193794e+02   2.7817439265e+01    0.2359724    0.1941902 -49.32  0.001047123    1.756    0.431
       155  -8.8329    164.7459    206.3732   8.0442648233e+01   9.9286095535e+00    0.1889826    0.1803154  22.35 0.0002050499    1.134    0.119
       156 -10.3521     59.1104    200.1754   1.0123236428e+02   2.6819214128e+01    0.3863382    0.2696649 -51.55  0.002396165    1.821    0.451
       157 -10.5896     54.8446    194.7662   1.0164037223e+02   2.8425594425e+01    0.5072879    0.3831391 -75.74  0.003362061    1.329    0.248
       158  -8.5068     25.8753    199.5737   1.0804742240e+02   3.0708783232e+01    0.1606247    0.1273983 -87.63  0.000374829    1.215    0.177
       159  -8.5478    193.3960    197.5695   7.3686239893e+01   6.6141871123e+00    0.2179686    0.1088835 -53.08 0.0009457457    3.350    0.702
       160  -7.5546     92.2200    191.0185   9.3157452666e+01   2.4126260858e+01    0.1500008     0.101072 -65.13 0.0008468707    1.583    0.368
       161  -7.4936     93.4380    214.5061   9.5614173262e+01   1.9522585783e+01    0.1191252   0.09993332  54.76  0.000135606    1.023    0.023
       162  -7.6048     95.5487    178.4188   9.0753116847e+01   2.6163191928e+01    0.1303703    0.1146002  62.39 0.0001183607    1.016    0.016
       163 -10.7072    100.9969    175.9977   8.9169218139e+01   2.5812277781e+01    0.1867107    0.1673644  62.60  0.001161721    1.005    0.005
       164  -8.6976    115.9904    149.4616   8.1206178501e+01   2.8855161113e+01    0.2329341    0.1908793 -82.01 0.0002160005    1.351    0.260
       165  -8.5139    133.5279    147.4902   7.6679550038e+01   2.6042673273e+01     0.256201    0.1300485 -37.62  0.001028043    2.379    0.580
