#   1 NUMBER                 Running object number                                     
#   2 MAG_AUTO               Kron-like elliptical aperture magnitude                    [mag]
#   3 X_IMAGE                Object position along x                                    [pixel]
#   4 Y_IMAGE                Object position along y                                    [pixel]
#   5 X_WORLD                Barycenter position along world x axis                     [deg]
#   6 Y_WORLD                Barycenter position along world y axis                     [deg]
#   7 A_WORLD                Profile RMS along major axis (world units)                 [deg]
#   8 B_WORLD                Profile RMS along minor axis (world units)                 [deg]
#   9 THETA_WORLD            Position angle (CCW/world-x)                               [deg]
#  10 FWHM_WORLD             FWHM assuming a gaussian core                              [deg]
#  11 ELONGATION             A_IMAGE/B_IMAGE                                           
#  12 ELLIPTICITY            1 - B_IMAGE/A_IMAGE                                       
         1 -11.0233     80.1738     27.6188   4.0771026727e+01   5.8749901027e+01    0.3380097    0.2841112  24.77  0.001636268    1.314    0.239
         2 -11.3533     32.9718     23.3844   5.7100426896e+01   6.8431987858e+01    0.3622871    0.2789448 -64.72 0.0008983339    2.323    0.570
         3 -10.5018     36.0045      8.0865   4.8520328422e+01   6.9720649158e+01     0.197234     0.164123  36.70 0.0003418984    1.119    0.106
         4 -11.8110     34.4610     16.7574   5.3350823623e+01   6.9023617003e+01    0.6370606    0.3450821  58.49  0.002903714    2.969    0.663
         5 -10.3528     38.8403     13.8465   4.9943542886e+01   6.8590253034e+01    0.2468885    0.1687773  37.86  0.000551298    1.162    0.139
         6 -10.9345     35.4053     12.1666   5.0748203642e+01   6.9390396104e+01     0.214053    0.2040627  76.39 0.0007066276    1.495    0.331
         7 -10.7106     25.9591     13.5103   5.6195940944e+01   7.0821409168e+01    0.2346925    0.1991103  13.57  0.001351824    1.132    0.117
         8 -11.9726     92.3451     10.8518   3.2031391153e+01   5.7787148961e+01    0.6024737    0.2945407  66.70  0.003112922    1.708    0.414
         9 -10.4227    185.1167     12.0223   2.0377060438e+01   3.7709742468e+01    0.1644608    0.1233965 -76.66 0.0003217023    1.021    0.020
        10  -9.3467    172.4385     11.9782   2.1426344974e+01   4.0236777289e+01    0.1567359   0.06496359 -57.86 0.0004105103    2.318    0.569
        11 -11.6516    126.0313     10.9053   2.6313304924e+01   5.0251459643e+01    0.2190545    0.1699657 -84.39 0.0002762233    1.167    0.143
        12 -12.6467     55.0651      9.8814   4.1718969250e+01   6.5881216669e+01    0.4377168    0.1988852  40.46   0.00217715    1.964    0.491
        13 -11.0441     43.5966     10.9034   4.6527979202e+01   6.8027083435e+01    0.2950841    0.2161733  31.31  0.001575122    1.178    0.151
        14 -10.2427    225.9711     11.1088   1.7485676358e+01   3.0358059461e+01    0.1519257    0.1078189 -70.32 0.0003319265    1.020    0.019
        15 -10.1829    101.9618     10.9864   3.0191913628e+01   5.5625633653e+01    0.3804844    0.0932739  65.57  0.001135241    3.312    0.698
        16 -10.8538      8.9278      9.6080   6.4660504572e+01   7.3754873965e+01    0.3586017     0.205227  52.35  0.000949351    3.869    0.742
        17 -10.6267    116.3749      9.5114   2.7331609435e+01   5.2530086076e+01    0.2056329    0.1654425  71.57 0.0001189446    1.060    0.057
        18  -9.4572    168.4566      9.4343   2.1236344107e+01   4.1300226385e+01    0.1142986   0.08531954 -81.70 5.495607e-05    1.044    0.043
        19  -9.5706     16.8111      9.3285   5.9398766852e+01   7.2723007208e+01    0.1766532   0.08657085  29.24 0.0009408171    1.712    0.416
        20 -12.5629     29.6110      5.2078   5.0157806873e+01   7.1147204159e+01    0.2740827    0.2279479  12.16 0.0002908089    1.186    0.157
        21 -10.4740     29.9947      1.2116   4.7926313009e+01   7.1475878939e+01    0.2301696   0.09378275  45.53 0.0005989919    1.891    0.471
        22  -9.7904    247.1705      5.8677   1.5576146538e+01   2.7461710042e+01    0.1399359   0.08403043 -65.97 0.0002972993    1.143    0.125
        23 -10.3788    221.9126      6.1642   1.6881198756e+01   3.1558402405e+01    0.1584433    0.0949498 -67.57 0.0003872802    1.227    0.185
        24 -10.3477    224.8005      2.9360   1.6188940646e+01   3.1390760682e+01    0.1509754    0.1384619  59.75 0.0007810552    1.789    0.441
        25  -9.6629    150.8427      6.1525   2.2169516017e+01   4.5288789655e+01    0.1481515     0.116447  65.84 0.0004157459    1.316    0.240
        26 -10.4889    123.8632      5.4277   2.5122402902e+01   5.1223888953e+01    0.2831361    0.1705908  38.91   0.00138332    2.242    0.554
        27  -9.3071    111.6680      6.2907   2.7123464883e+01   5.3865217574e+01    0.1215044   0.07881283 -79.43 0.0007020191    1.629    0.386
        28 -10.4108     66.9899      5.7547   3.6296973126e+01   6.3773510289e+01    0.1822811    0.1451341  51.65  0.000204863    1.032    0.031
        29 -10.9470     70.8937      5.0225   3.4952667472e+01   6.2999647721e+01    0.2246877     0.142368  50.65 0.0003094998    1.266    0.210
        30 -10.0343    132.9673     10.2596   2.5217748709e+01   4.8778697400e+01     0.168588    0.1253208  79.66  0.000335356    1.078    0.072
        31 -11.1642    194.1101      4.7120   1.8302814050e+01   3.6714065192e+01    0.1787749     0.135702 -74.31 0.0002323675    1.064    0.060
        32  -9.1403     78.6934      5.6674   3.3251224178e+01   6.1252751310e+01    0.1253805   0.07567604  40.18 0.0007039696    1.665    0.399
        33 -10.2591     55.2165      3.9304   3.9115124581e+01   6.6389288992e+01    0.3300034     0.193821  27.66  0.001799138    1.923    0.480
        34  -9.9824     49.4937      1.4501   3.9966231801e+01   6.7758805986e+01    0.1805356     0.151574  36.43 0.0005511523    1.124    0.110
        35  -9.9659     48.2959      4.4350   4.1746256485e+01   6.7739100603e+01    0.2795032    0.1858418  59.11 0.0008212508    1.401    0.286
        36 -10.1414     44.3331      3.7137   4.2916463929e+01   6.8580563477e+01    0.2050829    0.1615899  67.66 0.0005810799    1.487    0.328
        37 -11.5807     19.8035      2.6471   5.4089273771e+01   7.3040010314e+01    0.3037018    0.1852514  16.57   0.00124502    1.643    0.391
        38  -9.7672    190.1708      3.7663   1.8388837309e+01   3.7554610063e+01    0.1272699    0.1094764 -87.93 0.0007258303    1.287    0.223
        39 -10.2942     39.2543      3.6590   4.4953248098e+01   6.9555868062e+01    0.1854727    0.1469304  48.68 0.0005443764    1.181    0.153
        40 -10.7746    148.5228      2.4245   2.1525624006e+01   4.6119162599e+01    0.1959683    0.1466583  88.44 0.0002708857    1.034    0.033
        41  -9.3475    120.2377      2.9710   2.4934059994e+01   5.2236636870e+01    0.1275695   0.09843518 -37.55 0.0004095217    1.559    0.359
        42 -10.3188      1.5061      2.5713   6.6257030181e+01   7.5571805330e+01    0.1743071    0.1153237 -20.86 5.694215e-05    1.490    0.329
        43 -10.0707    210.6897      1.9776   1.6785321741e+01   3.3938391971e+01    0.1387992   0.09645818 -66.00 0.0002366612    1.091    0.084
        44 -10.1713    138.1708      1.8809   2.2468992829e+01   4.8391237825e+01    0.1694511    0.1248232 -83.48 0.0003603793    1.146    0.128
        45  -9.9590    108.8272      2.0975   2.6322425040e+01   5.4848335433e+01    0.1758112    0.1328706 -88.65 0.0004659718    1.220    0.180
        46 -10.1522     12.1960      2.3028   5.8570584230e+01   7.4221751193e+01    0.2206604     0.123252  49.93   0.00116316    2.554    0.608
        47 -10.1249    245.1612      1.4022   1.4983294594e+01   2.8225835894e+01    0.1212851   0.07162489 -89.34 0.0004359394    1.454    0.312
        48 -10.2021    153.4167     12.7603   2.3445946681e+01   4.4110382327e+01    0.2063942    0.1315564  78.06 0.0003255711    1.294    0.227
        49  -9.1093    247.6644    250.7031   5.4627995219e+01  -7.5938791817e+00     0.111342   0.05765242 -17.79 0.0007030737    1.650    0.394
        50  -9.5911    109.9551    250.7877   8.2329697937e+01   6.0864342742e+00     0.178393   0.09528892  22.72 0.0004493718    1.633    0.388
        51 -11.2203      1.4638    233.7721   1.0806033948e+02   2.1274149468e+01    0.4415444    0.1718886 -88.46  0.001543004    2.779    0.640
        52 -12.3545     17.5041    248.5738   1.0496853548e+02   1.6560285465e+01    0.9460356    0.3335447   8.59  0.002952945    5.272    0.810
        53 -12.3111      9.8936    245.1584   1.0660324088e+02   1.7988560096e+01    0.5413865    0.2974757 -67.72  0.002861286    1.927    0.481
        54 -11.6438      5.0700    243.2881   1.0765949635e+02   1.8813954702e+01    0.3945721    0.2097035  28.27  0.002070536    1.658    0.397
        55 -12.2762      6.0395    239.9897   1.0726110779e+02   1.9477316702e+01    0.4182982    0.3272536  17.17  0.002579737    1.330    0.248
        56 -10.9354     10.1135    121.0911   9.5698259639e+01   5.0100167066e+01    0.2802699    0.2018742 -13.28 0.0003283534    1.440    0.306
        57 -10.5361     27.0622    116.9544   8.8089243739e+01   4.9815915464e+01    0.2168682    0.1997949 -29.11 0.0003094217    1.012    0.012
        58 -10.9635     69.3484    115.3183   7.1197193937e+01   4.4704623970e+01    0.2958644    0.2529408  34.45 0.0001836028    1.152    0.132
        59 -10.5062     59.3962    115.1970   7.4851043463e+01   4.6282911759e+01    0.3249999    0.2252082 -10.68 0.0008503585    1.781    0.439
        60  -9.9378     38.4837    116.5032   8.3341216076e+01   4.8724836979e+01    0.1483147    0.1420076 -15.79 0.0008102923    1.029    0.028
        61 -11.4726      5.8114    113.7309   9.6411843701e+01   5.2312715243e+01    0.4101278    0.1927171 -44.18  0.001211034    1.933    0.483
        62  -9.7619    115.6455    114.0283   5.6213144525e+01   3.6504840754e+01    0.3131928    0.1928101  15.96  0.001161386    2.816    0.645
        63 -11.3787     23.4039    113.1374   8.8913491306e+01   5.1151312462e+01    0.3064011    0.2314157 -37.08 0.0002923981    1.255    0.203
        64  -9.5567    127.5270    112.4501   5.2743169381e+01   3.4480503049e+01    0.1437986     0.141086  -2.08  0.000103316    1.075    0.070
        65  -9.6417     81.9717    108.0081   6.4969393190e+01   4.4270340328e+01    0.1802217    0.1627518  30.17            0    1.068    0.064
        66  -9.3735     67.9510    104.0075   6.8924139639e+01   4.7629784298e+01    0.1813072    0.1680801  18.35 0.0004058052    1.029    0.028
        67 -10.3865      1.3546    103.4777   9.6818773196e+01   5.5211917205e+01     0.258264    0.1089338 -63.18  0.001077552    2.039    0.510
        68 -11.4475    112.6867    102.1892   5.4079010942e+01   3.9596422057e+01     0.257117    0.2411514  57.14 0.0002527672    1.047    0.045
        69  -9.5810     44.5014    103.5703   7.8045763542e+01   5.1237791034e+01    0.1488985    0.1375772  -6.04 7.081826e-05    1.012    0.012
        70 -10.1851    103.9151    101.1891   5.6291770513e+01   4.1572841037e+01    0.2679777    0.2032285  21.43  0.000786539    1.549    0.354
        71 -11.0074     21.5247     99.8711   8.7172276410e+01   5.4699283616e+01      0.39402    0.2724518  32.03   0.00197777    1.508    0.337
        72  -9.9765    218.0779     98.1933   3.3649788108e+01   2.0240126339e+01    0.1629106    0.1468358 -44.11 0.0005575509    1.243    0.195
        73  -9.5700    139.7007     98.2931   4.6501113440e+01   3.4820555594e+01    0.1403832    0.1076376 -85.66 0.0001828547    1.566    0.362
        74 -10.3876     37.8254     97.1855   7.9365223991e+01   5.3629883547e+01    0.2098645    0.1991935  38.66 0.0004994397    1.171    0.146
        75 -11.0235     18.7375     93.8265   8.7189818203e+01   5.6438146688e+01    0.4488041    0.3100277 -15.30  0.002269487    1.454    0.312
        76 -12.6763     57.8278     91.7369   6.9588473717e+01   5.2080980993e+01    0.3584974     0.344352  47.53 0.0004033007    1.154    0.133
        77 -10.7454     74.6865     92.9575   6.3533827249e+01   4.8940403382e+01    0.2539251    0.2012539  40.70 0.0004363978    1.218    0.179
        78 -11.4052     66.7070     91.6841   6.6119342239e+01   5.0624491363e+01    0.2575964    0.2392044   0.18 0.0002816272    1.051    0.049
        79 -10.1050    105.5198     91.5217   5.3283436657e+01   4.3216174990e+01    0.1453958    0.1386679  54.56 -3.623822e-05    1.010    0.010
        80  -9.9022      7.8037     91.1644   9.1783525380e+01   5.7920020010e+01    0.1941534    0.1369584 -31.49 0.0004455619    1.295    0.228
        81 -10.0765    125.2054     93.0695   4.8541112614e+01   3.8818655100e+01    0.1981148     0.188241  18.18 0.0002993532    1.176    0.150
        82 -10.4716     92.3097     93.0642   5.7641086002e+01   4.5573010425e+01    0.2850124    0.2417358  20.09 0.0007662282    1.255    0.203
        83 -10.2056      1.7448     89.6824   9.4396808679e+01   5.8643575685e+01    0.2272925    0.1485666 -51.49 0.0003743753    1.341    0.255
        84 -11.1250    159.9379     88.7306   4.0252536332e+01   3.2412944246e+01    0.2329266    0.1951638 -52.50 0.0004036008    1.147    0.128
        85 -13.8226     65.4248     82.1107   6.3885885610e+01   5.2884018328e+01    0.5122037    0.4463561  20.34 0.0009532312    1.081    0.075
        86 -10.9382     27.0046     83.0041   8.0792808544e+01   5.8207825844e+01    0.2096572    0.1816001 -16.10  0.001196727    1.043    0.042
        87  -9.0450     80.7033     79.7539   5.7664637160e+01   5.0522665477e+01    0.1392901    0.1090912  12.41 0.0002060596    1.483    0.326
        88  -9.9181     47.3754     79.1787   7.0418863535e+01   5.6436333993e+01    0.3061882    0.1589257  30.04  0.001325608    1.810    0.448
        89  -9.4772     24.2870     79.6549   8.1247033299e+01   5.9259086130e+01    0.2025249    0.1757417 -89.95 0.0006290871    1.507    0.337
        90  -9.8043     22.6560     76.3383   8.1189183508e+01   6.0173902252e+01    0.2090356    0.1363662 -65.32  0.001028089    1.793    0.442
        91 -10.3354    176.9204     76.9268   3.4883954426e+01   3.0965380488e+01    0.2496701    0.1685193  65.60  0.001434408    1.504    0.335
        92  -9.8674     75.1476     76.7789   5.8708073217e+01   5.2170165517e+01    0.2507789     0.158543  42.83 0.0007504033    1.475    0.322
        93 -11.5499     12.8100     75.9700   8.6066779883e+01   6.1155705370e+01    0.4956612    0.2408361  -4.79  0.002067251    2.406    0.584
        94  -9.4849     30.7623     87.3413   8.0122588577e+01   5.6790645466e+01    0.1316596    0.1111184  70.21 0.0002853978    1.553    0.356
        95 -11.5836      5.3128     72.9195   8.9248798133e+01   6.2399124805e+01    0.3246255    0.2200808 -44.04 0.0003775748    1.306    0.234
        96 -10.4603     10.5124     69.5070   8.5679262851e+01   6.2791750706e+01    0.2490772    0.1238185   9.64 0.0007866751    1.992    0.498
        97  -9.7707    105.8172     71.7994   4.7744204960e+01   4.6805253844e+01    0.1887325    0.1516579  70.86 0.0005560915    1.313    0.238
        98  -9.9968     75.0707     71.2080   5.7035118167e+01   5.3240491789e+01    0.2152833    0.1838115  16.57 0.0005060991    1.204    0.169
        99  -9.5850      1.4428     70.4801   9.0759607145e+01   6.3191935505e+01    0.1343363    0.1121073 -26.97 0.0001119086    1.012    0.011
       100  -9.6264    131.6588     68.7630   4.0829972551e+01   4.1698396168e+01    0.1659267    0.1217855 -52.57 0.0002250702    1.403    0.287
       101 -12.6237     81.1442     66.9046   5.3620776559e+01   5.2817673452e+01    0.2908519    0.2760671   3.13 0.0004560251    1.114    0.102
       102 -11.7137     16.1536     65.1164   8.1499958142e+01   6.3261072830e+01    0.4079595    0.2816408  -7.88            0    1.379    0.275
       103 -11.7656     11.6991     59.6158   8.2375783921e+01   6.4823106635e+01     0.273201    0.2204866   2.51 0.0002684024    1.109    0.099
       104  -9.5171     58.9881     65.0652   6.1154278277e+01   5.7359713658e+01    0.1657797    0.1467925  23.82 0.0003641507    1.008    0.008
       105  -9.2273    166.5023     64.4765   3.3675822205e+01   3.4955256248e+01    0.1254601    0.1109116 -82.25 0.0008098667    1.042    0.040
       106 -10.0446    128.4437     63.6643   4.0157520095e+01   4.3203918409e+01    0.2049606    0.1266063 -47.73 0.0003057966    1.692    0.409
       107 -10.3205     51.9510     63.9351   6.3712786253e+01   5.8776983162e+01    0.2057613    0.1860061  16.12 0.0003414032    1.033    0.032
       108 -10.7758      7.5547     63.3791   8.5712733222e+01   6.4358908959e+01    0.2809687    0.1232276 -44.74 0.0007285014    2.000    0.500
       109 -11.2220     78.1964     58.8518   5.2037454438e+01   5.4786272618e+01    0.4047632    0.2198813 -50.51 0.0008576619    2.262    0.558
       110 -10.2656     97.7342     60.8731   4.6732975863e+01   5.0359835692e+01    0.2297793    0.1807053  54.37 0.0007134821    1.155    0.134
       111 -10.2845     42.2847     60.0823   6.6750206656e+01   6.1041254873e+01    0.3105498    0.2206523 -66.12  0.001563336    2.075    0.518
       112 -12.8795     21.0748     58.0445   7.6751741091e+01   6.4224627935e+01    0.3857443    0.2524088 -42.17 0.0008475832    1.493    0.330
       113 -10.1383     37.7141     60.1073   6.8920986350e+01   6.1711325193e+01    0.2635027    0.1621451   2.37  0.001211143    2.022    0.505
       114 -11.1856     58.4894     58.9451   5.9323214363e+01   5.8553527351e+01     0.260167    0.1788067  36.68 0.0006023603    1.302    0.232
       115  -9.9549    216.9765     58.3509   2.6445475355e+01   2.6261367125e+01    0.1482022    0.1173868 -76.62 0.0005014677    1.097    0.089
       116  -9.3970    130.7213     57.2427   3.7997323505e+01   4.3672028752e+01    0.1262799   0.09415244 -86.89 0.0002477065    1.448    0.310
       117  -9.7482     71.6203     57.0337   5.3701021568e+01   5.6401739714e+01    0.1789376    0.1343785 -43.79 0.0003058399    1.507    0.336
       118  -9.2652    229.4475     56.4840   2.4996701935e+01   2.4413833221e+01    0.1099246   0.08139375 -63.82 0.0001413207    1.016    0.015
       119 -12.7332     62.4033     50.1803   5.4748720745e+01   5.9299109643e+01     0.423522    0.3517334  63.91 0.0009012325    1.441    0.306
       120  -9.7918    182.2607     54.4053   2.9374039848e+01   3.3217416592e+01    0.1526282    0.1024209  84.02 0.0002899747    1.441    0.306
       121 -11.8787    115.2829     53.1024   4.0083017455e+01   4.7692429947e+01     0.267763    0.2260047  60.54  0.001607963    1.069    0.064
       122 -10.4045     86.2170     54.2101   4.7985261826e+01   5.3865757689e+01    0.3603313    0.1691036  41.08  0.001095347    2.091    0.522
       123  -9.4712     34.6614     54.7317   6.8596529514e+01   6.3158698840e+01    0.1381183   0.09440977  -1.90 0.0001867117    1.598    0.374
       124  -9.9492    225.1467     51.7543   2.4532856423e+01   2.5743539471e+01    0.1696667    0.1137955 -67.28 0.0005122985    1.206    0.171
       125 -10.6572    105.1583     51.6989   4.2037986512e+01   5.0137446085e+01     0.230963    0.2063023  -0.23 0.0007103422    1.387    0.279
       126 -10.7117     13.9061     49.3432   7.7958327664e+01   6.6683345537e+01    0.3025288    0.1652425 -43.27  0.001033291    1.752    0.429
       127 -10.4215    138.2376     50.1682   3.4765973320e+01   4.3023402384e+01    0.2260898    0.1625273  66.46 0.0005507378    1.254    0.203
       128 -10.5064    142.2518     48.7682   3.3729141668e+01   4.2335617927e+01    0.2077725    0.1656284 -79.02 0.0008882177    1.200    0.167
       129 -10.1995     83.5226     50.5306   4.7609637111e+01   5.4993896862e+01    0.1366643    0.1205459  51.52 2.179163e-05    1.040    0.038
       130 -11.3693     78.3209     49.9647   4.9059698272e+01   5.6165281180e+01    0.2442725    0.1869612  48.67 0.0002709132    1.156    0.135
       131  -9.2641    159.2717     48.7314   3.1117483834e+01   3.8683041079e+01    0.1220893   0.08307919 -75.54 0.0006866939    1.475    0.322
       132  -9.9557    102.1746     47.8338   4.1605685574e+01   5.1346921043e+01    0.1954568    0.1743586  30.38 0.0002354658    1.252    0.201
       133 -11.5032    102.5105     41.9528   3.9723126079e+01   5.2072280139e+01    0.4141176    0.2556495 -37.37 0.0006477598    1.849    0.459
       134  -9.4020     74.5437     47.4688   4.9452902623e+01   5.7316557368e+01    0.1360831    0.1183252  41.14 0.0008082143    1.006    0.006
       135 -10.4997      9.8817     46.1127   7.9267120822e+01   6.7688345942e+01    0.2919185    0.1641481 -45.59  0.001018741    1.710    0.415
       136 -10.6186      2.5997     45.8914   8.3649497235e+01   6.8333588544e+01    0.2286748    0.1581552   8.15 5.854217e-05    1.289    0.224
       137 -11.7446     85.7316     42.9179   4.4434041181e+01   5.5616904590e+01     0.264764    0.2274492   8.24 0.0003333825    1.381    0.276
       138  -9.4657    120.4809     43.9627   3.6402624380e+01   4.7796912539e+01    0.1683669    0.1289089 -41.48 6.559185e-06    1.457    0.314
       139 -10.3019     27.4348     42.7394   6.8006460643e+01   6.6299898824e+01    0.3084552    0.1839598  34.52  0.001635417    1.563    0.360
       140 -11.4272     92.0097     41.0707   4.2087124639e+01   5.4505069163e+01    0.3585094    0.2331165 -48.56 0.0007768517    1.810    0.447
       141 -10.1055     69.9887     42.1660   4.9140370170e+01   5.9015868926e+01    0.2192527    0.1471084  69.93  0.001076672    2.031    0.508
       142 -11.1700     37.9762     41.5503   6.2137964022e+01   6.4950443295e+01     0.333194    0.2102282  38.50 0.0008806621    1.456    0.313
       143 -10.7192    184.5961     40.6950   2.6251929424e+01   3.4553614500e+01    0.3177811    0.1822332  85.88   0.00153809    1.723    0.420
       144 -12.1792    140.9588     40.7111   3.1902228394e+01   4.3674117319e+01    0.3207786    0.1871617  78.37 0.0009721666    1.715    0.417
       145 -10.0688    116.7521     40.4168   3.6144611668e+01   4.9091222820e+01    0.2301935    0.1446741 -51.98 0.0007428754    1.770    0.435
       146 -10.2159    109.2856     40.8100   3.7829858442e+01   5.0711394551e+01    0.2337076    0.1607537  70.30  0.001236069    1.371    0.271
       147 -10.7184     50.5328     39.0668   5.5442179694e+01   6.3206218143e+01    0.3271815    0.2159184  43.09  0.001301865    1.351    0.260
       148 -10.4745      2.5119     39.6894   8.1708454906e+01   6.9533777388e+01    0.3148878     0.136246  13.62  0.001486987    2.133    0.531
       149  -9.4450    169.0000     39.0301   2.7649658788e+01   3.7903974769e+01    0.1600585   0.06388868 -37.65 0.0003480041    2.574    0.611
       150 -10.3010     81.1104     38.9201   4.4438386007e+01   5.7145894112e+01    0.1936839    0.1682707  49.01 0.0003355141    1.016    0.016
       151 -10.5362     21.4078     38.1939   6.9608858266e+01   6.7863820164e+01    0.3031561    0.1712466 -20.17  0.001394246    2.102    0.524
       152 -12.4441    121.5440     37.4967   3.4385374170e+01   4.8385435508e+01    0.2531791    0.2394414 -52.87  0.001705976    1.229    0.186
       153 -10.3017     30.4009     37.2305   6.4283867149e+01   6.6796209373e+01    0.2081762    0.1393588  21.52 0.0004121746    1.312    0.238
       154 -10.8807     66.2903     35.1151   4.7854780407e+01   6.0733167317e+01     0.330286    0.2242108  79.50  0.001593504    2.449    0.592
       155 -11.0771    112.5984     34.4965   3.5265699427e+01   5.0757292030e+01    0.2774691    0.2008933 -66.67  0.001106649    1.566    0.361
       156 -10.6211     83.8674     33.0933   4.1643886338e+01   5.7298168139e+01    0.3853823    0.1610374  58.83  0.001655696    2.203    0.546
       157 -10.0207     15.1688     32.8049   7.1168005257e+01   6.9525168932e+01    0.1851579    0.1456324   2.93 0.0003191392    1.036    0.035
       158 -13.0159      9.9018     29.5192   7.3146903656e+01   7.0658318556e+01    0.3802123    0.2011714  29.96  0.002053454    1.739    0.425
       159  -9.2399    145.4450     32.5554   2.9190042423e+01   4.3689547832e+01    0.1236674    0.1016182  89.31 9.252733e-05    1.025    0.024
       160  -9.6980    117.3166     28.3227   3.2567956089e+01   5.0416843891e+01    0.1337852    0.1100183  82.33 0.0004510061    1.091    0.084
       161  -9.5943     99.4590     30.5412   3.6874019720e+01   5.4168209426e+01    0.1295498    0.1087961  61.27 1.617017e-05    1.021    0.021
       162 -10.6224    135.7319     29.0641   2.9720020274e+01   4.6224898943e+01    0.1937634     0.148307  77.33 0.0003284372    1.102    0.093
       163  -9.0412    161.6370    249.2797   7.0280635508e+01   4.8075392939e-01    0.1173393   0.09315507  40.68 0.0007013046    1.675    0.403
       164  -9.9094     40.6708     29.6000   5.6034112441e+01   6.6297888671e+01    0.2662367    0.1021075  37.23  0.001139468    2.275    0.560
       165 -10.3193    144.8385     27.9447   2.8133498686e+01   4.4353325639e+01    0.1812758    0.1460269 -87.71 0.0004276322    1.058    0.055
       166 -11.0982    130.6557     22.1009   2.8650390164e+01   4.8113318735e+01     0.296319    0.1999362  38.20   0.00157845    1.979    0.495
       167  -9.8106    128.8001     27.8571   3.0477172018e+01   4.7899401897e+01     0.163372    0.1420079 -88.78 0.0003276888    1.080    0.074
       168  -9.4961    131.7448     26.3766   2.9620655467e+01   4.7409324148e+01     0.182168    0.1189397 -75.56 0.0006126454    1.631    0.387
       169 -10.5670     48.5839     28.1224   5.1905040670e+01   6.5084751616e+01    0.4214799    0.1892239  51.16  0.000706916    2.217    0.549
       170 -11.3901     47.6828     23.5662   5.0383292465e+01   6.5828717458e+01    0.3330405    0.2041933  25.98  0.001649227    1.694    0.410
       171 -11.9592     91.1142     26.3643   3.7479822635e+01   5.6498938666e+01    0.2662485     0.212513 -53.20 0.0006268279    1.473    0.321
       172 -11.5921    216.9650     25.7906   2.0581696704e+01   3.0308008510e+01    0.1779992    0.1287197 -62.56 0.0003175078    1.096    0.088
       173 -11.8472    213.0152     23.9369   2.0532637957e+01   3.1214867709e+01    0.2261562    0.1392353 -69.73 0.0002926137    1.296    0.228
       174 -10.0795    183.0562     25.6589   2.3311351041e+01   3.6647840194e+01    0.1544341    0.1172427 -89.38 0.0003900662    1.102    0.092
       175  -9.6300     49.3141    249.2761   9.7216418388e+01   1.3284970365e+01    0.1274551   0.09674044 -16.38 0.0001537318    1.563    0.360
       176 -10.5703     31.7058    247.9835   1.0147965179e+02   1.5357102259e+01    0.2431706    0.1793707 -32.58 0.0008680241    1.672    0.402
       177  -9.9362    230.0874    247.1700   5.6936627062e+01  -5.7237563053e+00    0.1731504    0.1086619 -17.09   0.00049002    1.245    0.197
       178 -10.1524    131.3559    247.1243   7.6763434214e+01   4.2950937285e+00    0.1806525    0.1587084 -14.96  0.001131724    1.125    0.111
       179 -10.1835    116.2747    246.9399   8.0316756991e+01   6.1079313129e+00    0.1820583    0.1674135 -17.67  0.001143653    1.157    0.135
       180  -9.9228     59.9665     25.9821   4.6596804154e+01   6.3158738543e+01    0.1809683    0.1470111  75.37 0.0003695336    1.559    0.358
       181 -10.3816    101.0563     22.2712   3.3914800331e+01   5.4726349994e+01    0.3996146    0.1875255 -51.87  0.001837878    2.798    0.643
       182 -10.5923    163.0780     20.5556   2.4201035491e+01   4.1271681243e+01    0.2394149    0.2003178 -11.55  0.001399523    1.835    0.455
       183  -9.8718     52.3084     23.4361   4.8450633166e+01   6.4967789544e+01    0.1726441    0.1071649  53.43 0.0009384246    1.524    0.344
       184 -10.5027     94.2143     22.6210   3.5514590508e+01   5.6217943928e+01    0.2309504   0.08982742  52.31 0.0002311666    2.111    0.526
       185  -9.9420     21.7773     22.3467   6.2720529104e+01   7.0285726464e+01     0.230763    0.1283852  24.12 0.0009334185    1.584    0.369
       186 -10.3142     15.9178     21.6181   6.5911997714e+01   7.1185751026e+01    0.2242026    0.1708053 -23.51  0.001069537    1.341    0.254
       187  -9.5245    107.0411     21.0596   3.2343738618e+01   5.3509608185e+01    0.1398556    0.1201183  71.26 0.0009237827    1.047    0.045
       188  -9.5196     69.9433     28.9911   4.4350278143e+01   6.0758907158e+01    0.1541294    0.1304138  45.14  0.000379911    1.019    0.018
       189 -10.1925     64.4844     21.1737   4.3146079600e+01   6.2794377061e+01    0.2390863    0.1476747  51.42 0.0008468326    1.325    0.245
       190 -10.6216     26.4974     21.4455   5.9643053171e+01   6.9715716272e+01    0.1804824    0.1402451  -1.49 0.0005585274    1.248    0.198
       191 -11.9757     24.2321     17.9318   5.9271178567e+01   7.0529550219e+01    0.2435394    0.1630315  25.05 0.0003567449    1.223    0.183
       192  -9.7759    243.3120    244.3783   5.4395162276e+01  -6.3766814855e+00    0.1185632   0.05840549 -20.78 0.0007027398    1.796    0.443
       193  -9.3440    224.6739     20.7086   1.9182922527e+01   2.9546389963e+01   0.08514488   0.07616502  69.66 0.0002996087    1.618    0.382
       194 -10.8416     70.3608     18.2755   4.0184126861e+01   6.1874535262e+01    0.2198155    0.2036535  79.89 0.0007963247    1.235    0.190
       195 -10.5134    123.5754     17.8087   2.8558618287e+01   5.0131850582e+01    0.3482985    0.1092906  54.96  0.001084615    2.750    0.636
       196  -9.8944     91.2822     17.9954   3.4646458732e+01   5.7345898515e+01    0.1677434    0.1445254  62.24 0.0001819871    1.058    0.055
       197 -10.2754    147.9559     16.5942   2.4966045218e+01   4.4894886177e+01    0.1630146    0.1351558 -75.96 0.0001141955    1.118    0.106
       198  -9.6587     44.6910     17.6642   4.9098902271e+01   6.7086335954e+01    0.1289929   0.08205947  22.48  0.000704296    1.678    0.404
       199  -9.8768     14.2475     16.0053   6.4333684056e+01   7.2203377188e+01    0.1631865    0.1293289   5.73 0.0004124478    1.069    0.064
       200 -10.5428     52.2933    243.9750   9.6010505228e+01   1.4138582931e+01    0.2426473    0.1792141 -44.87  0.001349059    1.535    0.349
       201  -9.9920    147.5034    243.4797   7.2550600912e+01   3.1119849503e+00    0.1336742     0.108942  -3.37 0.0001265847    1.021    0.021
       202  -9.7370     38.4409    242.2545   9.9377426699e+01   1.5970316828e+01    0.1799908    0.1186478  77.45 0.0009334952    1.730    0.422
       203 -11.7601      2.5108    248.2273   1.0849696088e+02   1.7929979186e+01    0.5535065    0.3576335  21.89  0.002776661    1.500    0.333
       204 -10.3769     31.8010    233.0392   1.0036062848e+02   1.8755482713e+01    0.4911924    0.1385813  26.95  0.001484973    2.860    0.650
       205 -11.3910     25.9825    232.4984   1.0182204857e+02   1.9442018561e+01    0.3553477    0.2362206  -0.92  0.001798639    1.819    0.450
       206 -10.1609     55.0603    231.2786   9.4104944537e+01   1.6738303914e+01    0.1984836    0.1624748  29.76 0.0003690448    1.101    0.092
       207  -9.6750    242.2235    230.6185   5.2537550598e+01  -4.2870316868e+00    0.1423499   0.08689036   2.35 0.0009487596    1.669    0.401
       208 -10.5195      7.4915    229.0185   1.0631261643e+02   2.1898908925e+01    0.1957932    0.1225772 -81.70  0.001040748    1.613    0.380
       209  -9.6737    139.7498    226.9890   7.1895247764e+01   7.2558528235e+00    0.1770892    0.1121424 -47.25 0.0008951915    1.609    0.379
       210  -9.7126    223.6594    225.6644   5.4780662508e+01  -1.8767496111e+00    0.1250411   0.06906094 -18.56 -0.0002710769    1.757    0.431
       211 -11.8044      2.7242    221.1751   1.0708816907e+02   2.4154983082e+01    0.4360451    0.2426703  76.05    0.0017166    1.832    0.454
       212  -9.5580    210.3725    215.8042   5.5519720525e+01   1.0611145661e+00    0.1753033   0.08805046 -34.81 0.0006582639    1.655    0.396
       213  -9.5662     85.7670    215.1264   8.3924227074e+01   1.6882658252e+01    0.1903881    0.1556379 -17.99 0.0002192593    1.285    0.222
       214 -10.2947      7.6176    221.6825   1.0585507154e+02   2.3643574717e+01    0.2470449    0.1162925 -73.52  0.001130762    2.094    0.522
       215  -9.4207     39.4721    207.5242   9.6033487457e+01   2.4236700133e+01    0.1421486    0.1326558  46.83 0.0002757969    1.020    0.020
       216 -10.2693      4.4949    206.2843   1.0574179668e+02   2.7699789626e+01    0.3697368    0.1127898  48.07  0.001316138    3.157    0.683
       217  -9.9091    237.6867    186.4318   4.6335550955e+01   3.0450933437e+00    0.1923462    0.1045659 -30.21 0.0006597674    1.636    0.389
       218  -9.9152      2.0000    169.9845   1.0389115150e+02   3.7386990837e+01    0.2335115   0.07489128 -76.84 0.0008001143    2.926    0.658
       219  -9.2967    229.5009    165.5327   4.4069138003e+01   7.4434967589e+00    0.1196289   0.09331625 -36.48 0.0002973308    1.015    0.015
       220 -11.1142     13.6733    164.6778   9.9635628898e+01   3.8008809192e+01    0.2714871    0.2283362  38.23 0.0003970797    1.214    0.177
       221  -9.6402    213.2408    155.2323   4.4730443272e+01   1.1329138204e+01    0.1621539    0.1303027 -57.72  0.001039815    1.310    0.237
       222 -10.4031      7.0439    153.9692   1.0078932431e+02   4.1404157955e+01      0.21655    0.2032356 -71.98 0.0004443236    1.010    0.010
       223 -10.1152     22.3479    149.3236   9.4892417174e+01   4.1515310794e+01    0.1632471   0.09985092 -35.16 0.0007049459    1.745    0.427
       224 -11.0838      5.2477    145.3079   1.0052775159e+02   4.3879749585e+01    0.4439428    0.2527447  -0.70  0.001297828    1.999    0.500
       225  -9.2889    206.6869    145.3046   4.3959237195e+01   1.4028729065e+01    0.1206837   0.09240811 -71.12 0.0003916528    1.617    0.382
       226  -9.2574     32.2262    140.9954   9.0119466238e+01   4.2875109936e+01    0.1861668     0.120853 -66.12            0    1.508    0.337
       227  -9.7066     54.2211    140.0057   8.1914221717e+01   4.0588857114e+01    0.2037543    0.1944646 -19.96 0.0002917934    1.019    0.019
       228  -9.1273    235.3477    137.6948   3.8510953159e+01   1.1328175227e+01    0.1131097   0.08012642 -67.81 0.0004918578    1.698    0.411
       229  -9.5630     16.7020    137.5636   9.5409708862e+01   4.5191510498e+01    0.2023578    0.1296706  31.77 0.0009425934    1.606    0.377
       230 -10.4179     21.4750    135.9188   9.3382167672e+01   4.5251576801e+01    0.2532361    0.1904092  40.78 0.0003601662    1.413    0.292
       231  -9.6834     96.5508    134.7615   6.6604468788e+01   3.5316561970e+01    0.2199627    0.1532324 -67.05 0.0009551157    1.695    0.410
       232  -9.8359     70.5981    130.1623   7.4114431134e+01   4.0804440841e+01    0.2276608    0.1361732 -44.17 0.0009399762    1.700    0.412
       233  -9.8742     28.0090    129.7479   8.9924261040e+01   4.6331471610e+01    0.1982569    0.1840603   8.76            0    1.092    0.084
       234  -9.7571      2.4630    130.5511   9.9927866470e+01   4.8037581610e+01    0.1416826    0.1277417 -51.18 8.311398e-05    1.019    0.019
       235  -9.1310     92.4363    129.4479   6.6691225790e+01   3.7332148291e+01     0.152265     0.149731  31.18  1.94379e-06    1.037    0.035
       236  -9.8441      2.4629    125.6933   9.9353025120e+01   4.9338969760e+01    0.2641932    0.1348242 -81.25 0.0009936363    2.048    0.512
       237 -10.5985     25.6906    124.5637   8.9976400085e+01   4.7935882336e+01    0.2942635     0.147332 -74.60  0.001149737    2.245    0.554
       238 -10.4582     24.0328    120.6661   8.9982754730e+01   4.9121505426e+01    0.2036231    0.1840431 -10.70 0.0004601109    1.085    0.078
       239  -9.3235    208.5112    123.4816   3.9624237736e+01   1.7592965441e+01    0.1244528    0.1037424 -50.79 0.0001972694    1.007    0.007
