#   1 NUMBER                 Running object number                                     
#   2 MAG_AUTO               Kron-like elliptical aperture magnitude                    [mag]
#   3 X_IMAGE                Object position along x                                    [pixel]
#   4 Y_IMAGE                Object position along y                                    [pixel]
#   5 X_WORLD                Barycenter position along world x axis                     [deg]
#   6 Y_WORLD                Barycenter position along world y axis                     [deg]
#   7 A_WORLD                Profile RMS along major axis (world units)                 [deg]
#   8 B_WORLD                Profile RMS along minor axis (world units)                 [deg]
#   9 THETA_WORLD            Position angle (CCW/world-x)                               [deg]
#  10 FWHM_WORLD             FWHM assuming a gaussian core                              [deg]
#  11 ELONGATION             A_IMAGE/B_IMAGE                                           
#  12 ELLIPTICITY            1 - B_IMAGE/A_IMAGE                                       
         1  -9.8762    135.5590     60.9277   8.1048601089e+01   4.2060170624e+01    0.4420631    0.2104193 -53.00  0.001626606    3.292    0.696
         2 -11.0871    227.3855     33.3103   5.9933279154e+01   2.5128710413e+01    0.6593865    0.3544236 -56.22  0.003575697    1.798    0.444
         3 -10.1359    240.1766      2.3468   5.2929126852e+01   2.5976727219e+01    0.3269608     0.210088 -82.97  0.001293523    1.307    0.235
         4  -9.6096    231.9717      2.9550   5.3654287454e+01   2.7549265295e+01    0.3587269    0.1663227  86.25  0.001524842    2.083    0.520
         5 -11.4333    248.6724     32.0699   5.7671408419e+01   2.0975216132e+01    0.8219418    0.3443027 -44.76  0.004309587    2.070    0.517
         6 -10.5777    250.0292     18.8252   5.5134971245e+01   2.2276484757e+01    0.5363174    0.1775167 -35.58  0.002528177    3.055    0.673
         7 -10.7780    232.4501     11.7330   5.5253244245e+01   2.6545516425e+01    0.5457094    0.3728149  11.19  0.002380542    3.355    0.702
         8 -10.5704    238.0939      8.1509   5.4134868442e+01   2.5790061573e+01    0.4784217    0.2248679 -64.77   0.00242327    2.130    0.531
         9 -10.7939    244.1651     21.8044   5.6155093886e+01   2.3081924464e+01    0.4814163    0.3141794 -25.29  0.002717429    2.116    0.527
        10 -11.2633    239.1341     17.7707   5.5827668313e+01   2.4539879975e+01    0.5595859    0.4168286  80.27  0.003903297    1.214    0.176
        11 -10.3299    244.6251     13.8375   5.4660132435e+01   2.3887908819e+01    0.3667058    0.2096718  82.78   0.00197772    1.580    0.367
        12 -11.3198    249.2535      6.7594   5.3054146182e+01   2.3751966165e+01    0.7305683    0.2920768 -36.70  0.003968885    2.501    0.600
        13 -11.2664    224.6519     22.9464   5.8124595040e+01   2.6918561230e+01    0.7309537    0.4353251  66.86  0.004357251    1.555    0.357
        14 -11.0218    220.7036     15.3263   5.6979013706e+01   2.8584893489e+01    0.5797161    0.4109248  76.57  0.003822058    1.239    0.193
        15  -9.6297    197.9523     10.4287   5.8194035488e+01   3.3960511447e+01    0.2965536    0.1758792 -19.32  0.001644904    2.367    0.578
        16 -10.0225    199.8385     15.3837   5.9064369771e+01   3.3050994099e+01    0.2773724    0.2225194 -74.39 0.0009123734    1.154    0.134
        17  -9.1028    201.6718     11.6851   5.8079982319e+01   3.3026639382e+01    0.2024485    0.1556302  53.73  0.001197685    1.416    0.294
        18 -10.7296     67.5018     11.6003   8.2308539910e+01   6.1419516557e+01    0.3644638    0.2007942  -6.05  0.002027026    2.037    0.509
        19 -10.6230    212.9418      8.5600   5.6340035500e+01   3.0921774860e+01    0.4666343    0.3271673 -32.03   0.00302596    1.686    0.407
        20  -9.4247    192.9995     11.0479   5.8853070938e+01   3.4984493354e+01    0.1863425    0.1532389  81.35 0.0005172825    1.024    0.023
        21  -9.4971    186.9302      9.7629   5.9233557335e+01   3.6446393798e+01    0.3486993    0.1914884 -70.50  0.001797141    2.175    0.540
        22  -9.1582     84.5131     10.4731   7.7134702962e+01   5.8441264946e+01    0.2113272    0.1135826 -19.59 0.0008504349    2.041    0.510
        23  -9.7583    206.4910      7.0708   5.6639149899e+01   3.2443023883e+01    0.2521357    0.1475723 -39.69   0.00115921    1.786    0.440
        24  -9.3073    102.9085      7.6031   7.1792323489e+01   5.5047960380e+01    0.2188876    0.1509282 -43.67   0.00132016    1.910    0.476
        25  -9.9904    223.0240      6.3070   5.5008014612e+01   2.9038152035e+01    0.4478264    0.1892449  68.56  0.001495629    2.039    0.510
        26  -8.8264    220.5149      2.9951   5.4579574710e+01   2.9885749102e+01    0.1542716    0.1047519 -41.55  0.000518585    1.555    0.357
        27  -9.4091    116.4825      6.5458   6.8699406690e+01   5.2300947872e+01    0.1214923    0.1007912  51.00 0.0001169967    1.033    0.032
        28  -9.2613    111.0144      5.6970   6.9498610664e+01   5.3519274615e+01    0.1719161    0.1353238  49.49 0.0005661668    1.044    0.042
        29 -10.2226    155.4175      9.6178   6.3163186535e+01   4.3500486715e+01    0.3155392    0.1815221 -24.40  0.001564226    2.085    0.520
        30 -10.3517     64.0158      2.3028   7.9754759562e+01   6.2807123150e+01    0.2475675      0.18684  26.79 0.0008517902    1.013    0.013
        31  -8.5555    194.4982      1.9823   5.6731564463e+01   3.5507527731e+01    0.1665632   0.07353553 -54.96 0.0007058574    2.518    0.603
        32  -8.9801    190.0747      2.2000   5.7222564727e+01   3.6450983385e+01    0.1770814     0.138113  62.14 0.0006420804    1.234    0.190
        33  -8.7940    183.1993      2.1926   5.7940731142e+01   3.7958779321e+01    0.1744248    0.0720203 -40.77 0.0008666402    2.515    0.602
        34  -8.9708    160.0129    218.5086   1.1239665148e+02   5.7175626150e+00    0.2171582    0.1287522  35.88 0.0008896474    1.584    0.369
        35  -9.2761    209.9341    250.0590   1.0765353958e+02  -7.7198394384e+00     0.304573    0.1447537  24.10  0.001372023    2.233    0.552
        36  -9.5128    156.0000    216.5153   1.1291445216e+02   6.8017062522e+00    0.3930456   0.07980607 -48.34   0.00108476    5.242    0.809
        37  -9.0670    109.1489    216.4333   1.2318668668e+02   1.4782832896e+01    0.2173103    0.1626374 -67.80   0.00105364    1.435    0.303
        38 -10.9940    213.7360    214.4809   1.0060011282e+02  -2.6707935708e+00    0.3883999    0.2580733 -52.50  0.001979469    1.981    0.495
        39 -11.0508    214.3973    209.8194   9.9588423426e+01  -1.9859093224e+00    0.3919217    0.2694813 -42.88  0.002108444    1.540    0.351
        40  -9.2253     63.1409    216.1504   1.3312927644e+02   2.1655354298e+01    0.1870775    0.1364306  70.08  0.001087385    1.336    0.252
        41  -9.9739    237.5900    231.2148   9.9179980992e+01  -8.9324418870e+00    0.4137253     0.334267  69.36   0.00233626    2.536    0.606
        42  -8.5338     86.3076    208.6606   1.2712882540e+02   2.0028606387e+01    0.1415003   0.09715646  72.94   0.00070428    1.683    0.406
        43 -10.0729    235.5587    203.8795   9.4452110638e+01  -4.3532052000e+00    0.2819381    0.2107292 -34.34 0.0009874143    1.277    0.217
        44 -10.5734    230.3230    196.9056   9.4057624460e+01  -2.3629455167e+00    0.7537205    0.2827229 -29.98  0.002706552    3.282    0.695
        45 -10.9368    242.3500    201.2768   9.2724220854e+01  -4.9658253341e+00     0.413834    0.3875623 -61.76  0.002681468    1.524    0.344
        46  -9.0090    132.3480    213.9025   1.1765361733e+02   1.1434728685e+01    0.1899265    0.1786831 -46.99 0.0006626542    1.125    0.111
        47  -9.6179    186.5013    212.9780   1.0580009181e+02   2.1517699479e+00     0.310302    0.2272858 -46.43   0.00131858    1.494    0.331
        48 -10.2259    249.9330    200.2399   9.1190321789e+01  -5.9298207509e+00    0.5471711    0.1882474 -36.06  0.002242591    2.625    0.619
        49 -10.8179    247.2978    193.3918   9.0322562299e+01  -4.4293195017e+00     0.504011    0.4031588 -66.36  0.002860032    2.006    0.502
        50  -9.7040    218.4983    201.9330   9.7273702263e+01  -1.3004107036e+00    0.2038179    0.1247181 -37.29 0.0006724863    1.558    0.358
        51  -8.9023    193.3758    202.2519   1.0234229169e+02   2.9301819842e+00    0.1880949    0.1302669 -49.52 0.0007257329    1.625    0.384
        52  -8.9372    160.4236    202.0010   1.0932878831e+02   8.8922007906e+00    0.2131186     0.139767 -46.00 0.0005983836    1.580    0.367
        53  -8.9547    222.6360    201.2990   9.6359123311e+01  -1.8693445702e+00    0.1238274     0.110582  85.63 0.0006570513    1.723    0.420
        54  -8.6059     16.4387    201.4912   1.4130494077e+02   3.0215423623e+01    0.1188506   0.09551574 -87.02  0.000198531    1.022    0.022
        55  -8.4238    164.3471    200.2839   1.0814310310e+02   8.5247170621e+00      0.14755    0.1098275   2.33 0.0002985583    1.648    0.393
        56 -11.3688    237.7324    189.9241   9.1330071670e+01  -2.3638225769e+00    0.7649218    0.3025894 -41.78  0.003202595    2.370    0.578
        57  -9.4386    235.9669    180.7110   8.9803978043e+01  -4.9730102418e-01    0.3412758    0.1785774 -39.02  0.001614656    1.730    0.422
        58  -8.9791    224.2812    191.8159   9.4177687205e+01  -4.9615147995e-01    0.2094886    0.1651483 -46.46  0.000772937    1.410    0.291
        59  -8.7311    214.8915    191.8233   9.5973094653e+01   1.0910996565e+00    0.1736259     0.170196  77.34 0.0005012515    1.316    0.240
        60  -8.9308    110.3013    190.3683   1.1872161382e+02   2.0304141751e+01    0.2286783    0.1757113 -15.63  0.001120263    1.745    0.427
        61  -8.2379    194.3139    188.3158   9.9384556562e+01   5.3903737694e+00    0.1481915    0.1075568  -2.91 0.0007035245    1.643    0.391
        62 -10.6128    249.6466    184.1420   8.8103247821e+01  -3.2631390427e+00    0.5461745    0.2367092 -36.57  0.002463934    2.032    0.508
        63  -8.5399    141.5002    187.5026   1.1085436170e+02   1.5399201647e+01    0.1452905    0.1420705  47.80  0.000810269    1.046    0.044
        64  -9.6438    230.4545    185.5139   9.1768932284e+01  -4.2113786585e-01    0.2775471    0.1217762 -39.26  0.001184874    2.092    0.522
        65  -9.7542    224.6154    184.4574   9.2636195657e+01   7.4590321039e-01    0.3653271    0.2323132 -48.43  0.001156303    1.725    0.420
        66  -9.1921    230.4963    180.4592   9.0739781578e+01   4.5834920594e-01    0.1966118    0.1707603 -10.01 0.0001106203    1.051    0.049
        67 -10.4053    226.4097    179.2580   9.1244873015e+01   1.3658365543e+00     0.396023    0.3017373  -8.14  0.001561531    1.372    0.271
        68  -9.4644    219.1755    185.1254   9.3798309729e+01   1.5585787091e+00     0.427942    0.2795233 -74.74  0.001535715    4.301    0.768
        69 -10.9295    242.1637    180.1716   8.8602422543e+01  -1.4144475353e+00    0.6072072    0.2864974 -42.56  0.002430657    1.979    0.495
        70  -9.3095    245.6540    178.3265   8.7629706297e+01  -1.6600327014e+00    0.2000949    0.1741549 -41.33 0.0009576402    1.242    0.195
        71  -8.8907    106.6358    184.3232   1.1853809478e+02   2.2296618153e+01    0.1535363    0.1098221  72.60 0.0007039922    1.788    0.441
        72  -8.8272    210.6486    182.3412   9.4876863485e+01   3.5652374054e+00    0.2095755    0.1773481 -79.04  0.001113765    1.713    0.416
        73  -9.9397    157.4379    179.1875   1.0552994128e+02   1.4184093340e+01    0.3609268    0.2511798 -23.64  0.001073798    1.727    0.421
        74  -8.5000     64.5069    179.4812   1.2796556450e+02   2.9800072863e+01    0.1354051    0.1227171 -80.65 2.540814e-06    1.006    0.006
        75  -8.9626    219.2445    178.5681   9.2444083542e+01   2.7349483351e+00    0.2455133    0.1353704  45.57  0.001115942    2.016    0.504
        76 -10.3587    233.4108    174.3069   8.8959630288e+01   1.0511222072e+00    0.4258814    0.2273072 -41.64  0.002003661    1.731    0.422
        77  -9.3473    250.4604    173.2146   8.5794510002e+01  -1.5594937481e+00    0.2677083    0.1125409 -34.84  0.001147493    2.158    0.537
        78 -10.4571    225.3533    172.3963   9.0027574902e+01   2.7824380822e+00    0.4112783    0.3191034 -36.06  0.002124721    1.187    0.158
        79 -10.5648    212.0784    169.9394   9.2015467438e+01   5.6224331294e+00    0.3500433    0.1952442 -33.02  0.001382422    1.772    0.436
        80  -8.7747    169.8483    169.1368   1.0062301417e+02   1.3892705183e+01    0.2107151    0.1737729 -15.85 0.0008725622    1.305    0.234
        81  -9.9111    147.2646    167.9661   1.0555079412e+02   1.8574617904e+01    0.2672555    0.2423435  58.85  0.000488441    1.191    0.160
        82 -10.3317    247.6945    166.9802   8.5001011520e+01  -5.2712212669e-02    0.4016154    0.1971076  41.35  0.001882366    2.293    0.564
        83  -9.5697    192.8098    165.9340   9.5006341546e+01   1.0044507051e+01    0.3438941    0.1914825 -48.30  0.001451923    1.864    0.464
        84  -9.6616    234.2831    164.4113   8.6766576384e+01   2.6572579356e+00    0.3069058    0.2156786 -55.53  0.001154497    1.704    0.413
        85  -9.9020    237.2892    169.6817   8.7326881362e+01   1.2090545594e+00     0.265691    0.1951739 -31.59 0.0009591726    1.207    0.172
        86  -9.8713    240.6050    163.3148   8.5447490081e+01   1.7648612117e+00    0.2641552    0.2102209 -19.59 0.0008741955    1.194    0.162
        87  -9.1070    246.2963    162.6510   8.4354408491e+01   9.2339885597e-01    0.1937499    0.1128548 -32.44 0.0006158772    1.558    0.358
        88 -10.2823    245.8583    158.3011   8.3538187183e+01   1.7505514427e+00    0.3693969    0.2939146  13.98  0.001462509    1.424    0.298
        89  -9.0939    250.5178    158.4911   8.2816987106e+01   9.3991049210e-01    0.2594989    0.1452379 -37.05 0.0009330779    1.547    0.353
        90  -9.1914     46.8474    161.8893   1.2969009000e+02   3.6143050313e+01    0.2019035    0.1638593 -48.72 0.0004891407    1.220    0.181
        91  -9.5314    229.6712    147.8682   8.4090717603e+01   6.4611245382e+00    0.2933983    0.1703251 -43.85 0.0009667258    1.590    0.371
        92  -9.6688    226.6298    156.8559   8.6536857348e+01   5.3819860997e+00    0.4078909    0.2464676 -19.57  0.001639226    2.109    0.526
        93 -10.6974    232.0751    152.5427   8.4666852239e+01   5.1771261019e+00    0.4941783    0.3188172  40.23  0.002511034    1.712    0.416
        94 -10.1486    234.7325    147.5797   8.3164308895e+01   5.5885321074e+00     0.351368    0.1809394 -45.83  0.001323474    1.838    0.456
        95  -8.2536     41.4742    157.5212   1.3039906081e+02   3.7773649616e+01    0.1323899    0.1141386 -63.84  4.68774e-05    1.033    0.032
        96 -11.4948    241.8793    133.7113   7.9076038463e+01   6.7470361321e+00    0.6421434    0.4421285 -42.53  0.002915386    1.283    0.221
        97 -11.8010    243.7547    149.3533   8.2039322708e+01   3.6721000377e+00    0.9299868    0.4074978 -33.25  0.002979846    2.266    0.559
        98 -10.2644    249.7998    151.0071   8.1407285635e+01   2.3475470736e+00    0.5795211    0.2403865 -45.68  0.002061823    2.273    0.560
        99  -9.4419    250.2110    140.1586   7.9119291951e+01   4.1474594065e+00    0.2317526    0.1981705 -18.60 0.0009100279    1.183    0.154
       100 -11.3597    249.0619    133.2599   7.7874187899e+01   5.5360397903e+00    0.7468811    0.2628435 -43.80  0.002947456    2.500    0.600
       101  -9.2442    221.6162    153.0782   8.6632806873e+01   7.0015631326e+00    0.2854384    0.2004284 -50.44 0.0009773573    1.479    0.324
       102  -8.9735    118.5997    153.7717   1.0954819401e+02   2.7236726438e+01    0.2168325    0.1432794 -61.16 0.0004099994    1.685    0.406
       103  -8.3071    182.3114    150.2948   9.3745247978e+01   1.5283453070e+01    0.1514215     0.117205  -0.01 0.0003096564    1.594    0.373
       104  -8.0886     35.6821    150.3437   1.3081030925e+02   4.0071774494e+01      0.13356    0.0930922  76.34 0.0007049041    1.719    0.418
       105  -8.4877    174.5120    148.5105   9.5018435635e+01   1.7250814471e+01    0.1518533    0.1447474 -15.34 0.0008104002    1.019    0.019
       106  -9.2732    111.8781    147.3323   1.0987981385e+02   2.9947578012e+01     0.262036    0.2082975 -61.78 0.0009960701    1.326    0.246
       107 -10.1148    224.0597    146.0988   8.4692387010e+01   7.8305052518e+00    0.3451405    0.2679792 -23.58  0.001448814    1.295    0.228
       108  -8.7819     17.0192    146.9801   1.3515611434e+02   4.2559479860e+01    0.1552735    0.1247708 -67.58 0.0006969143    1.018    0.018
       109 -10.3869    230.4682    141.0141   8.2489204548e+01   7.5539657937e+00    0.3794949    0.2392688 -40.67  0.001132255    1.426    0.299
       110  -9.3900      8.9452    141.3756   1.3648291383e+02   4.4470270051e+01    0.2160729     0.145232 -80.11  0.001154504    1.367    0.268
       111 -10.5666    225.2416    138.7676   8.2899298484e+01   8.9493619703e+00     0.526942    0.2166616 -36.88  0.002054058    2.321    0.569
       112  -8.8897    154.3149    141.3118   9.7917996975e+01   2.2954279298e+01    0.1569167    0.1213985  -2.28 0.0003045611    1.637    0.389
       113  -9.8206    218.9044    138.7690   8.4010996669e+01   1.0172294789e+01    0.2982793    0.2242947  86.70  0.001146728    1.982    0.495
       114  -9.3743    209.9557    137.9993   8.5465651266e+01   1.2084279708e+01    0.2283435    0.2110849 -41.56 0.0009748576    1.045    0.043
       115 -11.1957    233.4243    134.2565   8.0549183033e+01   8.2136270729e+00    0.5228214    0.3747524 -37.03  0.002808892    1.259    0.205
       116  -9.3706     53.1586    135.9574   1.2360400186e+02   4.1536033188e+01    0.2136559    0.2001045   5.88 0.0006575772    1.192    0.161
       117  -9.3311    169.8898    134.6581   9.2801690103e+01   2.1073926097e+01    0.2443052    0.2070245 -21.10 0.0006629134    1.243    0.195
       118  -9.5781     86.6166    129.7864   1.1281628704e+02   3.8307533165e+01    0.3516199    0.2276781 -83.51  0.001388679    2.756    0.637
       119  -9.4211     62.1885    129.8137   1.1981045237e+02   4.1842325758e+01    0.1955252     0.147316 -35.85 0.0003871409    1.312    0.238
       120  -9.4945    193.2608    128.0002   8.6364151366e+01   1.7434212827e+01    0.2149632    0.1933242 -43.75 0.0006772689    1.072    0.067
       121  -8.0081    102.3127    129.3109   1.0832761894e+02   3.5774776325e+01    0.1525911    0.1148025 -13.96 0.0002139433    1.630    0.387
       122 -10.1527    206.5433    126.7775   8.3561468533e+01   1.4890781772e+01    0.2781929    0.2338637  46.29  0.001148374    1.265    0.209
       123  -8.6794    113.8755    126.8310   1.0458988961e+02   3.4214783985e+01    0.1983699     0.181456  86.89 0.0004964895    1.275    0.215
       124 -10.8847    241.1900    124.4193   7.7228241253e+01   8.4923832302e+00    0.4189559    0.3311785 -80.47  0.002344631    1.596    0.373
       125 -11.3395    230.1001    116.1990   7.7190588266e+01   1.2047190756e+01    0.5120212    0.4063569 -88.32  0.002811833    1.555    0.357
       126 -10.5396    235.4096    115.0537   7.6121335211e+01   1.1210219614e+01    0.5570201    0.2123861 -48.98  0.002111987    2.705    0.630
       127 -10.2614    229.1095    125.3910   7.9344918388e+01   1.0618306692e+01    0.2901872    0.2599925  -0.22  0.001706061    1.260    0.206
       128  -9.6765    212.7511    124.1370   8.1845189617e+01   1.4105861923e+01    0.4056428    0.2797164 -24.25  0.001545745    1.646    0.393
       129  -9.2325    161.3665    124.3948   9.2218058569e+01   2.4995730468e+01    0.2485401    0.2341958  89.62 0.0005449925    1.167    0.143
       130  -9.2778    189.1912    123.1439   8.6024349819e+01   1.9235959377e+01    0.3678188    0.2055253 -37.45  0.001562126    1.765    0.433
       131  -9.0250    221.3399    129.5432   8.1554471135e+01   1.1390642263e+01    0.2421602    0.2039947  85.89 0.0009024373    1.458    0.314
       132  -9.6779    221.8078    120.7314   7.9528790552e+01   1.2891409942e+01    0.2702229    0.2323295 -22.26  0.001117538    1.221    0.181
       133  -9.0196    244.3989    119.7008   7.5755004382e+01   8.7083332981e+00    0.2942342    0.1965109 -73.52  0.001428808    2.163    0.538
       134  -9.0063    124.8004    119.8233   9.9955610158e+01   3.3611443752e+01    0.2212454    0.1998542 -12.73 0.0003654452    1.131    0.116
       135  -8.2032    114.7056    120.6699   1.0284042975e+02   3.5404291471e+01    0.1545784    0.1166832 -10.81 0.0003956221    1.633    0.387
       136 -11.1212    241.7994     65.2045   6.4818381640e+01   1.7909415467e+01    0.9096554    0.6469954 -15.77  0.004967279    2.139    0.532
       137 -11.4340    236.6266     99.6664   7.2657151089e+01   1.3576774159e+01    0.5695311    0.4413278 -41.15  0.003304972    1.186    0.157
       138 -10.3746    249.7942     67.5619   6.4383236373e+01   1.5993442964e+01    0.6917732    0.2288418 -36.61  0.002431159    2.961    0.662
       139  -9.9141    226.2225     86.1609   7.1228134538e+01   1.7887657698e+01     0.381847    0.2708995 -30.30  0.001582118    1.532    0.347
       140  -9.4832    227.5989     73.7799   6.8361213272e+01   1.9536108720e+01    0.5546046    0.3552679  39.01  0.002385324    2.139    0.533
       141 -11.5639    241.6428    104.7869   7.3027741983e+01   1.1748791358e+01     1.292914     0.286984 -45.80  0.003932127    4.303    0.768
       142 -10.0327    237.4930     83.9061   6.9207691171e+01   1.5948859713e+01     0.432969    0.2513757 -60.43  0.002068694    1.883    0.469
       143 -10.0220    231.7626     83.4113   6.9867022541e+01   1.7185331676e+01    0.4976067    0.2699658 -56.93  0.002339384    1.980    0.495
       144 -10.3379    245.0386     97.7620   7.1093856297e+01   1.2252839362e+01    0.4553105    0.2427638 -45.71  0.001591803    1.650    0.394
       145 -11.5122    239.9194     90.9303   7.0358351795e+01   1.4351888306e+01      1.13437    0.6374573  86.79  0.004726603    3.148    0.682
       146 -11.8986    245.4631     81.4932   6.7692272362e+01   1.4749094977e+01      1.30275    0.6075217 -52.55  0.006030267    2.106    0.525
       147 -10.6820    235.5415     73.2997   6.7237107238e+01   1.7974755616e+01    0.8615915    0.2555134 -42.70  0.003317451    2.920    0.657
       148 -11.4656    247.9251    112.6383   7.3776237487e+01   9.2500326977e+00    0.7056465    0.3659635 -41.93  0.003230175    1.671    0.402
       149 -11.3344    248.5919    105.8195   7.2276125322e+01   1.0259902838e+01    0.8346324     0.302256 -42.45  0.003441515    2.366    0.577
       150 -10.7303    217.3237    115.3204   7.9073880437e+01   1.4769246504e+01     0.487821     0.196049  53.28  0.001880724    2.729    0.634
       151 -10.3868    213.8580    115.1812   7.9629570518e+01   1.5507830254e+01    0.4048518    0.2286567  36.34  0.001208343    2.277    0.561
       152  -8.5759    203.6315    115.7407   8.1554683204e+01   1.7547829122e+01    0.2072125    0.1270425 -47.67 0.0006635617    1.594    0.372
       153  -8.8224     52.1481    113.4285   1.1927917868e+02   4.6822004511e+01    0.2227263    0.1469863 -58.36 0.0006155487    1.441    0.306
       154 -10.0034    104.4970    111.8847   1.0339685526e+02   3.9201451910e+01    0.2654637    0.2103737  24.58 0.0004504653    1.324    0.245
       155  -9.9939     14.5932    111.8207   1.3040342797e+02   5.0745674078e+01    0.2521996      0.18412  41.51  0.001095542    1.708    0.414
       156  -9.3885    235.9339    107.8677   7.4505707610e+01   1.2337771983e+01    0.2270271    0.1888313  70.40 0.0007859101    1.339    0.253
       157  -9.8410    215.0400    107.8406   7.7770110870e+01   1.6568205310e+01    0.2372011    0.1651331 -85.23  0.001100906    2.052    0.513
       158  -8.6497     73.7602    108.5986   1.1153662305e+02   4.5012495133e+01    0.1829517    0.1319849  42.76  0.000530854    1.563    0.360
       159  -8.6688    196.1693    103.3836   8.0002071148e+01   2.1395164038e+01    0.1973126    0.1372958  66.79  0.000619352    1.644    0.392
       160 -10.6832    221.3864    100.4585   7.5095754566e+01   1.6526125171e+01    0.2676239    0.2038433 -47.46  0.001466249    1.213    0.175
       161  -9.0918    210.6727    101.1660   7.6973967431e+01   1.8654392790e+01    0.1972939    0.1761364  77.71  0.001129564    1.175    0.149
       162  -9.7065    130.3887     97.7877   9.2710429613e+01   3.6928782176e+01    0.2648476    0.2400435  -3.11 0.0006115807    1.126    0.112
       163 -10.7087    224.6866     94.4716   7.3270287012e+01   1.6849415603e+01    0.4386434    0.1908049 -33.31  0.001761341    2.504    0.601
       164 -10.3352    230.8501     94.2603   7.2324163368e+01   1.5623771507e+01    0.3515672    0.3431811 -37.59  0.001199055    1.146    0.127
       165 -10.4546    218.2389     90.0381   7.3254192530e+01   1.8928846940e+01    0.3686393     0.226078 -55.27  0.001791749    1.685    0.407
       166  -8.4685    176.3162     87.6511   7.9839674533e+01   2.8580276794e+01    0.1510928    0.1112209 -73.90 0.0007047624    1.728    0.421
       167  -8.6741    135.1680     83.4306   8.7559608568e+01   3.8532858140e+01    0.1950392    0.1387547  60.94  0.000501744    1.590    0.371
       168  -8.6194     88.1729     82.2080   9.9945209429e+01   4.8034104330e+01     0.173972    0.1671567 -71.67 0.0004438834    1.311    0.237
       169  -8.7232     20.8756     81.8540   1.2218630828e+02   5.6645345810e+01    0.1539304    0.1371109 -60.28 0.0004684303    1.304    0.233
       170  -8.4800    196.3439     79.6659   7.4311642577e+01   2.5384973650e+01    0.1483323    0.1036075 -73.66 0.0007050177    1.762    0.433
       171  -8.3241    194.7075     76.6554   7.3860389293e+01   2.6230367233e+01     0.204058    0.1229148 -46.41 0.0006397666    1.644    0.392
       172  -8.9632    175.5522     77.2964   7.7356404108e+01   3.0470518189e+01    0.2626333    0.1316971 -41.96  0.001005857    2.004    0.501
       173  -9.6934    214.0699     75.6524   7.0643481429e+01   2.2119485655e+01    0.3622503    0.1861998  58.17  0.001684106    1.966    0.491
       174  -8.4082    126.4294     76.4938   8.7716092595e+01   4.1598750131e+01    0.1419684    0.1345264  16.29 0.0001771641    1.011    0.011
       175  -8.3847    134.2223     73.7327   8.5039262191e+01   4.0373661488e+01    0.2165913    0.1164623 -24.07 0.0008689551    2.372    0.578
       176  -9.0239     45.6825     74.6794   1.1161306581e+02   5.5618163149e+01    0.1359702   0.08541089 -19.49 0.0007042077    1.662    0.398
       177  -8.6655    116.4811     72.0006   8.8923718402e+01   4.4428464511e+01    0.1908815    0.1208195 -59.64 0.0007926936    2.433    0.589
       178  -9.4123    227.3079     61.2917   6.5735259667e+01   2.1439311608e+01    0.3532165    0.1666337 -48.08 0.0009188374    1.983    0.496
       179 -10.5381    226.1345     66.9145   6.7079865314e+01   2.0869396839e+01    0.5172211    0.3914449 -82.85  0.002340501    1.354    0.261
       180  -9.0137    221.3698     61.1802   6.6455940684e+01   2.2709607175e+01    0.3525234    0.1553624 -50.65  0.001554381    2.282    0.562
       181  -8.5142     43.3013     66.3295   1.1000401030e+02   5.7434779750e+01    0.1333041   0.08278133 -18.61 0.0004194405    1.646    0.392
       182  -8.4317    214.6588     63.2797   6.7796414577e+01   2.3848585520e+01      0.13583   0.09304649 -74.94 0.0003468553    1.626    0.385
       183  -9.3484    233.4132    247.4291   1.0279988349e+02  -1.0687099909e+01    0.2325624    0.1965218  73.39   0.00138818    2.477    0.596
       184  -9.6868    206.8498     60.0643   6.8144007511e+01   2.6018412698e+01    0.3198893    0.1602982 -46.77  0.001427348    1.953    0.488
       185  -9.1469     48.3224     61.3080   1.0665812501e+02   5.7713677997e+01    0.1325218    0.0847582 -11.99 0.0007035006    1.645    0.392
       186  -9.3808    235.0232     60.0114   6.4544075557e+01   2.0023866874e+01    0.2481261    0.1747944  83.10 0.0009943404    1.450    0.310
       187  -9.2827    171.8425     59.3143   7.3421699558e+01   3.4049176552e+01    0.3619573    0.1922722  52.43   0.00145653    1.770    0.435
       188  -9.6830    213.7920     57.2831   6.6583980638e+01   2.4892220099e+01    0.3011428     0.221682  47.42   0.00127476    1.551    0.355
       189  -8.2810    126.5118     58.4744   8.2403376017e+01   4.4395905827e+01    0.1360288    0.1289786  45.37 0.0008086504    1.083    0.077
       190 -10.0394    238.3377     38.1575   5.9798362347e+01   2.2275379785e+01    0.3072158    0.2396447  83.21  0.001746502    1.184    0.155
       191  -9.8102    242.3200     34.3778   5.8684481028e+01   2.1946669825e+01    0.3151078      0.17728 -54.66  0.001372682    1.594    0.373
       192 -10.6602    237.3601     53.8809   6.3028917689e+01   2.0402342221e+01    0.5664852    0.2579747  75.57  0.002564261    2.645    0.622
       193 -10.8500    228.6248     52.0783   6.3645105634e+01   2.2449607128e+01     0.498498    0.3986775 -79.92  0.002871996    1.147    0.129
       194 -10.4539    249.9115     46.2982   6.0238268823e+01   1.8921932268e+01    0.6033612     0.185374 -41.28  0.002644659    2.757    0.637
       195 -10.9269    244.2474     42.0904   5.9982817152e+01   2.0587229702e+01    0.4248862    0.2874349 -45.14  0.001685634    1.382    0.277
       196 -10.5763    199.5329     53.7765   6.7724776790e+01   2.8523318841e+01    0.4070964    0.3351657 -88.55  0.002448062    1.175    0.149
       197  -9.5305    250.3519     54.6019   6.1789027529e+01   1.7717771655e+01    0.2645756    0.1417658 -44.33  0.001452011    1.645    0.392
       198  -8.6796    207.5630     53.9221   6.6657992890e+01   2.6721245743e+01    0.1846324    0.1224835 -39.66 0.0005141262    1.518    0.341
       199 -10.7647    244.4108     51.3249   6.1764122167e+01   1.9333203487e+01    0.4539628    0.2905539 -80.44  0.001753806    1.645    0.392
       200  -8.9505    163.4696     53.0443   7.3265800049e+01   3.6844882866e+01    0.2015819    0.1340699 -34.97  0.001034887    1.604    0.377
       201  -9.2626    215.3617     46.6885   6.4069535727e+01   2.5991469764e+01    0.3540949    0.1459914 -57.07  0.001407844    3.094    0.677
       202  -9.6598    219.3854     42.7319   6.2748033255e+01   2.5640688342e+01     0.221774    0.1844615 -49.14 0.0007313942    1.210    0.174
       203  -9.5877    216.3278     41.2937   6.2795356570e+01   2.6480614066e+01    0.3158335    0.2169283  36.99  0.001730298    2.072    0.517
       204  -9.6923    233.0922     44.3643   6.1569579161e+01   2.2550630427e+01    0.3318301     0.324772  11.72  0.002365366    1.375    0.273
       205 -10.5461    190.0265     42.3044   6.6371062733e+01   3.2170279815e+01     0.398739    0.2848815 -10.89  0.002149798    1.985    0.496
       206  -9.4533     43.8170     62.5918   1.0867719029e+02   5.8037940757e+01    0.1591635    0.1126508  34.29 0.0005164678    1.627    0.385
       207  -9.2016    209.1302     39.6122   6.3282403389e+01   2.8254773811e+01    0.2119364    0.1539756 -55.50 0.0006643914    1.329    0.247
       208 -10.6490    201.6452     27.3479   6.1474034629e+01   3.1361509172e+01    0.3429111    0.2165142 -17.94  0.001447221    2.266    0.559
       209 -11.3622    201.1307     38.4148   6.4001224807e+01   3.0166033573e+01    0.5436347    0.3008911 -20.16  0.002561945    2.673    0.626
       210  -8.7517    173.6192     39.8403   6.8174333698e+01   3.6211132012e+01    0.1803459    0.1141896 -46.33 0.0009424162    1.682    0.405
       211  -9.0539    165.5087     40.0391   6.9511094023e+01   3.8045099994e+01    0.1872442    0.1295772 -35.11  0.000722167    1.570    0.363
       212  -9.4139    249.1340    246.4324   9.9789927927e+01  -1.2643680278e+01    0.2147148    0.1505824 -28.00 0.0007470332    1.372    0.271
       213 -10.7322    235.1483     31.7430   5.8854145485e+01   2.3717437535e+01    0.6152079    0.3396452  51.95  0.003372573    2.159    0.537
       214  -8.7898    175.6826    247.3354   1.1393442578e+02  -2.0221175072e+00    0.1229616    0.1000144  65.16 0.0007048376    1.697    0.411
       215 -10.2089    191.6947    245.1766   1.1039305956e+02  -4.2030500414e+00    0.3383143     0.206093  23.03  0.001789599    1.599    0.374
       216 -10.0393    246.8565    240.3940   9.9140887255e+01  -1.1519520768e+01    0.2775463    0.1848297 -24.07 0.0009086665    1.340    0.254
       217 -10.3144    240.0131    240.3161   1.0035838314e+02  -1.0588588342e+01    0.3094172    0.2479395   1.80  0.001057842    1.032    0.031
       218  -9.4899    243.6195    236.8162   9.9088447174e+01  -1.0581740396e+01    0.2689675     0.168536 -44.06 0.0009194844    1.968    0.492
       219  -9.2543    202.3587    242.1331   1.0778496024e+02  -5.3776123619e+00    0.2533294    0.1690352  36.12  0.001437953    1.413    0.293
       220  -9.5706    214.9562    240.0641   1.0499057045e+02  -6.9684462954e+00     0.283161    0.1699805 -26.96  0.001229325    1.685    0.407
       221 -10.1716    225.2058    242.4175   1.0345699470e+02  -8.8193123388e+00    0.3779204    0.2660461 -25.15  0.001835731    1.354    0.261
       222 -10.0172    230.8627    236.7280   1.0140417664e+02  -8.7926123081e+00    0.2907409    0.1924621 -33.98  0.001124275    1.506    0.336
       223  -8.6476    148.6672    238.6749   1.1809839443e+02   3.8716764284e+00    0.1344949    0.1000965   1.26  0.000705099    1.710    0.415
       224 -10.7266    185.6890     37.0665   6.5730146294e+01   3.3796022823e+01    0.4177904    0.2306238 -38.05  0.002141762    1.887    0.470
       225  -8.7968     61.4757     38.0068   9.4115277494e+01   5.9443769387e+01    0.1798986    0.1116276 -29.77  0.001025998    1.577    0.366
       226  -9.2175    238.4526     45.0672   6.1147780680e+01   2.1363324079e+01    0.2192413    0.1850343 -88.77  0.001003336    1.094    0.086
       227  -8.5638     76.7918     43.8118   9.1180453630e+01   5.6174633327e+01    0.1565116    0.1504969 -15.58 0.0007437784    1.326    0.246
       228  -8.6502     96.5650     34.5071   8.2301014915e+01   5.3705714078e+01    0.1289356    0.1098537  24.71 0.0001495918    1.009    0.009
       229  -8.7135     67.3548     34.6682   9.0956519135e+01   5.8945342516e+01    0.1099698    0.1020423 -88.29 0.0007044877    1.786    0.440
       230  -9.4532    221.6925     31.2879   6.0108726813e+01   2.6568976890e+01    0.2698407    0.1905107 -55.08  0.001682805    1.322    0.243
       231  -8.8316    208.8125     31.5830   6.1574293184e+01   2.9300649667e+01    0.1814748    0.1105985  69.54 0.0004243957    1.496    0.331
       232  -9.7756    212.7561     30.7954   6.0963939923e+01   2.8538165260e+01    0.3364946    0.1973174 -55.60  0.001862255    1.685    0.407
       233  -9.5083    216.2865     30.3600   6.0488248516e+01   2.7830205888e+01    0.2728265    0.2350371   9.94  0.001780289    1.697    0.411
       234  -9.8241    219.6934    236.2791   1.0342386605e+02  -7.0976524356e+00    0.2971052    0.1989366  46.29  0.001644555    1.866    0.464
       235  -9.0543    197.4666     28.5065   6.2224755965e+01   3.2153665916e+01    0.1245929    0.1076161  87.84 0.0002867762    1.004    0.004
       236  -8.3063    174.3261     27.6735   6.5042903531e+01   3.7453488833e+01    0.1319445   0.08970008 -73.29 0.0007049741    1.697    0.411
       237  -9.5384    142.5506     24.8202   6.9295950389e+01   4.4959557210e+01    0.3127881    0.2066194  83.41  0.001651489    1.829    0.453
       238  -8.6451    118.5390     25.5354   7.4159001395e+01   5.0162713066e+01    0.1271824    0.1104191  44.31 0.0001044771    1.028    0.027
       239 -10.5110    205.6476    235.4006   1.0598102664e+02  -4.8247072832e+00    0.3787981    0.3415594 -24.82  0.001729779    1.248    0.199
       240  -8.5866    209.6107     21.1537   5.9263127798e+01   3.0314719763e+01    0.1464373    0.1172829 -15.85 0.0005707096    1.711    0.416
       241  -9.3324    199.4424     20.5627   6.0234420355e+01   3.2594431317e+01    0.2034756    0.1742202  16.23  0.000873399    1.626    0.385
       242 -10.3084    248.5003    227.2897   9.6504320473e+01  -9.8706300152e+00    0.3850625    0.2120412 -35.56  0.001361858    1.702    0.412
       243 -11.6318    247.1518    214.5178   9.4387451442e+01  -7.7659312318e+00    0.8036041    0.3767441 -38.34  0.003960868    1.984    0.496
       244  -9.2395    248.5535    234.2964   9.7757580127e+01  -1.0888049427e+01    0.2342373     0.140627 -38.57 0.0009090416    1.733    0.423
       245  -8.7707    151.5264     20.0004   6.6477958448e+01   4.3418656665e+01    0.1757133   0.09070998 -53.26 0.0008094363    2.571    0.611
       246  -9.7604     67.8967     17.9124   8.4584886586e+01   6.0747996406e+01    0.1902077    0.1316845  17.71 0.0006404918    1.268    0.211
       247  -8.7887     73.4876     16.9991   8.2559501299e+01   5.9868842823e+01    0.1650628    0.1105023 -19.37 0.0006724405    1.551    0.355
       248  -8.6964    187.0783     16.5481   6.0755091968e+01   3.5749362718e+01    0.1777206    0.1048092  70.59 0.0004260183    1.473    0.321
       249  -8.9419    162.6605     15.3588   6.3610101586e+01   4.1350550480e+01    0.1956814    0.1331289 -75.52  0.001102322    1.716    0.417
       250  -8.8947    207.7783     13.6651   5.7881108586e+01   3.1505661583e+01    0.1765103    0.1272979  60.28 0.0004981444    1.382    0.277
       251  -8.6627    173.1683     14.5851   6.2007817024e+01   3.9057239509e+01    0.1774253   0.09412232  57.11 0.0008404351    1.638    0.390
       252 -11.3321    238.6109    220.0772   9.6958000493e+01  -7.3928805349e+00     0.607647    0.3141247 -35.66  0.002892741    1.804    0.446
       253  -9.1257    244.7283    231.5218   9.7942731280e+01  -9.9712243267e+00     0.287606    0.1841397 -44.14 0.0009437259    1.898    0.473
       254  -9.5359    243.7780    225.5136   9.7023748900e+01  -8.9551879474e+00    0.4074699    0.1935603 -39.36  0.001949241    2.066    0.516
       255 -10.3027    232.6846    213.0218   9.6725507132e+01  -5.4000797485e+00    0.4088896    0.2566215 -24.12  0.001356384    1.518    0.341
       256 -10.8928    229.3312    227.3655   1.0000894274e+02  -7.1581495889e+00    0.6212693    0.2968768 -30.65  0.002939345    2.075    0.518
       257  -8.8205     58.4586     11.5338   8.5113135712e+01   6.2933412423e+01    0.1178307   0.09082434  18.09 0.0001833497    1.004    0.004
       258 -10.1289    227.4574    219.1757   9.8853657942e+01  -5.5924042699e+00    0.4002577    0.2533854 -24.88  0.001551328    1.511    0.338
       259  -9.7218    215.8964    230.9294   1.0320014365e+02  -5.6958126468e+00     0.288197    0.1878529 -16.59  0.001484504    1.600    0.375
       260  -9.2700    198.9719    227.1446   1.0584213461e+02  -2.4165468393e+00    0.3103272    0.1632832 -51.09   0.00139677    2.500    0.600
       261  -8.9426    164.0107    228.4927   1.1325394247e+02   3.1625045562e+00    0.2097114    0.1231781  38.00 0.0006892961    1.559    0.359
       262  -9.2818    224.0509    225.4087   1.0064498362e+02  -6.0649543901e+00    0.2534721       0.1612 -19.13   0.00136359    1.590    0.371
       263  -9.4165     99.0950    226.0255   1.2673069809e+02   1.4365061864e+01    0.2083342    0.1775113  64.61 0.0007410424    1.111    0.100
       264 -11.1877    208.7294    223.6500   1.0327826116e+02  -3.4011059393e+00    0.4486314    0.3037712  22.18  0.001979961    1.419    0.295
       265 -10.4805    217.1306    222.0470   1.0135024400e+02  -4.4635323124e+00    0.3374716    0.1971545 -30.18  0.001733945    1.683    0.406
       266  -9.4627    193.7225    219.6403   1.0554427773e+02  -2.6681403433e-01    0.2486536    0.2315528 -45.76  0.001530184    1.299    0.230
       267  -9.5049     48.7022    219.7176   1.3651667360e+02   2.2726429279e+01    0.1976852    0.1774376 -69.21 0.0006022268    1.230    0.187
