#   1 NUMBER                 Running object number                                     
#   2 MAG_AUTO               Kron-like elliptical aperture magnitude                    [mag]
#   3 X_IMAGE                Object position along x                                    [pixel]
#   4 Y_IMAGE                Object position along y                                    [pixel]
#   5 X_WORLD                Barycenter position along world x axis                     [deg]
#   6 Y_WORLD                Barycenter position along world y axis                     [deg]
#   7 A_WORLD                Profile RMS along major axis (world units)                 [deg]
#   8 B_WORLD                Profile RMS along minor axis (world units)                 [deg]
#   9 THETA_WORLD            Position angle (CCW/world-x)                               [deg]
#  10 FWHM_WORLD             FWHM assuming a gaussian core                              [deg]
#  11 ELONGATION             A_IMAGE/B_IMAGE                                           
#  12 ELLIPTICITY            1 - B_IMAGE/A_IMAGE                                       
         1 -11.1996    247.8244     86.3400   6.5985732542e+01   1.2106922104e+01      2.57407     0.528944 -30.65  0.007703396    3.943    0.746
         2 -11.0359    216.9164     34.9611   5.6077801252e+01   2.6165212201e+01     0.915881     0.335882 -29.46  0.003352602    2.423    0.587
         3 -11.9426    212.8578     16.5982   5.1138359092e+01   2.9312499085e+01     2.377145     1.203563 -12.58   0.00965177    2.312    0.568
         4 -11.8483    233.7906     12.0501   4.7806676272e+01   2.4517711210e+01     2.243574     0.927473 -54.42  0.008603063    2.728    0.633
         5 -11.6503    235.5569     28.0806   5.2030737080e+01   2.2345880765e+01     1.768038    0.5778489 -47.98  0.005873093    3.402    0.706
         6 -12.8442    246.5757     15.3983   4.7606150590e+01   2.1098521797e+01     2.454795     1.059346 -13.88  0.009533221    2.844    0.648
         7  -9.4946    145.3707     21.5832   6.2610701051e+01   4.6561322859e+01    0.4472008    0.2257866 -13.28  0.001714403    2.351    0.575
         8 -10.6112    202.5107     19.4173   5.3162623605e+01   3.1699468468e+01     0.501561     0.388448 -53.04  0.002587308    1.299    0.230
         9  -9.3199     93.7615     15.1006   7.2127153407e+01   5.9565719866e+01    0.4065946    0.2739679  49.88  0.001736314    1.543    0.352
        10 -10.3463    197.6921     11.3235   5.1207863665e+01   3.3826646732e+01    0.5532303    0.1933493  58.61  0.002015145    2.600    0.615
        11  -9.7405    160.8946      9.2228   5.5321193269e+01   4.3856413244e+01    0.3520314    0.2286754  14.66   0.00158117    1.844    0.458
        12  -9.6960     95.0366      6.8425   6.7830775943e+01   6.0309068647e+01    0.5734828    0.2134085 -24.38  0.001697608    2.570    0.611
        13  -9.2276    172.5888      6.2776   5.2621088526e+01   4.1021709748e+01     0.310263    0.1715236 -23.78  0.001231771    1.805    0.446
        14  -8.5038    170.9811      2.4826   5.1508901979e+01   4.1804735052e+01    0.3115618    0.1886225  80.49  0.001179587    1.745    0.427
        15  -8.9482    101.5069      7.0318   6.6193898855e+01   5.8868259514e+01    0.2480713    0.2048047  81.45  0.001371969    1.558    0.358
        16  -7.9377    184.1498      5.2410   5.0823507130e+01   3.8025923230e+01    0.2600462    0.1212403  34.88 0.0009438166    2.806    0.644
        17  -8.6669    145.3550      2.4200   5.5171604711e+01   4.8601324797e+01    0.3398399    0.2167637 -19.55   0.00161873    1.592    0.372
        18  -8.7676    122.3768      4.3223   6.0144837287e+01   5.4251058851e+01    0.2368779    0.1485337  28.51 0.0009023111    1.686    0.407
        19  -9.3657    203.8656      1.9495   4.7663449488e+01   3.3111117398e+01    0.2469382    0.2020342  78.75  0.001024189    1.202    0.168
        20  -8.6413    199.4822      2.4746   4.8258981148e+01   3.4212957340e+01    0.1387314    0.1349714 -89.98 0.0001050641    1.031    0.030
        21  -8.6307    118.1710      2.2216   6.0093604542e+01   5.5478894997e+01    0.1902959    0.1657458 -58.77 0.0009532249    1.357    0.263
        22  -8.2829     44.3241      2.3184   8.3467908662e+01   7.0056886831e+01    0.1274556   0.08251788  -3.87  0.000704478    1.672    0.402
        23  -8.8324    193.0702      1.6326   4.8657493896e+01   3.5984422389e+01    0.3258468    0.1316804  72.78  0.001237644    2.429    0.588
        24  -8.3494    183.0140      1.4951   4.9716671890e+01   3.8674431079e+01    0.2203114     0.137787  74.02 0.0007852954    1.572    0.364
        25 -10.2049    193.0677    206.5711   1.0017261592e+02   6.2641079404e+00    0.3115549    0.2012778 -36.13  0.001937959    1.860    0.462
        26  -7.9164    217.4885    250.5458   1.0234775540e+02  -2.1974930455e+00    0.1056414   0.07396733  31.02 9.717204e-05    1.012    0.012
        27  -8.0959    135.8179    250.1457   1.1495779522e+02   9.6587108704e+00    0.1385356    0.1036237  36.01  0.001074174    1.322    0.244
        28  -8.6474    124.0143    206.0110   1.1230071167e+02   1.7623076115e+01    0.1642446    0.1318744  54.66            0    1.008    0.008
        29  -9.1478    198.6497    205.0779   9.8997655537e+01   5.5219749615e+00    0.1569034    0.1361087  17.35 0.0007751738    1.128    0.113
        30  -7.9474    179.4617    204.0652   1.0214213747e+02   8.8625466625e+00    0.1536418    0.1193868 -37.36 0.0008129584    1.555    0.357
        31  -7.8309    173.1891    204.0520   1.0323828173e+02   9.9167381230e+00    0.1378745   0.09413217 -40.74 0.0005375528    1.781    0.438
        32  -8.7286    186.3118    201.6563   1.0058803094e+02   8.0284651469e+00     0.113677    0.0904666  71.04 0.0007046178    1.704    0.413
        33  -7.5650    133.2388    198.9906   1.0974967634e+02   1.7282011409e+01    0.1263567    0.1007362 -61.84 0.0008372776    1.462    0.316
        34  -7.7516    176.0000    197.9373   1.0183390191e+02   1.0287682421e+01     0.171291     0.070508 -42.61 0.0007976113    2.909    0.656
        35 -10.8009    238.5718    193.2600   9.0481638955e+01   3.0417205054e-01    0.4558224      0.41732 -68.86  0.002958844    1.851    0.460
        36 -10.3800    232.8949    193.4688   9.1425530311e+01   1.2066762679e+00    0.3406766    0.2460692  14.74  0.001576704    1.234    0.190
        37  -9.6218    245.5042    189.7345   8.8769329013e+01  -4.3487609711e-01    0.3616019    0.1981841  -0.61  0.001883254    2.283    0.562
        38  -8.2088    222.9961    187.7555   9.2048128019e+01   3.5224783768e+00    0.1672668    0.1324071  28.70  0.001097851    1.063    0.059
        39  -9.8346    245.6966    182.7400   8.7479241368e+01   2.9407010884e-01    0.3625759    0.1874243  17.27  0.001772721    2.359    0.576
        40  -9.3790    242.8202    180.5857   8.7537824313e+01   1.0104199871e+00    0.1741733    0.1478554  73.15 0.0009218947    2.006    0.501
        41  -9.6223    221.5094    178.1903   9.0578970609e+01   4.9528150902e+00    0.3139428    0.2265157   3.67  0.001883318    1.434    0.303
        42 -10.4369    242.1142    173.4478   8.6314158123e+01   1.9476375670e+00     0.523445    0.2753722  22.52  0.002355145    2.113    0.527
        43  -7.4658    100.9700    175.9931   1.1300954598e+02   2.6386248134e+01    0.1405584    0.1191021  69.59 0.0009310346    1.011    0.011
        44  -8.2291    142.5109    175.5196   1.0463244883e+02   1.9617937663e+01    0.1281684    0.1124012  53.23 0.0008102686    1.002    0.002
        45  -8.2177    192.7075    173.0644   9.4677827753e+01   1.0862016661e+01    0.1752325    0.1569134  23.21 0.0006412677    1.043    0.041
        46 -10.2621    249.4843    168.6091   8.4221620616e+01   1.2519396596e+00    0.3656125    0.2612783 -13.70  0.002122492    1.311    0.237
        47  -9.8087    228.2388    162.6826   8.6488520111e+01   5.7206960917e+00    0.5181471    0.2750545  52.79  0.002497367    2.162    0.537
        48  -9.0190    206.7378    162.7222   9.0202331470e+01   9.7201175355e+00     0.197493    0.1040613 -46.15 0.0005760384    2.404    0.584
        49  -7.8640    115.0146    166.2249   1.0877215396e+02   2.6001801810e+01    0.1729323   0.09617215  44.08 0.0008746613    1.657    0.397
        50  -9.6494    236.5452    158.0153   8.4183048231e+01   4.8029210434e+00    0.3304261    0.2199643 -41.37  0.001364078    1.818    0.450
        51  -9.9062    232.7856    153.4764   8.3870499949e+01   6.0771057939e+00     0.294366    0.2265213 -36.65  0.001735043    1.470    0.320
        52  -9.0377     24.6998    158.2896   1.2688064514e+02   3.9434579072e+01    0.2337154    0.1680948  73.04  0.001688931    1.107    0.097
        53  -8.3160    183.5195    155.9828   9.3153418239e+01   1.5217820624e+01    0.1953197    0.1337067 -38.79  0.001026883    1.578    0.366
        54  -8.0528    118.0124    152.2143   1.0591069693e+02   2.8210717878e+01    0.1725771       0.1006  44.43 0.0003665893    1.627    0.386
        55 -10.1489    225.8142    149.6671   8.4240372156e+01   7.9002943068e+00    0.3805382    0.2897514  41.57  0.002204567    1.282    0.220
        56  -9.9703    231.1630    146.1639   8.2605199085e+01   7.3507675398e+00    0.4063952    0.3288722 -36.70  0.002349242    1.391    0.281
        57  -8.1971    215.8495    148.8196   8.5772850988e+01   9.9461205505e+00    0.1736008    0.1635027 -54.68 0.0005014214    1.344    0.256
        58  -8.9239    155.5115    148.9962   9.7342033953e+01   2.1899321429e+01    0.2640002    0.1333472  40.26  0.001152084    1.951    0.487
        59  -7.7556     33.4986    146.5412   1.2400458695e+02   4.1010193579e+01    0.1169756   0.08999436  83.73 0.0002467236    1.016    0.016
        60  -9.8131    192.3401    140.0141   8.8164160514e+01   1.6011385676e+01    0.3818334    0.3009678 -76.21  0.001681286    1.863    0.463
        61  -8.8675    250.0504    139.5988   7.8176360023e+01   4.6472628103e+00    0.4911754    0.2376585 -47.11  0.002000085    3.284    0.695
        62 -11.1378    237.6015    122.4592   7.6279368865e+01   9.3114102512e+00     0.864798    0.3206105 -36.25  0.003393089    2.588    0.614
        63  -9.7350    248.5086    134.4912   7.7297671497e+01   5.5835449672e+00    0.6452667    0.2800042  54.23  0.002734178    2.767    0.639
        64 -10.7683    245.2178    130.8338   7.6993494133e+01   6.6848841182e+00    0.7239956    0.4383031  44.74  0.003750124    1.661    0.398
        65  -8.3626    113.9577    139.0323   1.0450006059e+02   3.1572481123e+01    0.2083421    0.1736001  -6.76  0.001140174    1.738    0.425
        66  -8.8610      2.5771    139.7194   1.3024224460e+02   4.5117453227e+01    0.1935758   0.09537029  56.80  0.001202593    1.822    0.451
        67  -8.8213    138.3871    132.7245   9.7730442268e+01   2.8321349867e+01    0.2588649     0.177446  48.42 0.0005543323    1.413    0.292
        68  -7.4131    132.3158    131.2774   9.8794163717e+01   2.9784963627e+01    0.1339877    0.1123209   5.75 0.0002991896    1.569    0.363
        69  -7.9562     51.7971    131.6550   1.1809732985e+02   4.2249785415e+01    0.1601207    0.1008027  50.87 0.0003230927    1.580    0.367
        70  -8.1608    212.7421    128.2111   8.1776167171e+01   1.3608999732e+01    0.2006541     0.155498  13.71 0.0008311954    1.350    0.259
        71  -9.6394    224.1615    122.6272   7.8510332329e+01   1.2048096027e+01    0.3384818    0.2554313  82.15  0.001357883    2.094    0.522
        72 -10.7685    230.4074    116.6465   7.6065298859e+01   1.1604238865e+01    0.6174631    0.4151228 -22.85   0.00314321    1.425    0.298
        73 -10.6136    234.9805    105.2569   7.2580541959e+01   1.2254867589e+01     0.979737    0.5368416   1.36  0.003661716    3.046    0.672
        74 -10.6747    243.9595    100.1791   6.9977120889e+01   1.1056684224e+01    0.6789871    0.5573071  31.86   0.00386632    1.243    0.196
        75 -10.1453    248.5798     74.0594   6.2765566418e+01   1.3574195568e+01     0.651899     0.289957 -29.21  0.002514409    1.974    0.493
        76 -11.1903    248.2200     66.8976   6.0965842078e+01   1.4590369948e+01     1.100543    0.8271439 -65.55  0.005773883    1.629    0.386
        77  -9.2144    198.8150    118.3656   8.1971874082e+01   1.8143661423e+01    0.4169582    0.1998496 -27.41  0.001631166    2.337    0.572
        78  -9.8947    221.8785    116.2649   7.7382145806e+01   1.3463214517e+01     0.440403    0.1949958 -45.62  0.001656678    2.802    0.643
        79  -7.7577     11.3183    115.6571   1.2629210363e+02   4.9613522885e+01    0.1214349   0.06753231  72.06 0.0007049221    1.718    0.418
        80 -10.8588    232.4646     59.7023   6.1075492038e+01   1.9160541868e+01    0.9398621    0.6222922 -85.57  0.004246513    2.128    0.530
        81  -8.1277    176.9464    109.5205   8.4027832744e+01   2.4525211967e+01    0.2208938    0.1452568  50.24 0.0006782586    1.520    0.342
        82  -8.0919    104.8355    108.3038   1.0044575451e+02   3.9707745844e+01    0.2193455    0.1679565  69.16 0.0009246486    1.457    0.314
        83  -9.7781    122.4941    109.3157   9.6232625006e+01   3.6202903540e+01    0.5988748    0.3939237 -64.13  0.002773436    1.734    0.423
        84  -7.9016    167.9027    106.8872   8.5226184301e+01   2.7038932753e+01    0.1884637    0.1720354 -82.73 -0.0006383859    1.234    0.189
        85  -9.5228    192.8513    103.5069   7.9366220623e+01   2.1933019742e+01    0.3023639    0.2458084  44.15  0.001553725    1.229    0.186
        86  -9.1611     57.7742     99.8632   1.1149436057e+02   4.8685820788e+01     0.383066    0.1818227 -71.44  0.001705135    2.176    0.540
        87  -9.9951     69.9378    101.1559   1.0830760193e+02   4.6810909449e+01    0.4324363    0.2859716 -73.49  0.002282238    1.495    0.331
        88  -8.5518    172.4867    101.4881   8.2862537227e+01   2.6975574612e+01    0.1499246    0.1450716   5.02 0.0008103211    1.023    0.022
        89 -10.2781    124.1181     96.5057   9.2619042341e+01   3.8552650140e+01    0.8455505    0.6412463  -3.68  0.003947821    1.927    0.481
        90  -8.8783    224.4940    248.4389   1.0102540462e+02  -3.0007814045e+00    0.1650645   0.09854463 -25.38 0.0009455774    2.070    0.517
        91  -8.3102    105.9675     99.1634   9.7986978427e+01   4.1485359123e+01    0.2378143    0.1621533  74.03  0.001078262    2.002    0.500
        92 -10.5787    214.6036     95.8874   7.3498197138e+01   1.8144572552e+01    0.5316056    0.3299107 -34.67   0.00213375    1.538    0.350
        93  -8.7850    108.9802     96.7225   9.6580474705e+01   4.1455607011e+01    0.2027805    0.1952426  81.31  0.001173287    1.060    0.057
        94  -9.1210    196.5735     94.0739   7.6181365663e+01   2.2624264078e+01    0.2967867    0.2452845 -69.87  0.001482245    1.497    0.332
        95 -10.1463     72.9515     92.6427   1.0561523241e+02   4.8312032788e+01    0.4598169    0.3056503 -79.18  0.002315609    1.730    0.422
        96 -10.3372    219.7042     81.9758   6.8977583466e+01   1.9048756549e+01     1.089964     0.260428 -30.48  0.003144101    3.849    0.740
        97  -8.9561    234.9187     86.8840   6.7957721737e+01   1.4858774771e+01    0.3474354    0.2512471   2.32  0.001008388    1.552    0.356
        98  -7.8998    227.3115     88.3292   6.9478311711e+01   1.6366196321e+01     0.151633    0.1074256  14.75 0.0003657239    1.668    0.401
        99  -8.3884     99.0552     86.5496   9.6622118833e+01   4.5458920340e+01    0.2832446     0.192719 -64.34  0.001358548    1.593    0.372
       100 -10.0235     34.9246     97.5527   1.1765156552e+02   5.1692272991e+01    0.3774205    0.2525424  53.75  0.002283662    1.638    0.389
       101  -7.4140     91.5147     86.4611   9.8733470879e+01   4.6790447363e+01    0.1410109    0.1291993 -57.59 0.0001841429    1.012    0.012
       102  -8.6485     84.6691     84.6722   1.0025012045e+02   4.8311857192e+01    0.1407893    0.1064306 -22.78 0.0007051395    1.712    0.416
       103  -8.7496    199.7189     82.3428   7.2400549246e+01   2.3759952084e+01    0.5245497    0.2952906  81.88  0.001731593    3.647    0.726
       104  -8.2148    231.2351     81.5134   6.7100264671e+01   1.6446148524e+01    0.1975078    0.1300151  40.85 0.0004237644    1.619    0.382
       105  -7.6976    230.3430     77.2583   6.6104575596e+01   1.7250232708e+01    0.1465753    0.1058293  23.95 0.0006962943    1.589    0.371
       106  -8.9134    225.3544    102.1868   7.3341166276e+01   1.4784557752e+01    0.2050342    0.1796361  20.92   0.00114089    1.126    0.112
       107  -8.3632    234.2685     73.7249   6.4604724612e+01   1.6837141723e+01    0.3062652    0.1876121 -17.29   0.00139049    1.682    0.405
       108  -9.4262    105.8769     71.1894   9.0247725551e+01   4.7413622864e+01    0.7120881    0.3518608 -56.83  0.002687186    2.529    0.605
       109  -8.5187    148.3195     68.9736   7.8700127681e+01   3.8560076194e+01    0.2657062     0.101815 -52.08 0.0007049238    4.358    0.771
       110  -8.9907    214.3484     63.6645   6.4732264854e+01   2.2993912541e+01    0.6890552    0.3061439 -23.13  0.002535498    2.383    0.580
       111  -9.0908    211.5017     64.0111   6.5263392385e+01   2.3645802711e+01    0.4448307    0.2360545  -6.34  0.001548462    2.977    0.664
       112  -7.7067    204.2959     66.3167   6.7062599373e+01   2.5095477769e+01    0.1547475    0.1145707  18.20 0.0007014399    1.607    0.378
       113  -8.0665    162.6707     64.3482   7.4107157159e+01   3.5861779207e+01    0.1640913    0.1191279 -66.25  0.000406957    1.761    0.432
       114  -8.6885     36.0306     64.0038   1.1073694806e+02   5.9174988578e+01    0.2093272    0.1265986 -38.64  0.001142062    1.745    0.427
       115  -9.3499    130.9126     63.0034   8.0913084975e+01   4.3702960018e+01    0.2718477    0.2204942  48.37  0.001166304    1.277    0.217
       116  -9.5826    200.3350     60.8313   6.6096851624e+01   2.6897086874e+01    0.5552827    0.2636965 -39.51  0.002154231    2.020    0.505
       117  -8.9340     69.6678     61.1044   9.8267318424e+01   5.5727389025e+01    0.2179722    0.1925741  58.06  0.001242247    1.328    0.247
       118  -8.6384     53.6161     59.1990   1.0322051719e+02   5.8305172378e+01    0.1991443    0.1004151 -46.87 0.0009378808    1.703    0.413
       119  -8.1499    191.8033     57.3912   6.6470427929e+01   2.9571462986e+01    0.2249922    0.1359482  48.59 0.0009563771    1.689    0.408
       120  -7.8957     82.4387     59.5039   9.3566855618e+01   5.4051852045e+01    0.1409128    0.1246281 -39.07 3.380911e-05    1.027    0.026
       121  -8.5241    109.1912     56.0380   8.4301535798e+01   4.9718662733e+01    0.2457761      0.16615 -62.36 0.0009645119    1.938    0.484
       122  -9.7567    245.8804     50.8847   5.7053820013e+01   1.7163479760e+01     0.709012    0.4332987 -73.88  0.003142535    2.332    0.571
       123  -9.4149    250.3650     46.2090   5.5325365751e+01   1.6713433359e+01    0.3825714    0.2060414 -24.22  0.001304245    1.713    0.416
       124 -10.2620    250.0081     40.9699   5.3992794642e+01   1.7425594854e+01     0.595167     0.305737 -13.03   0.00249566    2.288    0.563
       125  -8.1287     28.8418     54.1692   1.1092487383e+02   6.1996723828e+01    0.1734807    0.1214721 -43.04 0.0008884747    1.314    0.239
       126  -8.7002    236.9396     51.7953   5.8356396572e+01   1.9133716460e+01    0.5263721    0.3042291 -83.33  0.002120481    2.744    0.636
       127  -9.7488    229.2614     51.1251   5.9131101681e+01   2.1057211618e+01    0.4719175    0.3001423  41.50  0.001602826    1.762    0.432
       128 -10.1988    232.9936     45.2298   5.7037734560e+01   2.0908757835e+01     0.686572     0.466051  41.61  0.003363067    1.650    0.394
       129  -9.5762    219.1405     51.2103   6.0490078831e+01   2.3526929941e+01    0.6408116    0.3057951 -58.69  0.002169734    3.297    0.697
       130  -8.9269    123.3481     51.6637   7.8923381327e+01   4.7448052671e+01    0.2429313    0.1846602 -69.05  0.001135846    1.724    0.420
       131  -8.6017     97.9863     47.7217   8.4565556011e+01   5.3517734268e+01    0.2033996    0.1948307  15.69  0.001186276    1.099    0.090
       132  -7.6412    111.6621     46.3511   8.0101529487e+01   5.0949793228e+01    0.1520708     0.114679 -68.64 0.0007044995    1.793    0.442
       133  -9.4024    222.2783     42.2821   5.7524875938e+01   2.3906697928e+01    0.5226951    0.2601994 -17.90  0.002073239    2.205    0.546
       134  -9.2244    199.9587     44.5245   6.1240998497e+01   2.9289306560e+01    0.3452912    0.1983923 -68.93  0.001290582    2.630    0.620
       135  -8.1267     58.0050     45.5204   9.7235015844e+01   6.0599647228e+01    0.1777978    0.1319581  32.60 0.0004825583    1.563    0.360
       136  -8.0036     52.3305     44.6530   9.9064732521e+01   6.1518684014e+01    0.1267243   0.09939931 -84.06 0.0007049596    1.761    0.432
       137  -8.6193     85.7755     42.8301   8.6533620515e+01   5.6718309821e+01    0.3059242    0.2138623  42.97   0.00158819    1.569    0.363
       138  -8.7389    127.1252     40.3203   7.3791480584e+01   4.8462128999e+01    0.2470972    0.1829977  32.26 0.0008250994    1.452    0.311
       139  -8.0943      6.5975     39.7993   1.1622957315e+02   6.6686100514e+01    0.1656086    0.0913618 -74.05 0.0005634423    1.670    0.401
       140  -9.5729    185.8763    244.8263   1.0650086489e+02   2.9598221707e+00    0.2883687    0.2043716 -52.12  0.002120938    2.100    0.524
       141 -10.6067    216.0476     24.4330   5.3097128619e+01   2.7629029235e+01    0.4687726    0.3212853 -39.41  0.001568892    1.371    0.271
       142  -8.3779    232.4988    248.4774   9.9837510282e+01  -4.1261900992e+00    0.1062812   0.07235591  26.68 5.246874e-05    1.059    0.055
       143  -8.7490    164.1534    246.3752   1.1010168074e+02   6.0023675801e+00     0.155931    0.1345419  18.73 0.0008790037    1.350    0.259
       144  -7.7645    243.3421    247.6715   9.8132525811e+01  -5.5539382904e+00   0.08964361   0.07345296  48.19 0.0007051255    1.742    0.426
       145  -7.8926     53.5068    245.5847   1.2739472162e+02   2.0973843692e+01   0.09973937   0.06491906  61.57 0.0001183134    1.047    0.044
       146  -7.7157    174.6716     33.6689   6.1721939256e+01   3.7361774092e+01    0.1626923     0.111749  27.34 0.0007051555    1.714    0.416
       147  -8.5004     43.9892     30.5096   9.7149279103e+01   6.5338832738e+01    0.2654392    0.1674776   5.26  0.001385681    2.239    0.553
       148  -8.0303    128.3171     27.3403   6.8459190759e+01   5.0088271750e+01     0.158124    0.1085114  20.60 0.0007048775    1.708    0.415
       149  -8.0842    184.5439     26.0049   5.7632429209e+01   3.5699218396e+01    0.2365881      0.14411 -25.19  0.001038887    1.621    0.383
       150  -8.3457     15.6610     24.3161   1.0754398348e+02   6.9299243092e+01    0.1070907   0.08651374  88.63 0.0007048213    1.703    0.413
       151  -9.4950    236.1651    240.5228   9.8212932090e+01  -3.9560606039e+00    0.2716368    0.1559685 -46.65  0.001619951    3.456    0.711
       152  -8.3287     39.9986     23.5002   9.5967927363e+01   6.7127140183e+01    0.1489366    0.1073194  62.67 0.0008092105    2.432    0.589
       153  -9.3956    232.4879    236.0113   9.8136313655e+01  -3.0297722189e+00    0.1651861    0.1263261  37.70 0.0007307003    1.295    0.228
       154  -8.6893    229.6741    234.3482   9.8329896562e+01  -2.4691464648e+00    0.1321173   0.09222703  -3.49 0.0007814805    1.523    0.343
       155  -8.7936    140.6011     13.2097   6.0257182870e+01   4.8753209333e+01    0.2101732     0.137874  -4.35 0.0009551595    1.692    0.409
       156  -7.5716     70.2895    234.3685   1.2410285462e+02   2.0657683600e+01   0.08100094   0.08056088 -13.23 0.0007023811    1.710    0.415
       157  -8.7743    144.4979     11.4501   5.8852817998e+01   4.7937767701e+01    0.1468407    0.1361377  31.22 0.0003518802    1.039    0.038
       158  -8.8196    208.8091    231.9972   1.0124343406e+02   8.6528937757e-01    0.1483692    0.1274743  84.84 0.0008258616    2.002    0.500
       159  -8.8577    234.4556    228.7504   9.6794723340e+01  -2.6478952207e+00    0.2682869    0.1002747 -32.67  0.001441371    3.179    0.685
       160  -9.0822    114.2545     13.8213   6.6109565376e+01   5.5171393126e+01     0.437288    0.1576095  52.74  0.001636255    2.562    0.610
       161 -10.6599    222.6209    219.5848   9.7279283736e+01   3.4469974353e-02      0.39518    0.2294414 -29.13  0.002524681    2.017    0.504
       162  -8.5860    156.6646    225.8510   1.0896906733e+02   9.6582428575e+00     0.152044    0.1337771  11.57 0.0006733036    1.387    0.279
       163  -9.1440    242.5199    221.2346   9.4436778289e+01  -3.1330122317e+00    0.3210782    0.1567512 -18.33  0.001303376    2.406    0.584
       164 -10.8168    243.0833    206.4370   9.1999994897e+01  -1.7853562141e+00    0.7632443    0.5024369  55.12   0.00461312    2.187    0.543
       165 -10.5950    248.3586    219.8617   9.3338963956e+01  -3.8629432056e+00    0.6871816    0.3709956 -26.78  0.004419067    2.056    0.514
       166  -8.4339    243.4810    214.4976   9.3239326610e+01  -2.6373763809e+00    0.1982214    0.1265347  27.88  0.000823656    1.218    0.179
       167  -7.7029    182.2455    216.9726   1.0350995554e+02   6.7359530983e+00    0.1210351   0.09947211 -35.94 0.0003422001    1.518    0.341
       168  -8.0652     56.0119    217.1665   1.2527990004e+02   2.5117160294e+01    0.1398141    0.1001788  67.51            0    1.023    0.023
       169  -7.4862     15.3406    217.6830   1.3194276357e+02   2.9374781716e+01    0.1074138   0.04627705  63.58 0.0004197417    1.709    0.415
       170  -8.5073    211.5125    227.9652   1.0025717495e+02   8.7192000944e-01    0.1384817    0.1065334 -23.61 0.0005610983    1.563    0.360
       171  -8.4076    164.8240    208.3871   1.0531994377e+02   1.0708587072e+01    0.1707525    0.1570407 -82.69 0.0005387309    1.348    0.258
