#   1 NUMBER                 Running object number                                     
#   2 MAG_AUTO               Kron-like elliptical aperture magnitude                    [mag]
#   3 X_IMAGE                Object position along x                                    [pixel]
#   4 Y_IMAGE                Object position along y                                    [pixel]
#   5 X_WORLD                Barycenter position along world x axis                     [deg]
#   6 Y_WORLD                Barycenter position along world y axis                     [deg]
#   7 A_WORLD                Profile RMS along major axis (world units)                 [deg]
#   8 B_WORLD                Profile RMS along minor axis (world units)                 [deg]
#   9 THETA_WORLD            Position angle (CCW/world-x)                               [deg]
#  10 FWHM_WORLD             FWHM assuming a gaussian core                              [deg]
#  11 ELONGATION             A_IMAGE/B_IMAGE                                           
#  12 ELLIPTICITY            1 - B_IMAGE/A_IMAGE                                       
         1 -13.7209      7.7008     13.1842   1.1938976360e+02   7.2310807202e+01     2.448831    0.8188078 -43.48   0.01264608    2.169    0.539
         2 -13.3732    190.5897     29.1953   7.0891087005e+01   3.4242318752e+01      1.28707     1.156803  85.22  0.006421067    1.054    0.051
         3 -13.9671    202.9494     11.7208   6.4406653660e+01   3.3062805938e+01     1.876649     1.168277  43.96  0.009150075    1.891    0.471
         4  -9.5911    146.2993    245.3437   1.2786021216e+02   5.9313353881e+00    0.1093281   0.08503053  16.98  0.000494983    1.674    0.403
         5 -11.4612    139.2604    248.5850   1.2946336611e+02   6.5670391305e+00    0.3503346    0.2061243 -56.45  0.002166313    2.163    0.538
         6 -11.6551    126.0847    249.6494   1.3186957752e+02   8.4458027891e+00    0.3437093    0.2101743  38.97  0.002155682    1.460    0.315
         7 -11.4434    107.8559    248.6820   1.3492682887e+02   1.1336465013e+01    0.4151644    0.1862918  61.64  0.001747425    2.482    0.597
         8 -11.5252     98.1116    249.5116   1.3667390890e+02   1.2626668952e+01    0.4088781    0.2185665  43.60  0.001747994    1.535    0.349
         9 -11.0893    101.4247    246.2265   1.3580910511e+02   1.2670100656e+01    0.2365914    0.1443187  66.86   0.00112031    1.543    0.352
        10 -11.0103     81.8509    248.9096   1.3938066186e+02   1.5009662681e+01    0.2630414    0.2307852  83.93  0.001542217    1.328    0.247
        11 -11.9914     80.8981    243.0911   1.3907527778e+02   1.6100818539e+01    0.4091664    0.2953113 -78.30  0.002820454    1.481    0.325
        12 -10.3828     88.5137    248.9996   1.3826255431e+02   1.4071509598e+01     0.260386    0.1387832  66.46 0.0009580583    1.795    0.443
        13 -10.2333     85.4669    246.4851   1.3857239092e+02   1.4905808531e+01     0.194609      0.13021 -87.02 0.0006433809    1.548    0.354
        14 -14.3623     32.4090    246.6680   1.4731351778e+02   2.1570928233e+01     10.38261     2.871845  31.91   0.02446428   16.774    0.940
        15 -14.9168      6.9327    210.4871   1.4967302484e+02   3.0731951062e+01     4.105865    0.7040489 -72.79    0.0173026    4.294    0.767
        16 -15.2856     20.6675    171.7420   1.4467538496e+02   3.7272051340e+01     6.932424     2.217525  88.54   0.02492749    4.455    0.776
        17  -8.9828    115.3176    226.3125   1.3128057796e+02   1.3867895473e+01    0.1087813   0.09372512  15.75  0.000541905    1.644    0.392
        18 -12.6320     42.3660    231.6007   1.4482103296e+02   2.3047196212e+01    0.2958038     0.225419 -79.95 0.0007545332    1.413    0.292
        19 -14.0927     48.6285    223.5317   1.4319609592e+02   2.3767122510e+01     1.034651    0.6309524 -87.94  0.006911874    1.465    0.317
        20  -9.5576     94.6315    216.7899   1.3413127969e+02   1.8757836066e+01    0.2381961    0.1425168  69.71 0.0009231572    1.693    0.409
        21  -8.9040    152.6865    213.0110   1.2246708741e+02   9.9107926405e+00    0.1613378    0.1518372  59.99 0.0003386035    1.119    0.106
        22 -11.2890     32.1499    206.9769   1.4500428871e+02   2.8837654079e+01    0.3628082     0.144558  57.26  0.001266904    2.102    0.524
        23 -13.3176      6.7029    244.5225   1.5118281484e+02   2.4647727180e+01     1.206875    0.8347442 -75.45  0.009946188    1.665    0.399
        24 -10.1272    193.1951    195.2059   1.1181680474e+02   5.5284535720e+00    0.7069805    0.3384003 -61.00  0.001980694    7.441    0.866
        25 -11.4584     67.2492    197.2962   1.3745767322e+02   2.6480486660e+01    0.3197659    0.2323865 -49.65  0.001379065    1.873    0.466
        26  -9.6817    185.8432    238.8582   1.2005545531e+02   4.7433918144e-01    0.1538075    0.1287424  57.21 0.0004822516    1.361    0.265
        27 -11.6196     72.5400    189.7391   1.3558008136e+02   2.7310629056e+01    0.2587739    0.2236546 -63.81 0.0008388283    1.381    0.276
        28 -10.8343     81.6179    177.2254   1.3213875027e+02   2.8661962487e+01    0.2425691    0.2045458 -84.37 0.0003459439    1.111    0.100
        29 -13.1565     68.9774    174.9920   1.3463265960e+02   3.0951200902e+01    0.4686867    0.2759071 -47.00  0.001840969    2.264    0.558
        30 -11.8140     88.4515    167.8900   1.2932553363e+02   2.9663944368e+01    0.6675122    0.4939052  63.57  0.003791984    1.263    0.209
        31 -12.7267     67.4487    144.4519   1.3082892166e+02   3.8061761510e+01     1.095943    0.6004552  85.08  0.004743945    2.476    0.596
        32 -11.8929     57.9313    131.5704   1.3125181151e+02   4.2319845315e+01    0.8405008     0.314138 -75.23  0.002860836    3.704    0.730
        33 -12.0470     89.2386    151.2177   1.2654230329e+02   3.3286021729e+01    0.2727628    0.2434803 -53.28 0.0005838341    1.261    0.207
        34  -9.8015    100.5553    151.7290   1.2389118330e+02   3.1314682093e+01    0.2649041    0.2548614 -86.07 0.0007470769    1.138    0.121
        35  -9.1148    103.2714    147.5991   1.2248981827e+02   3.1784606424e+01    0.2536613    0.1753154 -34.58  0.001019287    1.970    0.493
        36  -8.4900    192.2334    144.0427   1.0170941086e+02   1.4529948270e+01    0.1824101    0.1217546 -37.37 0.0003496148    1.515    0.340
        37  -9.1143    242.2916    138.6828   9.1457727853e+01   5.0924027542e+00    0.1316358    0.1057782 -59.94 0.0002574079    1.599    0.375
        38  -9.6803    111.0406    136.9906   1.1850657064e+02   3.2809831815e+01    0.3713249    0.2524662 -16.50  0.001063567    2.831    0.647
        39 -10.4545     98.6562    134.3141   1.2110140477e+02   3.5622232602e+01    0.2705046    0.2299978 -34.71  0.000744013    1.406    0.289
        40 -14.3797     56.2847    211.6058   1.4088931694e+02   2.5073849171e+01     4.218114    0.6230761  50.31   0.01364326    5.404    0.815
        41  -9.8044    228.7696    228.4049   1.1107545417e+02  -5.0395673555e+00    0.2633477    0.1833517 -65.79  0.001311037    3.802    0.737
        42  -9.7163     32.9170    228.3339   1.4621853264e+02   2.4724133398e+01     0.193403    0.1208008  81.56 0.0006201874    1.269    0.212
        43  -9.4475    107.9361    123.8970   1.1649416823e+02   3.6368008959e+01    0.2074299    0.1976357 -77.48 0.0003097324    1.037    0.035
        44 -11.0439     35.2929    225.0539   1.4561696236e+02   2.5054770466e+01    0.3715727    0.1862678  74.95  0.002183249    1.719    0.418
        45 -10.7586    168.2316    113.2955   9.9275056351e+01   2.5844831272e+01      0.36669    0.3056823 -77.52 0.0008713824    1.395    0.283
        46  -9.1280    203.4942    111.5209   9.1723495875e+01   1.7952801868e+01    0.1501043    0.1444885 -15.78  2.21019e-06    1.032    0.031
        47 -11.7104    246.7415    248.2603   1.1122596229e+02  -9.8144241438e+00    0.5566484    0.2440157  33.95  0.003228896    1.816    0.449
        48 -10.9012     26.4944    240.2378   1.4792188299e+02   2.3325440130e+01    0.2737654     0.141079  75.53  0.001854193    1.543    0.352
