#   1 NUMBER                 Running object number                                     
#   2 MAG_AUTO               Kron-like elliptical aperture magnitude                    [mag]
#   3 X_IMAGE                Object position along x                                    [pixel]
#   4 Y_IMAGE                Object position along y                                    [pixel]
#   5 X_WORLD                Barycenter position along world x axis                     [deg]
#   6 Y_WORLD                Barycenter position along world y axis                     [deg]
#   7 A_WORLD                Profile RMS along major axis (world units)                 [deg]
#   8 B_WORLD                Profile RMS along minor axis (world units)                 [deg]
#   9 THETA_WORLD            Position angle (CCW/world-x)                               [deg]
#  10 FWHM_WORLD             FWHM assuming a gaussian core                              [deg]
#  11 ELONGATION             A_IMAGE/B_IMAGE                                           
#  12 ELLIPTICITY            1 - B_IMAGE/A_IMAGE                                       
         1 -13.1949    176.2317     42.2938   6.5411555916e+01   3.5929721606e+01     1.065659    0.9125863  13.91  0.004328395    1.630    0.386
         2 -13.1292    194.7927     11.3606   5.6057707183e+01   3.5409313558e+01    0.8423682    0.7477147 -81.29  0.004480134    1.175    0.149
         3 -11.4562     12.4618    242.7047   1.4302678519e+02   2.0865346992e+01    0.1465585    0.1205578 -63.95  0.001033136    1.520    0.342
         4 -19.5710     47.3401    155.0359   1.2583352716e+02   3.7763946502e+01     21.90631       4.1128 -64.78   0.05589212    5.418    0.815
         5 -11.0929     11.4902    206.6824   1.4054381611e+02   2.8933631988e+01    0.3052704    0.1978311  63.64   0.00148921    1.417    0.294
         6  -9.0209    187.9834    173.9745   9.4087840955e+01   8.5098801580e+00    0.2364799    0.1873684 -82.96 0.0008322656    1.708    0.415
         7 -10.8505    124.6437    171.8152   1.0836406480e+02   2.1330443071e+01     0.407234    0.2906066  74.76  0.001434853    1.857    0.461
         8 -10.9396    140.2337    199.5412   1.0990104240e+02   1.1869118000e+01    0.3655531    0.1939563  36.33  0.001504848    1.906    0.475
         9  -9.4521    139.5311    167.9867   1.0387971397e+02   1.9385505832e+01    0.2384341    0.1507649 -49.63 0.0004601439    1.545    0.353
        10  -8.0947    124.2687    161.2967   1.0628854673e+02   2.3967403400e+01    0.1516597    0.1224609 -20.14 0.0001867093    1.518    0.341
        11 -10.5123     99.7196    156.2143   1.1168392827e+02   2.9743123253e+01    0.3009073    0.2691522 -51.62 0.0003676357    1.087    0.080
        12 -11.5536    103.2999    150.8076   1.0958518539e+02   3.0456939988e+01    0.6751031    0.4431385 -31.90  0.001464864    1.895    0.472
        13 -12.0924     89.3017    150.0769   1.1327383371e+02   3.3053479775e+01    0.5085765    0.3513234 -35.67  0.000805367    1.643    0.391
        14 -10.0747    134.3160    147.8533   1.0077777340e+02   2.5230786774e+01    0.4734992    0.1479155 -55.19  0.001263375    4.004    0.750
        15  -9.5150    128.7536    140.1329   1.0042077659e+02   2.8187704852e+01    0.2922719    0.2136283  53.91  0.001322791    1.472    0.320
        16 -10.3733    112.6034    136.5437   1.0386580271e+02   3.2221101026e+01    0.4566558    0.3154337 -35.07  0.002019653    1.595    0.373
        17 -10.8871    102.1481    135.9126   1.0660300141e+02   3.4320985730e+01    0.3040904    0.2761526 -30.81 0.0003883607    1.141    0.123
        18 -10.2855    105.9510    130.9730   1.0438639013e+02   3.4808218970e+01    0.3703656    0.3380791 -68.71  0.001069423    1.116    0.104
        19  -9.0992    117.9902    128.0755   1.0038441786e+02   3.3176451709e+01    0.2441743    0.1907878 -10.86 0.0006603927    1.662    0.398
        20 -10.1558    193.0010    195.0830   9.7323419576e+01   3.1827271620e+00    0.6253681    0.2955975 -62.48   0.00179708    5.118    0.805
        21  -9.4652    106.5525    123.7827   1.0247999609e+02   3.6388829111e+01    0.2764661     0.227772  -8.85 0.0006769424    1.458    0.314
        22  -9.6677    154.3642    239.8045   1.1356472243e+02   9.4210946831e-01    0.1869919    0.1229583 -38.28 0.0009501589    1.702    0.412
        23  -9.0513    231.0163    113.6926   7.3258808193e+01   1.2283190046e+01    0.1860295    0.1724087 -83.18 0.0009117796    1.129    0.114
        24  -9.3085    167.8232    112.9206   8.4499013737e+01   2.5848182814e+01    0.3584464    0.2280652 -73.91  0.001398184    2.371    0.578
        25  -9.1647    205.7689    110.3799   7.6607796619e+01   1.8049022440e+01    0.1887454    0.1362487  45.92 0.0005421722    1.570    0.363
        26 -10.6413    249.3125    235.8880   9.4118100397e+01  -1.2575697686e+01    0.2722873    0.1427531 -51.82  0.001280858    2.985    0.665
        27  -9.1817    167.0636    226.3574   1.0863490635e+02   1.4231520532e+00    0.1942572    0.1694759  31.10 0.0005624054    1.084    0.077
        28 -10.6354    149.4777    209.0280   1.0948618014e+02   8.0835381743e+00    0.4365402    0.2936178   1.21  0.001829832    2.395    0.582
        29 -12.1391    162.3300     57.1124   7.1409439772e+01   3.7061905235e+01     0.506597    0.4495953 -85.31  0.001217973    1.093    0.085
        30  -8.8064    153.2601    184.4306   1.0396820454e+02   1.2876880802e+01    0.2121373    0.1424833  51.39 0.0009396986    1.604    0.376
        31 -11.5985    247.5672    247.6272   9.6458763554e+01  -1.4091990713e+01    0.4144277    0.3521258  12.08    0.0029782    1.259    0.206
        32 -11.2889    180.7110     35.4622   6.3137717770e+01   3.5786067319e+01    0.3672048    0.2764657  56.83  0.000878206    1.335    0.251
        33  -9.3522    189.1174    178.4930   9.4788877471e+01   7.3348411717e+00    0.3414763    0.2427162  67.39  0.001540936    2.003    0.501
