#   1 NUMBER                 Running object number                                     
#   2 MAG_AUTO               Kron-like elliptical aperture magnitude                    [mag]
#   3 X_IMAGE                Object position along x                                    [pixel]
#   4 Y_IMAGE                Object position along y                                    [pixel]
#   5 X_WORLD                Barycenter position along world x axis                     [deg]
#   6 Y_WORLD                Barycenter position along world y axis                     [deg]
#   7 A_WORLD                Profile RMS along major axis (world units)                 [deg]
#   8 B_WORLD                Profile RMS along minor axis (world units)                 [deg]
#   9 THETA_WORLD            Position angle (CCW/world-x)                               [deg]
#  10 FWHM_WORLD             FWHM assuming a gaussian core                              [deg]
#  11 ELONGATION             A_IMAGE/B_IMAGE                                           
#  12 ELLIPTICITY            1 - B_IMAGE/A_IMAGE                                       
         1 -10.0492     40.7454     12.2807   8.0441552194e+01   6.8725602759e+01    0.2168518     0.131041 -33.26  0.001280172    1.503    0.335
         2 -10.3861     56.8320      9.8013   7.2302270086e+01   6.6706113898e+01     0.155885    0.1465358  -4.76  0.001081105    1.355    0.262
         3 -10.0677     71.7721      6.7512   6.5287631057e+01   6.4476455095e+01     0.187564    0.1064328  61.09 0.0008976425    2.488    0.598
         4 -10.1076     35.0229      5.5334   7.9689050590e+01   7.0379674835e+01    0.1370765      0.10367  55.50 0.0007945494    2.521    0.603
         5  -9.6466     24.3207      4.6533   8.4605508728e+01   7.1754055921e+01   0.09798399   0.08987277 -43.21 0.0004580581    1.734    0.423
         6 -10.7887     98.1775    226.3475   1.1262648982e+02   1.4924514964e+01    0.2565537    0.1081557  32.84  0.001114397    2.770    0.639
         7 -10.9467    126.1950    220.8632   1.0645477121e+02   1.1577736681e+01    0.1952272    0.1524342  63.63  0.000571869    1.246    0.197
         8  -9.9732    131.4876    214.4775   1.0453494757e+02   1.1874763280e+01    0.1297671     0.113303  47.50 0.0004842476    1.036    0.034
         9 -10.2080     89.7743    199.6158   1.1129151435e+02   2.1437653989e+01    0.1923243    0.1016881  49.68 0.0009506574    1.704    0.413
        10 -10.1217    126.3441    197.5048   1.0317282287e+02   1.5995326289e+01    0.2316242    0.1675424 -32.12   0.00120462    1.868    0.465
        11 -11.4333    173.0142    195.9700   9.3062595866e+01   7.9866455898e+00    0.2448556    0.1882593  39.91 0.0009801756    1.189    0.159
        12  -9.9746    174.1457    192.1152   9.2142088688e+01   8.4701517866e+00    0.2323327    0.2131793 -28.19 0.0006035769    1.163    0.140
        13 -10.1212     67.7636    195.7622   1.1551047888e+02   2.5370473215e+01     0.206006   0.07455251  47.24 0.0007683503    2.453    0.592
        14  -9.9492     44.6434    194.3273   1.2017890415e+02   2.8563975717e+01    0.1342373   0.07178289  67.01 0.0002587458    1.778    0.438
        15 -10.0508    139.6471    190.3433   9.9166496344e+01   1.5096798118e+01    0.1467114    0.1037514  72.67 0.0007040384    1.814    0.449
        16 -10.6280    156.8395    188.1368   9.5074350086e+01   1.2399247408e+01    0.2159067    0.1892446  64.96   0.00123229    1.230    0.187
        17 -11.9155     97.2031    187.8640   1.0815810477e+02   2.2796029919e+01     0.574604    0.1938806  44.06  0.002226552    2.676    0.626
        18 -10.7258    110.4979    187.0011   1.0507239125e+02   2.0835849622e+01    0.3174714    0.1441858  54.56  0.001271184    2.473    0.596
        19  -9.9278    212.4999    182.5175   8.2660133742e+01   3.1128792222e+00    0.1379789    0.1204896   6.54 0.0008103497    1.021    0.020
        20  -9.6771     44.9912    183.0000   1.1906478151e+02   3.0991443513e+01    0.1827254   0.06648634  33.85 0.0007502073    2.901    0.655
        21 -10.8453     78.8802    176.8148   1.1080204747e+02   2.8001128908e+01    0.5312902    0.1266921  49.59    0.0015304    5.126    0.805
        22 -10.2108     61.9209    178.0000   1.1480901212e+02   3.0047277416e+01    0.2010981   0.07009485  34.95 0.0008065724    2.971    0.663
        23  -9.7583    204.2992    176.3556   8.3014794755e+01   5.6493388701e+00    0.1462263    0.1031241   0.71 0.0007036399    1.702    0.413
        24 -10.2652     12.1676    184.6446   1.2599798747e+02   3.3976275231e+01    0.2004013    0.1211105  83.93    0.0006289    1.310    0.237
        25  -9.9132    135.6623    172.3226   9.6927880007e+01   1.9543018267e+01    0.1503504    0.1101928  75.41 0.0007050726    1.716    0.417
        26 -10.6119    122.9615    170.8535   9.9603633398e+01   2.2181015480e+01    0.3627118    0.1630984  57.56  0.001240723    3.212    0.689
        27 -10.1879     56.3867    170.6017   1.1520544882e+02   3.2433843522e+01     0.254939   0.07572075  47.20 0.0009575009    3.260    0.693
        28 -10.5912    140.4742    165.9887   9.4632886446e+01   1.9990744985e+01    0.3331006    0.1734088  57.57   0.00126808    2.479    0.597
        29 -10.4880     81.0851    165.2153   1.0865796601e+02   3.0343237000e+01    0.3839419    0.1937401  68.90  0.001454732    3.056    0.673
        30 -10.4971     94.2657    161.3109   1.0484552616e+02   2.9232146021e+01    0.2895988    0.1435496  56.37  0.001164786    2.382    0.580
        31 -10.1227      9.7829    161.2058   1.2482868625e+02   3.9330525739e+01     0.214791   0.08368908  65.84 0.0009625122    2.843    0.648
        32  -9.7896     24.0004    160.3309   1.2156914801e+02   3.8300908704e+01    0.2005444    0.0478526  49.73 0.0007051883    4.358    0.771
        33 -10.5080    107.1998    158.9832   1.0127354302e+02   2.7628183723e+01    0.4728721    0.1948912  55.04   0.00157816    3.342    0.701
        34 -10.4532    120.9739    156.9701   9.7530565137e+01   2.5642913001e+01    0.2473851    0.1770739  76.56  0.001141007    1.761    0.432
        35 -10.8027     51.0249    156.0268   1.1470132867e+02   3.6483102253e+01    0.4395971    0.1572609  52.75  0.001673014    3.308    0.698
        36 -10.7494     83.5120    156.0107   1.0664403384e+02   3.2144418963e+01    0.4098793    0.1427997  50.76  0.001386025    3.468    0.712
        37 -10.5960     69.6485    154.8414   1.0993070070e+02   3.4407384103e+01    0.3586326    0.1175862  44.09  0.001343412    3.007    0.667
        38 -10.5490    134.8580    154.2319   9.3628824994e+01   2.3639458524e+01    0.3529453    0.1961821  59.15  0.001371173    2.321    0.569
        39  -9.9414     99.3263    151.6618   1.0191834569e+02   3.0668785449e+01    0.1531995    0.1071966  77.24 0.0005036956    1.726    0.421
        40 -10.1155     29.3062    150.7374   1.1936656947e+02   4.0031331248e+01    0.3129939    0.1224235  66.74  0.001142705    3.941    0.746
        41 -10.7412     40.9043    148.7399   1.1629032826e+02   3.9340882186e+01     0.412046    0.1578141  50.24   0.00173997    2.846    0.649
        42 -11.4486    109.5679    146.8206   9.8402338096e+01   3.0046537702e+01    0.7523565    0.3223563  58.49   0.00223378    4.238    0.764
        43 -11.3706     57.2821    146.6591   1.1186674602e+02   3.7969078615e+01    0.5822672    0.2404267  58.76  0.002104143    3.574    0.720
        44 -11.6825    150.8994    146.2827   8.8120338125e+01   2.2179379556e+01    0.6187825    0.3244489  62.04  0.002103286    3.080    0.675
        45  -9.8320     79.0089    147.5240   1.0639630380e+02   3.4837379948e+01    0.2069877     0.101919  57.75 0.0008099416    2.576    0.612
        46 -10.2625     13.7764    146.6069   1.2268290514e+02   4.2344869910e+01     0.161217   0.09618622  48.10 0.0009536963    1.739    0.425
        47 -10.9756    126.9377    144.7904   9.3606619693e+01   2.7299521691e+01    0.4172173    0.2267848  62.03   0.00151217    2.717    0.632
        48 -10.7131     89.4905    144.9065   1.0321781838e+02   3.3871711947e+01    0.3668568     0.207452  55.07  0.001604788    1.991    0.498
        49  -9.7834      3.3470    142.6689   1.2481276098e+02   4.4023933897e+01     0.126081   0.06928344  69.33 0.0005984459    1.763    0.433
        50 -10.8771     24.4817    139.0707   1.1928069444e+02   4.3221151695e+01    0.4477843    0.1896695  63.91  0.001866981    3.158    0.683
        51 -10.5649     39.4941    136.1876   1.1503480692e+02   4.2493119943e+01    0.2597603    0.1450194  53.24  0.001318057    1.952    0.488
        52 -10.6439    114.6155    134.4125   9.4524122685e+01   3.2043094668e+01    0.3896631    0.1695302  53.67  0.001306875    3.013    0.668
        53 -11.3113     84.9600    132.7962   1.0214839211e+02   3.7501262131e+01    0.5864805    0.2746907  55.03  0.002186996    2.844    0.648
        54 -11.2130    133.5244    133.0057   8.9344413642e+01   2.8684599442e+01    0.4022452    0.2481729  66.28  0.001554623    2.347    0.574
        55 -10.7802    144.8215    132.6875   8.6468861285e+01   2.6423418528e+01    0.3964503     0.129167  51.78  0.001089409    4.038    0.752
        56 -10.5845    154.3851    130.5159   8.3648520881e+01   2.4862773261e+01    0.3250787    0.2249554  78.05  0.001303351    2.231    0.552
        57 -11.4500    101.2375    129.6157   9.7052405014e+01   3.5591689430e+01    0.6593192    0.3204792  54.39  0.002448115    2.632    0.620
        58 -10.7154     13.6591    130.0798   1.2106585248e+02   4.6214429514e+01    0.3183688    0.1600472  60.47  0.001631981    2.239    0.553
        59 -10.5323    171.0155    130.8173   7.9892977208e+01   2.1174427642e+01    0.4176992    0.1160072  52.64  0.001018486    5.129    0.805
        60 -10.9677     74.4644    130.2182   1.0454709729e+02   3.9687462651e+01    0.3470553    0.1678721  53.22   0.00138968    2.553    0.608
        61 -11.0082    120.7021    127.1657   9.1287854837e+01   3.2576625508e+01    0.6296476     0.289042  58.21  0.001967445    3.552    0.719
        62 -11.3207     60.9083    125.7150   1.0752375648e+02   4.2605586658e+01    0.5857244    0.2987065  63.94  0.002274017    3.068    0.674
        63 -11.4998     45.1112    124.0330   1.1171090707e+02   4.4850495295e+01    0.6798607    0.3411381  69.06   0.00269998    3.177    0.685
        64 -11.6198     29.5591    123.3680   1.1597231306e+02   4.6525597434e+01    0.7701116    0.3376941  71.58  0.002739693    4.246    0.765
        65 -10.3274    181.2178    125.8063   7.6431378114e+01   1.9937999473e+01    0.3444042    0.1222654  53.91  0.001022263    3.526    0.716
        66 -11.4902    143.4513    120.4622   8.3820083394e+01   2.9419594582e+01    0.5290714    0.3029231  58.00  0.002042178    2.140    0.533
        67 -10.3854     72.6260    121.2086   1.0332002177e+02   4.2142522161e+01    0.3345068    0.1708715  50.40  0.001411393    2.306    0.566
        68 -10.7183    132.7110    120.2312   8.6480495585e+01   3.1746504214e+01    0.3821892     0.208512  58.15  0.001413285    2.373    0.579
        69 -10.5706      3.7047    118.2919   1.2244073790e+02   4.9643473207e+01    0.3655843    0.1580034  72.79  0.001616413    3.031    0.670
        70 -11.1121    111.1051    115.9568   9.1193159569e+01   3.7032279276e+01    0.4998433     0.326684  77.10  0.001943341    2.537    0.606
        71 -11.3020     80.9143    114.2778   9.9439089842e+01   4.2606704173e+01     0.590952    0.3560304  66.91  0.002417285    2.536    0.606
        72 -11.6350     95.1726    113.8101   9.5175206995e+01   4.0411174103e+01    0.7139996    0.2682119  45.31  0.002487507    2.934    0.659
        73 -10.5344    123.6104    113.6256   8.7201667017e+01   3.5115950359e+01    0.3849259    0.1429149  48.11  0.001242301    2.950    0.661
        74 -10.8089     14.9840    111.5648   1.1850148472e+02   5.0492560942e+01    0.3433276    0.1902012  70.06  0.001768809    2.182    0.542
        75 -10.9278     67.9535    111.8200   1.0276250250e+02   4.5067195183e+01    0.3967711     0.231604  53.41  0.001802872    2.096    0.523
        76 -10.0782    134.8103    110.5888   8.3460440048e+01   3.3460382068e+01     0.229577    0.1489845  57.09 0.0009554652    1.764    0.433
        77 -11.7424     47.0901    103.7801   1.0752416151e+02   4.9541806324e+01    0.7970499     0.388922  62.51  0.002906519    3.930    0.746
        78 -11.0678    141.6688    106.0904   8.0501137694e+01   3.2950007082e+01    0.4633471    0.2238311  57.74  0.001570087    2.743    0.635
        79 -11.7082     23.9174    103.4229   1.1466368453e+02   5.1766430363e+01    0.7168086    0.3359174  66.40  0.002836775    3.739    0.733
        80 -10.5888    151.5156    104.6492   7.7675650211e+01   3.1043837341e+01    0.3567054    0.2406281  85.93  0.001328442    2.573    0.611
        81 -11.1238    130.7476    103.4442   8.2598730792e+01   3.5905116127e+01    0.5233735    0.2532996  51.80  0.001912851    2.312    0.567
        82 -10.6279      7.5389    103.8861   1.1967236216e+02   5.2778507865e+01    0.2268906    0.1356573  50.36  0.001318833    1.978    0.495
        83 -11.8435    112.5327    100.9994   8.6920031962e+01   4.0194661705e+01    0.9808111    0.4178282  56.15  0.002953778    3.886    0.743
        84 -10.5827     83.7851    101.2763   9.5502331731e+01   4.5256640919e+01    0.4256743    0.1878074  50.16  0.001542849    2.989    0.665
        85 -11.4070     65.6062     97.3459   1.0024267509e+02   4.8847333079e+01    0.6643369    0.3449621  55.18  0.002666733    2.879    0.653
        86 -10.7457     96.7489     98.1548   9.0755353066e+01   4.3797736666e+01    0.4673817    0.2058718  45.25   0.00175614    2.494    0.599
        87 -10.8001    141.0806     93.5865   7.7144352479e+01   3.5732187639e+01    0.4027851    0.2535886  60.86  0.001641648    1.913    0.477
        88 -11.2248    127.4906     92.4449   8.0360659116e+01   3.8983781691e+01    0.7073022    0.3131168  52.49  0.002461283    2.608    0.617
        89 -10.7551      7.5792     92.9599   1.1815664612e+02   5.5319254347e+01    0.4807637    0.1564237  31.84  0.002207866    3.462    0.711
        90 -11.4226     35.7841     90.8328   1.0857652233e+02   5.3742668189e+01      0.41728    0.2663694  81.63  0.002077515    2.185    0.542
        91 -11.3462     88.9147     88.4031   9.0472313328e+01   4.7372140225e+01    0.6659337    0.3236819  53.69  0.002437308    2.998    0.666
        92 -11.4469     50.8884     86.3927   1.0247951169e+02   5.3231596744e+01    0.6652213    0.3389776  55.34  0.002678727    3.274    0.695
        93 -11.3208    107.8752     85.1632   8.3738746459e+01   4.4598297489e+01    0.7575908    0.3640676  54.39  0.002725681    2.767    0.639
        94  -9.5991    160.4851     84.4789   6.9840933769e+01   3.2996540608e+01    0.1556117    0.1529643 -29.22 0.0008101116    1.009    0.009
        95 -10.4923    143.0765     84.2261   7.3884383974e+01   3.7175000042e+01    0.4320022    0.1918301  59.16   0.00139587    3.016    0.668
        96 -11.0381     25.6747     81.7503   1.1016331306e+02   5.6707829196e+01    0.4525349     0.245735  58.01  0.002120401    2.877    0.652
        97 -10.0827    121.2998     81.8553   7.8885409627e+01   4.2529718905e+01    0.3062964     0.185293  60.42  0.001225826    2.135    0.532
        98 -10.6075     75.7608     81.8907   9.2871191431e+01   5.0949876289e+01    0.2672412    0.1871989  66.15  0.001240887    2.134    0.531
        99 -10.8001     11.1626     81.7803   1.1519077324e+02   5.7687349024e+01    0.4522724    0.1292961  37.14   0.00184911    4.225    0.763
       100  -9.8583    151.9982     81.5131   7.0913037068e+01   3.5601754789e+01    0.2439355     0.155546  52.09 0.0008981031    1.599    0.375
       101 -10.8620    130.3765     77.0171   7.4920456158e+01   4.1505474512e+01    0.5382469    0.2593288  57.25  0.001924133    2.553    0.608
       102  -9.9445    142.4622     76.4951   7.1675093029e+01   3.8822186291e+01    0.2852604    0.1537361  62.82  0.001039375    2.413    0.586
       103 -10.9306     84.5573     74.7712   8.7829129632e+01   5.1086604448e+01    0.5012766    0.3221805  67.09  0.002045698    2.801    0.643
       104 -10.1971     43.9356     73.7176   1.0174050613e+02   5.6873280641e+01    0.2771745    0.1372547  43.14  0.001270078    2.591    0.614
       105 -10.3032    107.4652     72.9693   8.0060239769e+01   4.7211711217e+01    0.3500072    0.1890844  50.32  0.001433306    2.060    0.514
       106 -10.4540     96.3391     72.6905   8.3376211930e+01   4.9428285326e+01    0.3107038    0.2504755 -86.40  0.001527758    1.764    0.433
       107  -9.8950      7.9448     73.3191   1.1479719823e+02   5.9784823253e+01    0.2746376   0.09802288  44.35  0.001121975    4.337    0.769
       108 -10.9142     53.0926     71.3019   9.7736644760e+01   5.6378704051e+01    0.4377303    0.3122783  63.00  0.002256658    2.103    0.524
       109 -10.9060     17.6649     70.8310   1.1074920963e+02   5.9759615340e+01    0.2842501    0.1953432  50.95   0.00169878    1.936    0.483
       110 -10.2087    148.5979     69.1885   6.7919627086e+01   3.8711453045e+01     0.300747    0.1222977  55.92   0.00101405    2.622    0.619
       111 -10.1099    123.7071     67.4655   7.3631320784e+01   4.4828648071e+01    0.2944362     0.151325  53.62  0.001147178    2.119    0.528
       112 -10.6859     38.9256     65.5079   1.0139676276e+02   5.9189453296e+01    0.4106315    0.2273506  52.19  0.001883863    2.931    0.659
       113 -10.4394    112.4586     65.1371   7.6004805640e+01   4.7705486704e+01    0.4117597     0.203234  56.65   0.00152895    2.610    0.617
       114 -10.2141    102.0094     62.0286   7.8055874947e+01   5.0433800406e+01    0.3187205    0.2128211  71.49  0.001313758    2.573    0.611
       115 -11.0684     75.9879     60.8899   8.6219576504e+01   5.5348423967e+01    0.5476413    0.2412844  45.41  0.002199923    2.707    0.631
       116 -10.6142     27.1312     60.5219   1.0463237109e+02   6.1326800672e+01    0.3293167    0.1702008  43.16  0.001634882    2.684    0.627
       117 -11.1849      9.1644     58.4894   1.1128569795e+02   6.2984277996e+01    0.3751076    0.1991463  39.02  0.002075407    2.522    0.603
       118 -10.0518    132.9549     59.0000   6.8391337440e+01   4.4232545868e+01    0.2516015   0.08534077  52.41  0.000803639    2.951    0.661
       119 -10.4175    121.6091     57.5602   7.0855064904e+01   4.7084743648e+01    0.3637696     0.219414  60.50   0.00154007    1.980    0.495
       120 -10.7043     55.4736     55.6776   9.1992834433e+01   5.9365356892e+01    0.3531679     0.265566 -87.67  0.001786383    2.358    0.576
       121 -10.6687     46.0136     56.9154   9.6083927741e+01   6.0258792675e+01     0.358775     0.191199  47.56   0.00164392    2.806    0.644
       122  -9.7253    140.9940     57.0000   6.5765741307e+01   4.2659199495e+01    0.2529994   0.08525146  54.22 0.0008037639    2.952    0.661
       123 -10.1375    108.8259     55.6617   7.3783082737e+01   5.0198040865e+01    0.2501388    0.1861514  55.15 0.0008111091    1.496    0.331
       124 -10.6667     64.3522     55.9731   8.8732322951e+01   5.8093609556e+01    0.3667096    0.2250761  48.48  0.001782003    2.147    0.534
       125 -11.0280     32.9064     52.6492   1.0003115235e+02   6.2482475228e+01    0.4698391    0.2538177  45.17   0.00231851    2.724    0.633
       126 -10.4323     21.6390     53.5337   1.0495438726e+02   6.3237039423e+01    0.2731213    0.1564029  35.63  0.001528883    2.210    0.547
       127 -10.8391     93.9362     51.9099   7.6986037899e+01   5.3861587775e+01    0.3988236    0.2659397  63.95  0.001798735    2.243    0.554
       128 -10.4364     83.7869     48.0481   7.8899291331e+01   5.6427402809e+01    0.3341142    0.1991858  52.88   0.00153153    2.135    0.532
       129  -9.8497    124.0233     46.9927   6.6505889544e+01   4.8283504449e+01    0.2542024    0.1645174  80.09  0.001015038    2.570    0.611
       130 -10.8235     18.1125     45.6291   1.0418287893e+02   6.5123491975e+01    0.2999405    0.1892717  35.20  0.001802652    2.044    0.511
       131 -10.6810     46.2871     45.3722   9.2062142353e+01   6.2519553317e+01    0.2513887    0.1575297  36.41  0.001376521    1.871    0.465
       132 -10.5212     59.4644     43.7378   8.6155032118e+01   6.1109066978e+01    0.2920985    0.2405787  74.35  0.001633164    2.041    0.510
       133 -10.9650      6.2389     42.9954   1.0866240234e+02   6.6390793310e+01    0.3268678    0.2417043  77.95  0.002069744    2.065    0.516
       134 -10.7673     70.9953     42.6519   8.1355014126e+01   5.9550269352e+01    0.4158754    0.2459032  55.84  0.001856581    2.698    0.629
       135 -10.1570    107.4990     42.5282   6.9359090181e+01   5.2658929913e+01    0.2565984     0.141243  62.23  0.001035549    2.459    0.593
       136 -10.5180     38.2557     41.6102   9.4084522536e+01   6.4138183353e+01    0.3146717    0.2005622  42.38  0.001707226    2.111    0.526
       137 -10.2582     97.1426     39.3900   7.1230364035e+01   5.5304242494e+01    0.2670633    0.1823392  62.80  0.001279393    1.942    0.485
       138  -9.8214     82.3683     37.6087   7.5311542689e+01   5.8429357701e+01    0.2468736    0.1265762  58.12 0.0009539071    3.228    0.690
       139 -11.0210     27.7636     36.5247   9.6879820868e+01   6.6133346839e+01     0.270886    0.2120356  45.41  0.001735457    1.839    0.456
       140 -10.1955    113.5340     36.0340   6.5225083172e+01   5.2304315751e+01    0.2961251    0.1897063  75.46  0.001259704    2.438    0.590
       141 -10.8002     51.1331     33.6039   8.5510123623e+01   6.4039690602e+01    0.2910476    0.2196369  50.89  0.001684874    1.938    0.484
       142 -10.6760     62.5055     33.6214   8.0927844541e+01   6.2406633470e+01    0.3717557    0.2169927  53.22  0.001735947    2.676    0.626
       143 -10.5687     74.3374     32.2690   7.5927764527e+01   6.0690586390e+01    0.3943682    0.1764293  50.13  0.001643461    2.790    0.642
       144 -10.7313     13.7426     31.0473   1.0149216005e+02   6.8285011198e+01    0.2774135    0.2086245 -72.64  0.001709399    1.824    0.452
       145  -9.9781    102.9851     30.4824   6.5976620368e+01   5.5383693696e+01    0.2148587    0.1326731  51.47  0.001037757    1.616    0.381
       146 -10.5515     83.1286     28.7588   7.1399793325e+01   5.9621077489e+01    0.3711686    0.2532201  74.61   0.00165779    2.935    0.659
       147 -10.6214      4.3868     28.2686   1.0511829351e+02   6.9387892853e+01    0.2445381    0.1746839  79.97  0.001449987    2.655    0.623
       148 -10.4364     93.2336     27.6694   6.7712206256e+01   5.7796083476e+01    0.3570892    0.2445414  71.63  0.001700078    2.289    0.563
       149 -10.9135     50.8873     22.2679   8.0707017289e+01   6.5895767705e+01    0.3844541    0.2065718  41.56  0.002004814    2.141    0.533
       150 -10.6724     64.8119     21.6013   7.4796049455e+01   6.3863882711e+01    0.2974572    0.2247047  61.61  0.001656375    2.092    0.522
       151  -9.7578     20.6616     22.3207   9.4767602398e+01   6.9328962256e+01   0.09967164   0.09341271 -84.29 0.0007050154    1.713    0.416
       152 -10.5799     75.3564     20.4352   7.0424572361e+01   6.2195758246e+01    0.3398919    0.2287146  62.43  0.001731698    2.233    0.552
       153 -10.1441     40.3326     18.8791   8.3794834795e+01   6.7812326436e+01    0.1983053    0.1620709  28.12  0.001330563    1.432    0.302
       154  -9.8970     89.8044     18.3120   6.4788156061e+01   5.9683634725e+01    0.2620898    0.1231897  59.26  0.001091569    2.650    0.623
       155 -10.3411     31.7546     16.8736   8.6897691790e+01   6.9132646865e+01     0.194671    0.1578782  52.96  0.001239105    2.142    0.533
       156 -10.0271     98.9629     16.1663   6.1227540373e+01   5.8022518954e+01    0.2074654     0.159334 -86.55  0.001080289    2.016    0.504
       157  -9.8025      8.5021     15.9940   9.8439695956e+01   7.1361695870e+01    0.1396453   0.09612501 -71.87 0.0008103728    2.537    0.606
       158  -9.8048     17.9928     14.4917   9.2744986706e+01   7.0875494736e+01    0.1331968   0.09463585  46.53 0.0008092496    2.438    0.590
       159 -10.1801    165.6688    249.3275   1.0258991359e+02   6.9823303487e-01     0.116912   0.08289926  60.59 0.0007051386    1.712    0.416
       160  -9.5736     85.1646     11.3856   6.3135808353e+01   6.1406101271e+01    0.1786803    0.1219043  61.21 0.0009538859    1.763    0.433
       161  -9.9212    237.6967    239.6739   8.8290764741e+01  -8.8629703905e+00    0.1198229   0.07263407   7.92 0.0004239807    1.643    0.391
       162  -9.6947     48.3286     10.6475   7.6252629069e+01   6.7898552736e+01    0.1085018   0.09697918 -52.68 0.0007047192    1.771    0.435
       163  -9.5193     29.3448     10.2973   8.4918832255e+01   7.0394287672e+01    0.1229739   0.07398939  -8.68 0.0007034329    1.672    0.402
       164 -10.1321     73.9857    229.2492   1.1752171665e+02   1.7814960213e+01    0.1568884   0.08485986  43.19 0.0008910891    1.599    0.375
       165 -10.6936    163.0999    225.7903   9.9843415757e+01   4.6548622023e+00    0.3962122    0.2006458  35.73  0.001967459    1.756    0.431
