#   1 NUMBER                 Running object number                                     
#   2 MAG_AUTO               Kron-like elliptical aperture magnitude                    [mag]
#   3 X_IMAGE                Object position along x                                    [pixel]
#   4 Y_IMAGE                Object position along y                                    [pixel]
#   5 X_WORLD                Barycenter position along world x axis                     [deg]
#   6 Y_WORLD                Barycenter position along world y axis                     [deg]
#   7 A_WORLD                Profile RMS along major axis (world units)                 [deg]
#   8 B_WORLD                Profile RMS along minor axis (world units)                 [deg]
#   9 THETA_WORLD            Position angle (CCW/world-x)                               [deg]
#  10 FWHM_WORLD             FWHM assuming a gaussian core                              [deg]
#  11 ELONGATION             A_IMAGE/B_IMAGE                                           
#  12 ELLIPTICITY            1 - B_IMAGE/A_IMAGE                                       
         1 -15.1628     97.6439    168.9935   8.6232459970e+01   2.6757285530e+01     10.26876     5.218692  67.48    0.0245133    6.709    0.851
         2 -12.7701    186.0533     56.9077   3.8239437689e+01   3.1773611852e+01     1.751935    0.8929434  41.80  0.005315816    2.727    0.633
         3 -13.4754    207.6200     39.7527   3.1598258009e+01   2.9436369207e+01    0.9423421    0.7769587 -29.71  0.001042997    1.502    0.334
         4 -12.7720    230.8287     18.2199   2.5131448181e+01   2.7328648623e+01    0.7710214    0.4663777 -89.36  0.004959343    1.476    0.322
         5 -12.1181    233.4062     11.8921   2.3774691162e+01   2.7532165053e+01    0.6428428    0.3288488 -88.46  0.003134243    1.839    0.456
         6  -9.4570     60.3444     21.0784   5.6547768754e+01   6.3517053519e+01    0.1664343    0.1396478   9.63 0.0004080076    1.102    0.092
         7 -11.4870    140.2727    248.8104   8.8527406991e+01   2.2867793827e+00    0.3966722     0.297024  42.23  0.002294156    1.326    0.246
         8 -11.5146    124.9973    246.9747   9.1680373706e+01   4.8538248578e+00    0.6847674    0.3214311 -44.54  0.003102737    2.437    0.590
         9 -11.7849     74.9377    247.1734   1.0287624958e+02   1.1818610186e+01    0.6939871    0.2998724 -61.14  0.003226941    2.469    0.595
        10 -11.9234     71.2661    240.9612   1.0305852478e+02   1.3592867066e+01    0.3457297     0.255005 -76.61 0.0004569686    1.449    0.310
        11 -16.2851      2.9102     89.0032   1.0262623430e+02   5.7344780712e+01     18.27307      2.49386 -69.00   0.03814119   10.402    0.904
        12 -10.8011     73.1393    202.9809   9.8209079405e+01   2.1962563243e+01     0.540484    0.3291841 -43.92  0.001816979    1.875    0.467
        13 -10.1432     86.0648    203.8329   9.5034014484e+01   1.9940666721e+01    0.2706025    0.2376522 -72.47 0.0004050819    1.166    0.142
        14  -9.5582     89.9796    202.2462   9.3805340714e+01   1.9746505053e+01    0.2478013    0.2311358 -12.62 0.0004181476    1.175    0.149
        15 -11.2061    192.4546    193.9462   6.7664598729e+01   4.7940323460e+00    0.8643476    0.4734553 -65.37  0.002692362    5.116    0.805
        16 -10.1160     82.7010    195.0358   9.4633284895e+01   2.2554542497e+01    0.4494202    0.3106326  13.97  0.002123961    1.750    0.428
        17 -10.2419    163.4690    193.0054   7.3909910740e+01   9.8018169796e+00    0.3656368    0.2143492 -65.18  0.001405607    2.803    0.643
        18 -10.2247     56.1762    192.5786   1.0123831875e+02   2.6712868938e+01    0.2763349    0.2172884  70.85 0.0005716278    1.292    0.226
        19  -9.1630     56.4878    187.8260   1.0055262950e+02   2.7861004273e+01    0.3355021    0.1386726 -70.52  0.001275446    2.527    0.604
        20 -12.4965     58.0802    178.7753   9.8906354409e+01   2.9953261773e+01    0.8286006    0.6961009 -33.35   0.00286288    1.334    0.250
        21  -9.0637    185.4521    189.4990   6.8294149769e+01   6.8178733536e+00    0.1455789    0.1285553 -12.46 4.513313e-05    1.017    0.017
        22 -15.1027     10.2649    206.5356   1.1376325353e+02   2.8117947907e+01    0.8323929    0.5439961   1.88   0.00458548    2.299    0.565
        23 -11.8185    120.6000    180.4989   8.2151041538e+01   2.0072648384e+01    0.4374622    0.3646231  73.69   0.00135664    1.463    0.317
        24  -9.8114     74.6792    181.7033   9.4781199157e+01   2.7014798823e+01    0.4950676    0.2829275  69.22  0.001902408    2.652    0.623
        25  -9.3327     73.6836    178.3732   9.4541202985e+01   2.7997497509e+01    0.3229598    0.2140035 -87.38  0.001121641    1.863    0.463
        26 -10.9660     99.1845    180.8108   8.7939579491e+01   2.3558869383e+01    0.3644759    0.3039834 -47.58 0.0006734285    1.205    0.170
        27  -9.1031     41.3584    181.0875   1.0373594048e+02   3.1309337233e+01    0.2121721    0.1903327   4.45  0.000369912    1.314    0.239
        28  -8.4851     47.0707    172.4579   1.0108525117e+02   3.2876159524e+01    0.3390779    0.1785639 -46.46  0.001271503    1.994    0.499
        29 -10.0856     39.4340    176.7083   1.0372500000e+02   3.2625076588e+01    0.5351389    0.2701949 -38.04  0.001965208    2.622    0.619
        30  -9.7842     43.3412    176.3124   1.0261442623e+02   3.2305518795e+01    0.2976293    0.2175223  -3.94  0.001521567    1.800    0.445
        31 -11.0867     86.8876    173.0456   8.9981220867e+01   2.7425713783e+01    0.4875387    0.4407703 -13.71  0.001647133    1.202    0.168
        32  -8.9349     45.0980    246.5057   1.0922771450e+02   1.5655565317e+01    0.1710547    0.1053961  38.91 0.0007966575    1.442    0.307
        33 -11.1240     83.1221    154.7228   8.7725313627e+01   3.2676634567e+01    0.4408107    0.3189134 -28.38 0.0004316089    1.595    0.373
        34 -11.7034     71.2077    166.3325   9.3301903883e+01   3.1423475924e+01    0.4753372    0.3371664 -25.02  0.001717607    1.751    0.429
        35 -11.6508     74.9939    162.0717   9.1473360944e+01   3.1988933890e+01    0.5218961    0.4006949   5.93   0.00254391    1.549    0.355
        36 -12.8940     71.2603    149.7375   9.0353360439e+01   3.5699408150e+01    0.5687405    0.4749439 -27.26  0.001032652    1.277    0.217
        37 -13.5437     70.6820    145.1200   8.9653523959e+01   3.6969758574e+01     1.307526    0.8851058 -80.83  0.003136072    1.845    0.458
        38 -10.4764    137.8416    173.1462   7.6235003279e+01   1.8761966194e+01    0.2216252    0.1821065 -13.83 0.0006324619    1.330    0.248
        39  -8.9807     77.2928    173.3426   9.2728332469e+01   2.8768504361e+01    0.1545193    0.1103862 -30.81 0.0007028395    1.657    0.396
        40  -9.9721     34.9588    171.7636   1.0434491473e+02   3.4345130416e+01    0.2372075    0.1817787 -81.03 0.0003825187    1.213    0.176
        41  -9.6662    187.8166    170.3460   6.3921472830e+01   1.0305167129e+01    0.2499889    0.1922808 -47.96 0.0006808465    1.322    0.243
        42 -10.8726    230.7657    167.8729   5.5137914961e+01   3.6647950238e+00    0.2563319    0.1749254 -52.27  0.001366519    1.608    0.378
        43  -9.0614    101.0135    162.4778   8.4034825407e+01   2.7839435652e+01    0.2273551     0.205616 -57.15 0.0003757436    1.106    0.096
        44  -8.6027     63.3030    156.3227   9.3937530344e+01   3.5074521588e+01    0.1539343    0.1072345 -32.32 0.0003641421    1.635    0.388
        45 -10.0217     32.4876    156.1814   1.0306433789e+02   3.8583860405e+01    0.2531666    0.2052429  -0.39 0.0009397941    1.470    0.320
        46 -11.9331    133.9107    146.0930   7.1442099745e+01   2.5856552422e+01     1.414943    0.3662719 -54.64  0.003108154    6.207    0.839
        47 -12.1088     90.4605    148.4003   8.4276928463e+01   3.3132897462e+01    0.7749918     0.517438 -16.57  0.003194452    2.088    0.521
        48 -15.0860      2.1736    207.4486   1.1561438987e+02   2.8587438392e+01     1.475598    0.1786072 -74.05  0.004348824    5.732    0.826
        49  -9.1452    174.5059    149.0503   6.2238258245e+01   1.7231127302e+01    0.2362255     0.143225 -45.22 0.0008227665    1.579    0.367
        50 -11.1523     54.9994    147.8778   9.5015863342e+01   3.8309101110e+01    0.6730044    0.5822068 -45.12  0.003706069    1.115    0.103
        51 -11.7728    104.9229    133.3296   7.6626317254e+01   3.4393854424e+01    0.9024294    0.4923489 -35.89   0.00336881    2.101    0.524
        52 -11.6362     90.9153    135.0817   8.1273849754e+01   3.6404173649e+01    0.3297253    0.2764971 -41.69 0.0003662656    1.154    0.134
        53  -8.6646     37.9453    137.0144   9.8551292192e+01   4.2993767739e+01    0.1603986    0.1550135 -32.48 0.0004621696    1.098    0.089
        54 -10.7479    135.3941    129.8224   6.7217369797e+01   2.9320407299e+01     0.377314    0.2429741 -45.32  0.001227411    1.529    0.346
        55 -11.1575     44.1430    129.8540   9.5289671991e+01   4.4186132205e+01     0.305888    0.2262692  42.62  0.001250996    1.513    0.339
        56 -10.2163    112.3731    127.6257   7.3068882773e+01   3.4374119998e+01    0.3303386    0.2649619 -11.00 0.0007226463    1.442    0.307
        57  -9.6977    143.4115    126.3864   6.4306849591e+01   2.8444450427e+01    0.2739391    0.2549298 -89.94  0.001417522    1.206    0.171
        58  -9.8402    126.0429    126.4041   6.8897176955e+01   3.1985716839e+01    0.2978628    0.2221318 -63.65 0.0005926816    1.573    0.364
        59  -9.4282     76.6534    124.8608   8.3486957208e+01   4.1219104554e+01    0.2119738     0.140855 -65.43 0.0003793261    1.688    0.408
        60 -10.4311     99.2519    123.3960   7.5960307855e+01   3.7809162200e+01    0.3118724    0.2598172  -9.53 0.0006826579    1.316    0.240
        61 -10.3044    117.5170    122.8513   7.0404612769e+01   3.4493275116e+01    0.3280314    0.2120755  19.63  0.001323774    1.986    0.496
        62  -8.7256    163.2800    120.7072   5.8163771465e+01   2.5495876268e+01    0.2361391    0.2077742 -82.96 0.0004420851    1.308    0.236
        63  -9.2399    160.8240    117.7844   5.8006951864e+01   2.6620773418e+01    0.2793319     0.193834 -69.85 0.0007607036    1.976    0.494
        64 -11.5619     34.2341    119.0545   9.6651686437e+01   4.7904621005e+01    0.4894972    0.2866867 -27.81  0.002166823    1.938    0.484
        65 -10.2016     45.2558    117.9965   9.2620494516e+01   4.7051209117e+01    0.2061427    0.1706686 -51.90 0.0003390007    1.094    0.086
        66  -9.3723    108.1792    117.2291   7.1710014958e+01   3.7597729823e+01    0.2263851    0.2043976  -1.15 0.0003376986    1.136    0.120
        67  -9.8653    134.5740    105.8124   6.1333347440e+01   3.4728501735e+01    0.3919504    0.1480657 -45.98  0.001312781    2.692    0.628
        68  -9.6533    205.4539    110.3053   4.7437311334e+01   1.8810836614e+01    0.2238774    0.2199113  50.93 0.0005938003    1.132    0.117
        69 -11.0374     53.1132    110.2074   8.8171047326e+01   4.8053517121e+01    0.3380799    0.1934682 -68.58  0.001433543    2.103    0.525
        70 -10.3687    118.6953    109.9520   6.6748470477e+01   3.7158124000e+01    0.2519066    0.2109393  38.24 0.0006244835    1.191    0.160
        71 -11.3251    114.9418    108.4044   6.7414515857e+01   3.8254003930e+01    0.4697249    0.2882833 -40.69  0.002010872    1.641    0.390
        72 -11.6514     45.6600    105.8944   8.9878517230e+01   4.9964774138e+01    0.3284988    0.2889202   4.16  0.001250808    1.175    0.149
        73 -10.0381     59.5899    100.7151   8.3554200397e+01   4.9472459687e+01    0.2469285    0.1707651  48.63 0.0009337747    1.796    0.443
        74 -11.3618     31.7986     99.5471   9.3621056556e+01   5.2882211516e+01    0.3692239    0.2721352  39.72  0.002019807    1.610    0.379
        75 -10.2517    120.8123     98.8118   6.3144513786e+01   3.9090733285e+01    0.2346573    0.2090058  -6.58 0.0007736116    1.185    0.156
        76  -9.8970    105.9773     98.4876   6.7366292744e+01   4.2173402250e+01    0.3026974    0.2432923  67.56  0.001457112    1.589    0.371
        77 -11.5722     18.8076     94.0899   9.7437970308e+01   5.5219257067e+01    0.3918272    0.2470549 -39.57  0.001238294    1.373    0.272
        78  -9.6895     52.6571     93.3170   8.4219917807e+01   5.2070745671e+01    0.1374199    0.1121528  66.49 0.0005863785    1.715    0.417
        79 -10.6402    119.0600    103.9699   6.5044700314e+01   3.8373985367e+01    0.2375353    0.2289259   7.81 0.0004634619    1.008    0.008
        80 -11.7235    137.8959    241.0062   8.7942742174e+01   4.1004924282e+00    0.4260922    0.2206491  22.87  0.001903231    2.019    0.505
        81 -12.9652    200.5048     46.0165   3.3789673084e+01   3.0128519497e+01    0.7350079    0.6115075  69.96  0.003784276    1.202    0.168
        82 -11.5976    103.3961    240.7171   9.5761698524e+01   9.2247170479e+00    0.4042324    0.3284404  63.21  0.002376905    1.324    0.245
        83 -18.1174      9.7361    237.9354   1.1587727217e+02   2.1183390761e+01      5.06582     3.478014  14.37   0.01727527    2.007    0.502
        84 -10.3957    167.2393    225.3333   7.8871912896e+01   2.6726096153e+00    0.2957179    0.1826594 -37.40 0.0009811659    1.649    0.394
        85  -9.2807    152.4862    238.4581   8.4283110194e+01   2.4142327004e+00    0.1364317    0.1175871  13.93  9.70812e-05    1.010    0.010
        86 -10.2073     63.8725    236.9652   1.0430888713e+02   1.5397536153e+01    0.3837443    0.2026321  63.54 0.0009474676    2.217    0.549
