#   1 NUMBER                 Running object number                                     
#   2 MAG_AUTO               Kron-like elliptical aperture magnitude                    [mag]
#   3 X_IMAGE                Object position along x                                    [pixel]
#   4 Y_IMAGE                Object position along y                                    [pixel]
#   5 X_WORLD                Barycenter position along world x axis                     [deg]
#   6 Y_WORLD                Barycenter position along world y axis                     [deg]
#   7 A_WORLD                Profile RMS along major axis (world units)                 [deg]
#   8 B_WORLD                Profile RMS along minor axis (world units)                 [deg]
#   9 THETA_WORLD            Position angle (CCW/world-x)                               [deg]
#  10 FWHM_WORLD             FWHM assuming a gaussian core                              [deg]
#  11 ELONGATION             A_IMAGE/B_IMAGE                                           
#  12 ELLIPTICITY            1 - B_IMAGE/A_IMAGE                                       
         1 -14.4362    219.1913      6.4480   3.8488897106e+01   2.9227844957e+01     2.165058     1.144486  68.48  0.006929627    1.750    0.428
         2 -15.1905    193.9527     36.3047   4.9208482484e+01   3.1993882306e+01     3.311942     1.938506  24.34   0.01293129    2.946    0.661
         3 -11.3503    189.8205     14.7466   4.3702740019e+01   3.5616324361e+01    0.3025118    0.2581398  67.71 0.0007855621    1.115    0.103
         4 -11.7612     59.9411    231.9199   1.2072492056e+02   1.9258756443e+01    0.1753867    0.1325446  67.92  0.000340424    1.027    0.026
         5 -12.9724    247.5481    245.8110   8.7431081347e+01  -1.1247864953e+01    0.7853174    0.4529464 -20.08  0.005003549    1.730    0.422
         6  -9.5654     56.9355    211.4909   1.1961147405e+02   2.3610156190e+01    0.1736547    0.1301521  88.91  0.001143413    1.190    0.160
         7 -10.8397     44.1216    210.1813   1.2201309185e+02   2.5440163064e+01    0.2231997    0.1541288  84.18            0    1.225    0.184
         8 -10.2872     42.1910    206.1721   1.2207478979e+02   2.6483603395e+01    0.2742315    0.2270496 -23.78  0.001795658    2.089    0.521
         9 -10.2407     37.0340    224.4136   1.2436466139e+02   2.3451877838e+01    0.1298071   0.09980833  38.95 0.0004109128    1.525    0.344
        10  -9.8593     64.3002    209.3678   1.1794820823e+02   2.3088697408e+01    0.2481922    0.1818844 -22.36  0.001335041    2.755    0.637
        11 -11.3777     67.2297    204.6348   1.1689025413e+02   2.3671166179e+01    0.3841606    0.2300319 -47.40  0.001119428    2.317    0.568
        12 -10.2667     72.0570    202.1897   1.1563472886e+02   2.3522719207e+01     0.384706    0.2146965  81.69  0.001913772    2.085    0.520
        13 -12.7350     32.6660    206.7001   1.2396552761e+02   2.7445749049e+01    0.3665033    0.1502209  58.17  0.001878849    2.177    0.541
        14 -10.9551     96.5437    202.0901   1.1042488662e+02   1.9948765130e+01    0.4911391    0.3941368 -14.53  0.002753574    1.997    0.499
        15 -13.4678     56.3161    199.1534   1.1861251209e+02   2.6240008015e+01    0.6247581    0.2854709 -57.91  0.003107313    2.336    0.572
        16 -13.2880     66.1589    186.2005   1.1515201129e+02   2.7760627453e+01    0.8076142    0.6675007 -44.82  0.004476803    1.572    0.364
        17 -12.1941    204.8785    195.8422   8.6537545301e+01   2.0271294261e+00    0.7376748    0.2592838  30.46  0.002351573    4.069    0.754
        18 -10.9693     34.8972    197.2603   1.2282219147e+02   2.9160014942e+01    0.1665984    0.1166768  64.59 0.0003881393    1.187    0.157
        19 -10.3611     82.0791    195.1877   1.1270343826e+02   2.3576967158e+01    0.2167482    0.1991386 -86.19 0.0006933757    1.170    0.146
        20 -11.6887    151.7442    194.9410   9.7376114597e+01   1.1919246949e+01    0.5119733    0.2223589  36.79  0.002064295    2.216    0.549
        21 -18.0390     29.8041    241.0561   1.2662207658e+02   2.1174050087e+01     7.820536     4.031532  37.27   0.04573326    1.975    0.494
        22 -19.1921      8.2689    104.3090   1.1998962696e+02   5.2705019641e+01     15.91484    0.7880148 -71.31   0.02846785   14.347    0.930
        23 -11.0305     95.3775    189.1706   1.0898954568e+02   2.2850215537e+01    0.3878355    0.3144976  35.09   0.00112393    1.335    0.251
        24 -10.7137    150.4258    187.2354   9.6330515929e+01   1.3651352453e+01    0.1844178    0.1387868 -63.96 0.0005695078    1.586    0.369
        25  -9.8802     77.5569    226.6813   1.1696279392e+02   1.7888480480e+01    0.1452408    0.1005242  83.56 0.0003795882    1.406    0.289
        26 -11.6137     99.2919    180.9362   1.0692529166e+02   2.4020515337e+01    0.2877503    0.2735348   1.25 0.0006845886    1.317    0.241
        27 -10.9514    151.2890    180.3513   9.4896622541e+01   1.4853148355e+01    0.4075675    0.2525028 -82.57  0.001472419    3.548    0.718
        28 -10.1485    188.9808    177.9929   8.6280672776e+01   8.0084117284e+00    0.3279349    0.2590351 -67.70  0.001519973    1.792    0.442
        29 -10.4925    187.7795    173.1882   8.5558532588e+01   9.1148816514e+00    0.3617913    0.2522972 -68.73  0.001433007    2.366    0.577
        30 -10.8268     58.8540    176.5389   1.1569055136e+02   3.0876204642e+01    0.2194745    0.1809672  84.92 0.0003900361    1.033    0.032
        31 -10.2024     64.5796    173.1935   1.1396637080e+02   3.0895377993e+01    0.4459142    0.1613212  52.25  0.001715832    3.028    0.670
        32 -11.5276     43.9287    172.6041   1.1866278321e+02   3.3563066139e+01    0.5795774    0.2283133  49.73  0.002114304    2.451    0.592
        33  -9.6947    195.8291    173.0688   8.3866319316e+01   7.5633700888e+00    0.2116942    0.2043172 -70.37  0.001231821    1.275    0.216
        34 -11.8814    194.2657    197.1721   8.8890137936e+01   3.7142247323e+00     1.124489    0.6771759 -63.38  0.004547428    3.472    0.712
        35 -11.1974    230.3662    166.8952   7.5867472765e+01   2.0765435351e+00    0.3647736    0.1954526 -51.10  0.001471768    2.755    0.637
        36 -10.2700    186.9586    166.1487   8.4268303373e+01   1.0582734738e+01    0.3584422    0.2031647 -51.11  0.001428011    2.114    0.527
        37  99.0000     49.2948    217.1988   1.2156728170e+02   2.3416514008e+01    0.2712256    0.2123295   8.30  0.001584803    2.251    0.556
        38 -12.3628     94.8889    152.4780   1.0337824403e+02   3.1259814853e+01    0.6535988    0.4904943 -26.41  0.003205692    1.836    0.455
        39 -10.5811    187.2784    151.8119   8.1076402068e+01   1.3245135978e+01    0.4888314    0.3307423  77.11  0.001912378    2.752    0.637
        40 -11.6011    133.8973    145.7299   9.2092708708e+01   2.5676246012e+01     1.313708    0.3304154 -54.62  0.003059441    5.949    0.832
        41  -9.8831    113.2751    151.1801   9.8425844660e+01   2.8379292155e+01    0.3272804    0.2235821  89.95  0.001223342    2.023    0.506
        42 -10.8419    174.2341    148.7908   8.3233259500e+01   1.6599187432e+01    0.3474866    0.3152138  89.71  0.001232025    1.311    0.237
        43 -10.6515    143.8688    146.4261   8.9786467340e+01   2.3493969317e+01    0.4717569     0.206086 -61.55  0.001344882    4.214    0.763
        44  -9.6272    108.8590    147.0771   9.8752979088e+01   3.0133891509e+01    0.2213517    0.1887574  81.55 0.0003158402    1.236    0.191
        45 -11.6151    107.3071    138.5670   9.7431089636e+01   3.2417878487e+01    0.5379683     0.465556 -43.61  0.002847904    1.201    0.168
        46 -12.3750     94.7500    138.2374   1.0073787834e+02   3.4677169980e+01    0.2812983    0.2658554 -57.36  0.000385227    1.083    0.077
        47 -11.2339    105.9348    130.7348   9.6123081140e+01   3.4522162429e+01    0.3881333    0.3226416 -64.98  0.001188878    1.195    0.163
        48 -10.9540    135.6548    127.9999   8.7585646485e+01   2.9314061738e+01     0.701197    0.1903062 -49.80  0.001908836    3.948    0.747
        49 -10.0192    135.0000    120.8407   8.5987885726e+01   3.1061314906e+01    0.4915184    0.1363796 -49.42  0.001333718    3.871    0.742
        50 -10.9453    114.4777    129.3736   9.3495573717e+01   3.3253660250e+01    0.3460083    0.2869096   6.14 0.0007628543    1.508    0.337
        51 -10.0261    160.9558    127.4688   8.1219007652e+01   2.3921946149e+01    0.3164749    0.2234352 -58.56  0.001325931    1.641    0.391
        52 -11.4212    120.2540    123.4583   9.0545172449e+01   3.3505876054e+01    0.7263306    0.3724324 -32.25  0.002496278    2.845    0.649
        53 -11.1966    101.9148    125.2226   9.6007644903e+01   3.6555230942e+01    0.3207443    0.2591618 -19.58  0.001264488    1.533    0.348
        54 -10.2291    109.8985    118.6076   9.2221053080e+01   3.6648322365e+01    0.2582714    0.2123961 -56.41  0.000412602    1.192    0.161
        55  -9.7368    134.8758    112.4870   8.3866260953e+01   3.2949219720e+01    0.4504214    0.1293799 -45.19  0.001279832    3.441    0.709
        56  -9.8982    134.5776    106.2688   8.2275531544e+01   3.4381196343e+01    0.3978842    0.1478426 -48.20    0.0012596    2.794    0.642
        57 -10.1547    167.7551    112.4654   7.5785474018e+01   2.5492574378e+01    0.3691706    0.2716414 -85.08  0.001150727    2.027    0.507
        58 -11.7618    118.4782    110.5393   8.7787991831e+01   3.6830378914e+01    0.6656777    0.4657471  68.72    0.0028384    1.936    0.483
        59 -10.3339    205.3235    110.3498   6.7403409093e+01   1.7147504550e+01    0.3341885    0.2673773  35.01 0.0009583118    1.333    0.250
        60  -9.7484     72.1810    250.6256   1.1997338964e+02   1.4325145297e+01    0.1064788   0.06533691  75.59  0.000643922    1.564    0.361
        61  -9.8024     67.6465     71.1632   9.2639099730e+01   5.4546951423e+01    0.2056879    0.1862186  37.62 0.0004248919    1.263    0.208
        62 -11.4448    157.5631     59.7288   6.2704959143e+01   3.7902647143e+01    0.5455548    0.3514852  89.63 0.0003274211    2.482    0.597
        63  -9.1297    168.1700    248.1161   1.0206173551e+02   3.2425917433e-01    0.1488473    0.1183981  48.91            0    1.253    0.202
        64 -13.3300    178.3480     50.9474   5.5942909719e+01   3.3953254302e+01    0.8235686    0.7476345  46.26 0.0007232936    1.127    0.113
        65  -9.7225     56.4165    224.3350   1.2078252766e+02   2.1142351019e+01    0.1175935   0.08458642  63.65 0.0001912592    1.090    0.083
        66 -16.5328     70.1408    145.9057   1.0871460757e+02   3.6575163156e+01     8.342962     4.254653  73.46   0.02885826    3.560    0.719
        67 -10.7759    158.2535    235.9149   1.0229805398e+02   3.7236539638e+00    0.2510248    0.2079154 -37.65  0.001020588    1.474    0.322
