#   1 NUMBER                 Running object number                                     
#   2 MAG_AUTO               Kron-like elliptical aperture magnitude                    [mag]
#   3 X_IMAGE                Object position along x                                    [pixel]
#   4 Y_IMAGE                Object position along y                                    [pixel]
#   5 X_WORLD                Barycenter position along world x axis                     [deg]
#   6 Y_WORLD                Barycenter position along world y axis                     [deg]
#   7 A_WORLD                Profile RMS along major axis (world units)                 [deg]
#   8 B_WORLD                Profile RMS along minor axis (world units)                 [deg]
#   9 THETA_WORLD            Position angle (CCW/world-x)                               [deg]
#  10 FWHM_WORLD             FWHM assuming a gaussian core                              [deg]
#  11 ELONGATION             A_IMAGE/B_IMAGE                                           
#  12 ELLIPTICITY            1 - B_IMAGE/A_IMAGE                                       
         1 -15.0303      7.4855     24.8948   1.2369056990e+02   7.0440140261e+01     1.673262    0.6924084 -48.78  0.009151692    1.771    0.435
         2 -12.4317     83.8105     22.5417   8.9668218179e+01   6.0825726331e+01    0.4431607    0.3437241  -5.36  0.002116078    1.254    0.202
         3 -11.4982     63.0411     17.3975   9.4655136887e+01   6.5255799372e+01    0.3413842    0.2635499  53.42  0.002061501    1.680    0.405
         4 -12.2183    103.9846      3.7891   7.5790482312e+01   5.8575128659e+01      0.40042    0.2833635 -14.74  0.002260389    1.490    0.329
         5 -13.3993     94.2303      3.0826   7.7899351498e+01   6.0797989975e+01    0.8219774    0.3322041  61.53  0.003478279    2.533    0.605
         6 -11.9234     82.2352     13.6057   8.6155882864e+01   6.2222973038e+01    0.3090559    0.2275067  39.31 0.0008657427    1.254    0.202
         7 -12.8198     87.0436     11.3442   8.3644211679e+01   6.1505530192e+01    0.5822359    0.3854575  66.74  0.002149527    1.933    0.483
         8 -11.2976    123.8547     10.2602   7.4050661595e+01   5.3316916573e+01    0.2519483    0.2036927  24.83 0.0005511341    1.251    0.201
         9 -13.2665     83.9391      4.3571   8.1332571575e+01   6.2845511368e+01    0.6781129    0.4848273  40.70  0.004024334    1.238    0.192
        10 -11.0642    137.5847      5.7724   6.9797069334e+01   5.0332195492e+01    0.2677267    0.1761214  63.92  0.001097844    1.358    0.264
        11 -11.8391     75.5907     13.3344   8.8202339128e+01   6.3534983741e+01    0.3706569    0.2608588  42.09  0.001275972    1.359    0.264
        12 -11.4849     33.5260      4.1238   1.0074046511e+02   7.1314489795e+01    0.2195218    0.1773008   9.30   0.00112011    1.169    0.145
        13 -12.0000     73.3583      1.4868   8.3204532010e+01   6.5210181096e+01    0.2489571    0.1377762  51.06  0.000540476    1.730    0.422
        14 -14.7864    191.0886    197.4643   1.1088203763e+02   5.2300481671e+00     1.554348     1.048794  46.12  0.008299259    1.394    0.283
        15 -13.7994    215.2704    201.8447   1.0710165397e+02   2.3533204638e-01     1.045564    0.7085808 -29.76  0.005987628    1.569    0.363
        16 -12.6326    223.7152    201.0137   1.0542102700e+02  -1.0991169375e+00    0.3384524    0.2817246  40.43  0.001485546    1.282    0.220
        17 -11.3575    249.9235    199.7986   1.0065892825e+02  -5.2315331366e+00    0.4416012    0.1570878 -35.66  0.001960152    2.849    0.649
        18 -14.0664    236.6744    196.1706   1.0224134027e+02  -2.6139959070e+00     1.351329     1.049694  -8.27   0.00850316    1.203    0.169
        19 -12.3024    212.7091    190.2497   1.0544105674e+02   2.4060947753e+00    0.9457355    0.3728047  46.48  0.003887007    2.510    0.602
        20 -11.5101    217.3455    173.9724   1.0140193282e+02   4.0802920090e+00    0.3359785    0.2923099  27.49  0.002008364    1.083    0.077
        21 -11.3433     89.5948    168.2604   1.2799759298e+02   2.9410152728e+01    0.2548818    0.1273902 -67.19 0.0009545005    2.071    0.517
        22  -9.7765    224.3152    167.6475   9.8833214018e+01   3.7640576734e+00     0.130184    0.1105614 -74.46 0.0007046303    1.735    0.424
        23 -11.0489    212.2931    164.2870   1.0035420926e+02   6.6266661547e+00    0.3201662    0.1870194  39.85  0.001507558    1.657    0.396
        24 -12.4524    190.7836    155.4454   1.0268097279e+02   1.2548571779e+01     0.717615    0.4504265 -38.93   0.00333906    1.642    0.391
        25 -12.8338    193.7969    149.0182   1.0066122486e+02   1.3091357387e+01    0.5087484     0.402645 -38.96  0.002630363    1.288    0.224
        26 -12.4509     81.7061    149.8361   1.2705009172e+02   3.4849501528e+01      0.31423    0.3039425 -79.63   0.00194589    1.176    0.149
        27 -14.3752     58.8236    145.5211   1.3221775158e+02   3.9064100987e+01     1.283319    0.5812985  56.13  0.005468141    2.571    0.611
        28 -13.5081     51.7523    143.2466   1.3371099128e+02   4.0470360773e+01     0.523077     0.338259  50.53  0.002897132    1.564    0.361
        29 -12.0380     75.9885    138.5180   1.2662574579e+02   3.8363857503e+01    0.4640314    0.1556682 -54.61  0.001721496    2.728    0.633
        30 -14.4357    131.7258    105.2020   1.0410613054e+02   3.5815164163e+01    0.7355834    0.5074849 -42.13  0.002447975    1.454    0.312
        31 -13.6716    140.2061    138.2763   1.1010656222e+02   2.6783198761e+01    0.6977121    0.4974846  57.42  0.003258907    1.459    0.315
        32 -15.2169    143.7794    126.2788   1.0645065469e+02   2.8619841587e+01     2.412467     1.234828 -51.51  0.009352402    2.057    0.514
        33 -11.6431     41.9584    135.2583   1.3516654620e+02   4.3458673161e+01    0.1765414    0.1540994 -89.54 0.0006358029    1.067    0.063
        34 -10.7438    122.4937    134.4738   1.1364875077e+02   3.1241116027e+01     0.149959    0.1433226  84.27 6.253676e-05    1.005    0.005
        35 -12.8379     50.1349    129.6445   1.3214693986e+02   4.3872679989e+01    0.3161445     0.223102 -60.34  0.001096105    1.287    0.223
        36 -13.1633    120.8940    127.3680   1.1246191499e+02   3.3165105108e+01    0.5194287    0.2879159  46.70  0.002172371    1.809    0.447
        37 -12.4301    168.5383    124.9378   1.0036058320e+02   2.3352267045e+01    0.5495902    0.5251693  60.14   0.00293442    1.047    0.045
        38 -14.0426    109.9626    121.3461   1.1396218273e+02   3.6668558034e+01    0.6709434     0.449109  66.08  0.002966932    1.854    0.461
        39 -11.7783    202.6152    121.2029   9.2403912046e+01   1.6251450927e+01    0.2221984     0.141571 -26.24 0.0009582532    1.729    0.421
        40 -12.1491     75.7579    121.0202   1.2342295245e+02   4.2548874527e+01    0.2254525    0.2017125  53.30 0.0003896104    1.181    0.153
        41 -14.0712     68.6291    115.2185   1.2431411495e+02   4.4949523553e+01    0.5765102    0.4702075  51.27  0.003293455    1.308    0.236
        42 -15.1023    105.6215    101.1696   1.1015590401e+02   4.2083616580e+01    0.7856963     0.773469 -31.08  0.003763794    1.058    0.055
        43 -15.2550    119.5937    104.1347   1.0704362355e+02   3.8634390545e+01     1.455157     1.013124  -8.86  0.005890184    2.396    0.583
        44 -15.2406    112.6704     95.4693   1.0659312470e+02   4.1949301957e+01     1.440214    0.5643868 -52.18  0.004860035    2.773    0.639
        45 -14.5443     79.9957    105.9749   1.1891489180e+02   4.5447969913e+01    0.7840142    0.5504392 -83.84  0.003495794    1.782    0.439
        46 -15.2621     81.8300     95.2295   1.1570919640e+02   4.7631107045e+01      1.16561    0.7535374  82.91   0.00411411    2.737    0.635
        47 -13.5090     73.7956     96.5079   1.1854758680e+02   4.8583871111e+01    0.6183683     0.162945 -49.60  0.001995005    3.345    0.701
        48 -13.6713     17.4523    100.9405   1.3726905476e+02   5.3688563908e+01    0.4697566    0.4156977 -62.13  0.002222986    1.148    0.129
        49 -11.4168      6.2426    104.5897   1.4112900452e+02   5.3595819330e+01    0.1379433    0.1111206 -19.13  0.000671845    1.630    0.386
        50 -13.5992     30.6619    101.4273   1.3325348715e+02   5.2517644039e+01    0.5648617    0.3632134  62.63   0.00312871    1.870    0.465
        51 -14.6213     74.6262     72.8949   1.1177458794e+02   5.3676416889e+01     1.022915    0.6269708   2.35   0.00409851    3.039    0.671
        52 -12.8815     54.3213     95.1371   1.2445765137e+02   5.1522427333e+01    0.3415706     0.305356 -55.73  0.001200399    1.042    0.040
        53 -15.1857     44.1333     92.7154   1.2726197818e+02   5.3234907943e+01     1.138937    0.8369505 -46.37  0.006691389    1.271    0.213
        54 -14.1870     54.3645     83.4135   1.2166632713e+02   5.4193464812e+01    0.6679515    0.4993653  47.16  0.003800743    1.558    0.358
        55 -14.6269     55.6656     76.7835   1.1948406560e+02   5.5506184251e+01    0.8672033    0.5799271 -62.70  0.004614654    1.486    0.327
        56 -14.5168     61.8358     74.9566   1.1680688401e+02   5.5101548667e+01    0.7547649    0.4679011 -41.38  0.003266313    1.501    0.334
        57 -14.2785     97.8042     89.3806   1.0921435727e+02   4.6165353946e+01    0.6161012    0.3980919 -48.66  0.002874603    1.476    0.323
        58 -12.2685     22.7965     87.8171   1.3339526334e+02   5.6300301000e+01    0.4002768    0.2374016  79.17  0.002050593    2.271    0.560
        59 -11.4580    128.9051     83.2680   9.8567674564e+01   4.1015636748e+01     0.254498    0.2105772 -54.78 0.0003997798    1.256    0.204
        60 -11.4975     35.7137     79.9657   1.2733967918e+02   5.6979416130e+01    0.1854463    0.1818969 -25.37 0.0004823547    1.182    0.154
        61 -10.9234     42.3834     78.0705   1.2452662155e+02   5.6742376071e+01    0.2045521    0.1716747 -17.57 0.0006494249    1.325    0.245
        62 -14.7019     96.2680     72.1731   1.0447788974e+02   5.0071989835e+01     1.016391    0.5412908  34.09  0.001712382    2.162    0.538
        63 -12.5280    120.6738     73.2001   9.7643949020e+01   4.4835715137e+01    0.2898703    0.2635426 -59.24 0.0003555536    1.164    0.141
        64 -14.3945     84.6247     68.8322   1.0713826104e+02   5.2864725821e+01    0.6579582    0.5415826  -0.74   0.00247786    1.370    0.270
        65 -10.4501    130.3366     65.3125   9.2498846567e+01   4.4099110454e+01    0.1580354    0.1183672  15.86 0.0003544614    1.688    0.408
        66 -10.4430    249.9928     74.3902   7.3391126810e+01   1.3321507928e+01    0.1771083    0.1645078 -72.12  0.001074606    1.102    0.093
        67 -12.5570    125.5403     57.6442   9.1158636704e+01   4.6561341025e+01    0.3449859    0.2806647  42.06 0.0005931954    1.216    0.178
        68 -12.9729     67.8164     54.7957   1.0824453870e+02   5.8373686835e+01    0.4264938    0.3567971 -73.62  0.002208088    1.601    0.375
        69 -10.6534     52.7618     56.8307   1.1460608045e+02   6.0072301371e+01    0.1677704    0.1504613 -67.78 0.0005893455    1.319    0.242
        70 -10.4187    210.5980     54.5175   7.3577244885e+01   2.5535620791e+01    0.1447593    0.1347275 -62.03 5.112159e-05    1.022    0.021
        71 -11.6422    133.0301     53.5901   8.7872677549e+01   4.5461309419e+01    0.3225485    0.2461414  42.91 0.0009024563    1.296    0.229
        72 -11.1906    145.4125     50.9102   8.4079780662e+01   4.2836023758e+01    0.2468329    0.2102928  72.31 0.0006656533    1.224    0.183
        73 -12.5535      2.6906     46.6376   1.3239439112e+02   6.6473840537e+01    0.3817485    0.2941879 -41.31  0.001578601    1.130    0.115
        74 -11.6782    225.3866    247.7779   1.1283863990e+02  -7.2096356293e+00    0.1480441     0.096748 -12.77 0.0009572396    1.700    0.412
        75 -12.6230     41.2961     42.9920   1.1448157209e+02   6.4132420227e+01    0.6183922    0.3504069   3.17  0.002987289    2.578    0.612
        76 -11.3313    156.9525     43.8787   7.9345215395e+01   4.0940783201e+01    0.2173959    0.2106851  56.14 0.0005688603    1.025    0.025
        77 -10.5573    102.0472     43.4943   9.2578464010e+01   5.4106743923e+01    0.2025598    0.1366047  47.57 0.0003299997    1.480    0.324
        78 -11.0251     81.7956     34.8358   9.5584758729e+01   5.9467596219e+01    0.2299795    0.1747413  27.48  0.000692278    1.297    0.229
        79 -11.4766     79.3748     31.0158   9.4816321743e+01   6.0489363896e+01    0.3817568    0.1528173 -36.26  0.001350968    2.417    0.586
        80 -10.1532    176.4154     33.4920   7.2627328010e+01   3.7263448846e+01    0.1440947    0.1365969  84.06 5.745681e-05    1.018    0.017
        81 -11.3670     41.6012     32.9105   1.1049657576e+02   6.5926041209e+01    0.2083171    0.1544366   5.34 0.0007787509    1.390    0.280
        82 -12.8989     42.4709     47.6884   1.1564440413e+02   6.3102676795e+01    0.3185714    0.3007594  20.35 0.0005884033    1.264    0.209
        83 -12.3395    233.7521    246.2777   1.1120591304e+02  -8.2645418813e+00    0.2241945    0.1510109 -45.93  0.001422803    2.364    0.577
        84 -11.6055    184.5018    246.5088   1.1977552403e+02  -7.6647249110e-01    0.1200141   0.09310149  34.86 4.997224e-05    1.004    0.004
        85 -13.2043    232.1135    237.5603   1.1013498120e+02  -7.0601102431e+00    0.2979535    0.2562124  -1.89  0.001361337    1.249    0.199
        86 -11.0960    140.6592    239.3280   1.2684683886e+02   7.3568402120e+00    0.1256676   0.08066911  63.96 0.0007051494    1.737    0.424
        87 -13.3458    237.9714    234.1684   1.0860598417e+02  -7.5435850373e+00    0.3082393    0.1789589  37.39  0.001250853    1.492    0.330
        88 -12.8253    187.6731    232.4992   1.1721394939e+02   5.9553687773e-01    0.3247128    0.1766687  43.84  0.001774091    1.553    0.356
        89 -14.9625    245.7446    219.0844   1.0479256907e+02  -6.9569997733e+00     1.176973    0.7064943 -33.41  0.007112879    1.825    0.452
        90 -12.7054    191.9057    217.2866   1.1408034547e+02   2.0441614272e+00    0.3264433    0.2189584  38.68  0.001650675    1.259    0.206
        91 -13.1206    200.1666    215.5031   1.1224722400e+02   8.8171059316e-01    0.3968603    0.3183894  40.76  0.002063486    1.181    0.153
        92 -12.1454    199.9864    211.0245   1.1153300450e+02   1.5609537201e+00    0.2385517    0.2062269  62.06  0.001059283    1.470    0.320
        93 -14.9993    182.0320    205.4957   1.1403147284e+02   5.5939189113e+00     1.029848    0.8006527  31.30  0.006114611    1.153    0.133
