#   1 NUMBER                 Running object number                                     
#   2 MAG_AUTO               Kron-like elliptical aperture magnitude                    [mag]
#   3 X_IMAGE                Object position along x                                    [pixel]
#   4 Y_IMAGE                Object position along y                                    [pixel]
#   5 X_WORLD                Barycenter position along world x axis                     [deg]
#   6 Y_WORLD                Barycenter position along world y axis                     [deg]
#   7 A_WORLD                Profile RMS along major axis (world units)                 [deg]
#   8 B_WORLD                Profile RMS along minor axis (world units)                 [deg]
#   9 THETA_WORLD            Position angle (CCW/world-x)                               [deg]
#  10 FWHM_WORLD             FWHM assuming a gaussian core                              [deg]
#  11 ELONGATION             A_IMAGE/B_IMAGE                                           
#  12 ELLIPTICITY            1 - B_IMAGE/A_IMAGE                                       
         1 -14.9791     10.8403    154.7940   1.4624277585e+02   4.0911219178e+01     9.692985     3.720565  70.13   0.04347627    3.375    0.704
         2 -13.4912    192.1108     27.3932   7.2006564037e+01   3.3447642122e+01     1.403987     1.269407  38.11  0.006393575    1.143    0.125
         3 -13.7230    207.0325      8.0078   6.4708746471e+01   3.1763473665e+01     1.581239     1.059574  41.76  0.007655059    1.667    0.400
         4 -11.5459      2.2976     11.9720   1.2307612000e+02   7.1148288210e+01    0.6139036     0.185049 -52.08  0.002981868    2.567    0.610
         5 -12.3986      2.7741      4.4643   1.1971294918e+02   7.2367302238e+01    0.6345578     0.476914  14.92  0.004874491    1.566    0.361
         6 -12.7341      2.7316     20.9677   1.2615727898e+02   6.9537995941e+01     1.385298    0.3170298 -40.16  0.005900523    3.278    0.695
         7  -9.4339     47.0582    249.4763   1.4633463996e+02   1.9655292919e+01    0.1426709   0.07772654  46.05 0.0004359596    1.515    0.340
         8 -11.7101    139.4411    249.7662   1.3119703581e+02   7.2188747269e+00    0.4488088     0.194181  42.95  0.002466928    1.780    0.438
         9 -11.2691    124.2336    250.0686   1.3381337955e+02   9.4328809812e+00    0.4836249   0.09856786  44.51  0.001888851    3.624    0.724
        10  -9.6795      3.2634    249.4168   1.5280736542e+02   2.4168463217e+01    0.2407706    0.1293708  29.44  0.001668585    2.825    0.646
        11 -10.6972     36.0434    243.5835   1.4769355333e+02   2.1818644467e+01    0.2403971    0.2001426 -42.90  0.001661174    2.178    0.541
        12  -9.4130    171.3315    247.2982   1.2543398034e+02   2.6623604824e+00    0.1136147   0.07663715  20.72 0.0004033835    1.644    0.392
        13  -9.0737     67.0768    250.5451   1.4326830860e+02   1.7115261705e+01    0.1509306   0.07851823  46.43 0.0009018588    1.515    0.340
        14  -9.7325     81.9235    242.8170   1.4026372847e+02   1.6438157946e+01    0.2053241    0.1110847  73.22  0.001142733    2.052    0.513
        15  -8.7105     12.4812    241.0106   1.5113160109e+02   2.4641412924e+01     0.112024   0.06587838 -59.60 0.0008073765    2.360    0.576
        16  -9.8220      1.5663    240.4252   1.5270794532e+02   2.5753991143e+01    0.2318727   0.06510977 -74.63  0.001335627    3.093    0.677
        17 -13.7152      9.7423    205.9748   1.4985191327e+02   3.0944019389e+01     6.489133          nan  40.79  0.006821393    5.956    0.832
        18 -10.5108    248.4010    249.1475   1.1282199263e+02  -9.0609951844e+00    0.2208102    0.1320801  36.68  0.001483501    1.435    0.303
        19  -9.5259    177.3308    227.0858   1.2163787851e+02   4.3845435853e+00    0.1579588    0.1415327  35.27 0.0005657385    1.127    0.113
        20 -10.2680    173.0085    221.7505   1.2164742386e+02   5.8495572300e+00    0.1971991    0.1807883 -23.96  0.000928728    1.288    0.223
        21 -12.7227     38.9573    235.0018   1.4673518551e+02   2.2912770576e+01    0.2493808    0.2049601 -83.35 0.0007907756    1.374    0.272
        22 -14.2218     44.9120    227.5840   1.4528847236e+02   2.3509337568e+01     0.960402     0.815349  45.67  0.003673052    1.445    0.308
        23  -9.0527    152.5098    213.0073   1.2420071132e+02   1.0604805487e+01    0.1544513    0.1254855 -49.94 0.0003260978    1.457    0.314
        24 -11.4944     64.3735    200.1514   1.3959728275e+02   2.6171653222e+01    0.2632256    0.2076145 -53.11 0.0006320771    1.608    0.378
        25 -11.6307     18.9493    199.2667   1.4787587763e+02   3.1337077882e+01    0.4495229     0.136911  50.17  0.001202825    2.676    0.626
        26  -9.7445    191.9792    192.9830   1.1341004775e+02   6.8210776664e+00    0.4582432    0.2566708 -64.49  0.001530861    5.590    0.821
        27  -8.3087     51.2933    197.2768   1.4181465254e+02   2.8306416734e+01   0.09504067   0.08579805 -52.11 0.0002449898    1.525    0.344
        28 -11.8768     70.2253    191.8808   1.3762134411e+02   2.7021999412e+01    0.2415752    0.2102614 -66.68 0.0004483259    1.304    0.233
        29 -10.8816     79.8039    178.9001   1.3415768746e+02   2.8330045919e+01    0.2181858    0.1901243 -79.08 0.0003481968    1.132    0.116
        30 -13.2976     66.9225    176.9674   1.3663317182e+02   3.0442845787e+01    0.4527019    0.2610649 -46.12  0.001683132    2.268    0.559
        31  -9.0719    103.0928    179.3058   1.2927480416e+02   2.4814537702e+01    0.2181798     0.127388  64.66  0.001051005    2.041    0.510
        32  -8.7305    131.6552    173.6730   1.2226617611e+02   2.1164874067e+01     0.134623    0.1069702   0.48 0.0007050569    1.746    0.427
        33 -11.8512     87.1564    169.2873   1.3129343658e+02   2.9266760546e+01    0.5732759    0.5497249  61.25  0.003869847    1.169    0.144
        34  -8.7674     71.6693    163.3397   1.3390487081e+02   3.2675709741e+01      0.13467   0.08575594  73.17 0.0007051715    1.742    0.426
        35  -9.9448     99.0462    153.0387   1.2606726012e+02   3.0897501921e+01    0.2860799    0.2421787 -53.20  0.000788373    1.217    0.178
        36  -9.1829    101.9806    148.9899   1.2467119758e+02   3.1295766214e+01    0.1986833    0.1786503 -31.92  0.000368917    1.292    0.226
        37 -12.0682     87.9219    152.4909   1.2858390244e+02   3.2725042125e+01    0.2712686    0.2366815 -39.60 0.0006106259    1.339    0.253
        38 -12.5395     67.1277    143.9225   1.3219418144e+02   3.7489141043e+01    0.6878586    0.4548667  69.88  0.003128149    1.707    0.414
        39 -11.4416    148.6692    229.9391   1.2721595891e+02   8.6310768601e+00    0.6206194    0.1479026  38.50  0.002147766    4.098    0.756
        40  -8.4412    192.2834    144.2874   1.0353444575e+02   1.4792807709e+01    0.1446209    0.1089578   8.78 0.0002837611    1.526    0.345
        41  -9.8275    110.0601    137.9556   1.2064194786e+02   3.2323898876e+01    0.3823613    0.2492586 -14.83  0.001392288    2.981    0.664
        42 -10.6745     97.5564    135.1176   1.2317338264e+02   3.5032447923e+01    0.2644082     0.236761  38.52 0.0003821375    1.193    0.162
        43  -9.2400     85.7421    135.9985   1.2629297793e+02   3.6668505089e+01     0.235195    0.1678508  69.25 0.0008125607    1.624    0.384
        44 -11.2096     58.0450    133.6368   1.3285378732e+02   4.0905684470e+01    0.4678684    0.2064007 -74.52   0.00194946    2.674    0.626
        45  -9.3704    107.2068    124.2749   1.1850005062e+02   3.5794743322e+01    0.1881897    0.1830531 -12.45 0.0004368365    1.104    0.094
        46  -9.3832      4.5102    228.4986   1.5178132590e+02   2.7457746766e+01    0.3266379    0.1151669  65.65  0.001920837    2.393    0.582
        47 -10.2726    167.9154    113.0130   1.0113536464e+02   2.5817525275e+01     0.321088    0.2800588 -79.98 0.0008330598    1.406    0.289
        48  -9.1534    203.4832    111.5046   9.3475975926e+01   1.8049214611e+01    0.1526435    0.1381523   4.35 9.710839e-06    1.083    0.077
        49  -9.2356      7.8558    226.1662   1.5116338426e+02   2.7548143552e+01    0.1375806    0.1284245 -15.62  0.000744721    1.992    0.498
        50  -9.0019     73.4445     86.4426   1.1896241493e+02   4.9464102432e+01    0.2287346    0.1201597  48.30 0.0007960364    2.383    0.580
        51  -8.6510    184.5344     77.5146   8.7960925693e+01   2.8255108996e+01    0.1536767    0.1444908   9.14 0.0001307357    1.063    0.060
        52  -9.1475    156.3323     75.6926   9.3302911808e+01   3.5375228220e+01    0.1544752    0.1226552 -74.92 0.0005130462    1.666    0.400
        53 -11.1035      6.5104     63.0466   1.3566260456e+02   6.1022034909e+01    0.2111869     0.161418  11.16  0.001093146    1.658    0.397
        54 -10.8275     28.3329     60.5745   1.2730257533e+02   6.0044454814e+01    0.2426223    0.2092172  43.86 0.0006686573    1.488    0.328
        55  -9.8181     19.7407     57.1883   1.2958946298e+02   6.1411665065e+01    0.1736653    0.1571842  36.42 0.0008473229    1.422    0.297
        56 -11.6802      2.3323     37.8690   1.3144683532e+02   6.6369017200e+01    0.5500424    0.1198652 -63.19  0.001983458    4.366    0.771
        57 -11.0420    239.1970    247.6163   1.1407179268e+02  -7.6193843627e+00    0.2856455     0.161327  -9.08  0.001755711    2.043    0.511
        58  -9.7394    152.8373    249.1631   1.2883778592e+02   5.2694518342e+00    0.1502752    0.1142298  28.82 0.0003896764    1.306    0.234
        59 -10.7485     98.8321    249.1058   1.3798588398e+02   1.3187061939e+01    0.2248473    0.1272793  51.48  0.001084785    1.366    0.268
        60 -10.0677     81.4875    248.5060   1.4079443145e+02   1.5603888319e+01    0.2362888     0.137315  73.27  0.001550948    1.753    0.430
