#   1 NUMBER                 Running object number                                     
#   2 MAG_AUTO               Kron-like elliptical aperture magnitude                    [mag]
#   3 X_IMAGE                Object position along x                                    [pixel]
#   4 Y_IMAGE                Object position along y                                    [pixel]
#   5 X_WORLD                Barycenter position along world x axis                     [deg]
#   6 Y_WORLD                Barycenter position along world y axis                     [deg]
#   7 A_WORLD                Profile RMS along major axis (world units)                 [deg]
#   8 B_WORLD                Profile RMS along minor axis (world units)                 [deg]
#   9 THETA_WORLD            Position angle (CCW/world-x)                               [deg]
#  10 FWHM_WORLD             FWHM assuming a gaussian core                              [deg]
#  11 ELONGATION             A_IMAGE/B_IMAGE                                           
#  12 ELLIPTICITY            1 - B_IMAGE/A_IMAGE                                       
         1 -14.0564    173.9466     42.3949   7.1020200996e+01   3.6620989834e+01    0.9032289    0.8010203 -33.64  0.001175238    1.280    0.219
         2 -14.1509    184.7625     32.6363   6.6860604898e+01   3.5267354334e+01     1.018338    0.8548243  82.83  0.003044562    1.041    0.040
         3 -15.1063    191.2292     22.8537   6.3595605329e+01   3.4895450321e+01     2.184933     1.537313  21.37  0.001320393    2.327    0.570
         4 -10.7833    216.7242     18.4291   5.9729341280e+01   2.9479384395e+01    0.1708691    0.1022652  65.01 0.0006338762    1.554    0.357
         5 -13.9710     67.7149    212.7346   1.3427401603e+02   2.1799445857e+01     3.396906    0.7528034  48.03   0.01098798    4.231    0.764
         6 -16.2246    120.4216    239.7297   1.2666410864e+02   7.7968902997e+00     7.305173      3.15376  36.32    0.0312974    2.318    0.569
         7 -11.8167    115.6629    211.3285   1.2368727920e+02   1.4443415071e+01    0.4258435    0.2519025  82.68  0.001223256    2.687    0.628
         8 -11.6375    108.1875    209.5405   1.2507306635e+02   1.6129130370e+01    0.4188913    0.3599392  41.59  0.001999336    1.214    0.176
         9 -19.3511     20.0504    133.0690   1.3545098371e+02   4.6100276200e+01     19.60029     1.795501 -67.82   0.03827039   11.307    0.912
        10 -10.0579     92.0930    205.8908   1.2812118591e+02   1.9626618401e+01      0.21869    0.1654671  71.74 0.0005257487    1.268    0.211
        11 -12.2374    107.1269    202.7907   1.2430021180e+02   1.7815947467e+01    0.5048609    0.2914935  39.48  0.002291774    1.709    0.415
        12 -10.2149     72.4932    202.9285   1.3206450064e+02   2.3325774153e+01    0.1970623    0.1216518 -66.34 0.0007715985    1.538    0.350
        13 -13.5279     71.3115    194.7476   1.3127217697e+02   2.5393498499e+01    0.9892766    0.6970019  46.31  0.005427202    1.405    0.288
        14 -11.0167     61.1836    190.7340   1.3304706494e+02   2.7764071368e+01    0.4032962    0.2123268 -70.19   0.00130041    1.757    0.431
        15 -13.0935    195.6122    195.3482   1.0345644763e+02   2.7588720872e+00    0.8957603    0.7042605  83.61  0.003767994    1.899    0.474
        16 -10.9720     78.8197    185.2119   1.2820452250e+02   2.6529092491e+01    0.3078811    0.2734727  64.15 0.0009720564    1.111    0.100
        17 -15.9287     75.0632    151.5198   1.2363582118e+02   3.5294242854e+01     5.000802     2.725945  84.62   0.01144819    3.635    0.725
        18 -11.6130    112.3194    196.6095   1.2214597789e+02   1.8310233359e+01    0.4882467    0.3211408   9.00  0.001919623    3.066    0.674
        19 -11.2839    102.9538    194.8487   1.2402703177e+02   2.0345632569e+01    0.4539051    0.3120753  57.60  0.002262757    1.429    0.300
        20  -9.8313     91.8699    194.6027   1.2654981697e+02   2.2254325132e+01    0.2674407     0.159589  73.39 0.0006694569    2.127    0.530
        21  -9.8258    180.6407    193.3202   1.0620086295e+02   6.0218926560e+00    0.1488967    0.1161819  79.19 0.0007043813    1.766    0.434
        22 -11.5159    207.7812    184.4441   9.8804436130e+01   2.5439615901e+00    0.3395787    0.2942888 -31.20  0.001261661    1.120    0.107
        23 -11.6198    211.5230    180.8419   9.7324534108e+01   2.5218971288e+00    0.4023153    0.3053437 -20.23  0.001404433    1.409    0.290
        24  -9.7759     90.3213    184.0906   1.2530260053e+02   2.4984874955e+01    0.2801338    0.1612726  64.58   0.00119175    2.100    0.524
        25 -10.8259     99.4082    180.6021   1.2255088405e+02   2.4301631905e+01    0.2563669    0.2430867 -69.01 0.0005680153    1.126    0.112
        26 -12.3487     82.9334    179.4827   1.2635221567e+02   2.7267605455e+01     0.611627    0.3099132 -43.89  0.002482024    2.508    0.601
        27 -12.4256     86.1044    174.1610   1.2472424417e+02   2.8052448437e+01    0.5527296    0.2928365  48.57  0.001666535    1.918    0.479
        28 -14.2356     53.0979    231.6734   1.3916297620e+02   1.9714944025e+01      1.14913    0.8563175 -54.77  0.007197031    1.719    0.418
        29 -10.0411    144.6681    178.6857   1.1137408468e+02   1.6287446374e+01    0.1524772    0.1226836  -4.27 0.0004266649    1.681    0.405
        30 -11.1830    197.8751    175.5317   9.8969231799e+01   6.2047500198e+00    0.3964368    0.3091139 -56.90  0.001079009    1.425    0.298
        31  -9.8423     71.2072    174.0869   1.2836912536e+02   3.0338946950e+01    0.2697289    0.1529751  61.30  0.001051742    2.032    0.508
        32 -10.0635     69.4728    227.7887   1.3556830583e+02   1.8269977807e+01    0.1730527    0.1143649 -75.79 0.0009829849    1.450    0.311
        33 -11.5534     66.2165    236.6362   1.3710664786e+02   1.6886125654e+01    0.2751094    0.1764773 -55.09  0.001566197    1.893    0.472
        34 -11.2822    203.8793    167.9253   9.6136040972e+01   6.5260437647e+00    0.4526616    0.4195005  54.74   0.00230515    1.163    0.140
        35 -11.3444    145.5461    168.4550   1.0910088491e+02   1.8437094056e+01    0.2784112    0.2660693  67.70 0.0006301422    1.024    0.023
        36  -9.2822     74.2416    226.3903   1.3445650805e+02   1.7873374091e+01    0.1184816   0.09521422 -47.72 0.0006930252    1.657    0.397
        37 -12.7772     98.1502    157.0967   1.1861640937e+02   3.0207678725e+01    0.7015624    0.4519072 -34.47  0.003030335    2.035    0.509
        38 -12.0396     63.2631    155.1974   1.2738074447e+02   3.6064855940e+01    0.3639586    0.3306023  43.41   0.00105298    1.235    0.190
        39 -12.0069    133.8679    144.6379   1.0678212496e+02   2.6375022158e+01     1.188595    0.3102838 -54.18  0.002881957    5.016    0.801
        40 -10.8979    174.5510    149.1801   9.8182835490e+01   1.6603773758e+01    0.2941005    0.2230834  47.20 0.0007688937    1.337    0.252
        41 -12.1131    144.4527    145.2766   1.0430316136e+02   2.4002289882e+01    0.4406633    0.3451374 -69.14  0.000981582    1.414    0.293
        42 -12.3469    108.6650    141.3367   1.1257990035e+02   3.2139196718e+01    0.5990685    0.3626147 -34.60  0.002433241    2.083    0.520
        43 -12.3936     97.2483    141.9334   1.1577823250e+02   3.4056949716e+01    0.2902118     0.274061 -33.75 0.0004054105    1.147    0.128
        44  -9.4928     83.0196    229.2452   1.3299363394e+02   1.5953518017e+01    0.1730383     0.139521  59.53 0.0001958132    1.090    0.083
        45 -10.7315     82.2106    133.4388   1.1812581578e+02   3.8611185202e+01    0.2125095    0.1472966  37.80 0.0005710186    1.552    0.356
        46 -11.6018    115.6014    131.4092   1.0845560262e+02   3.3172269950e+01    0.3887187    0.3180897   1.29 0.0007786241    1.584    0.369
        47 -12.2508    119.8620    128.7654   1.0668639422e+02   3.2945238581e+01    0.7066814    0.3652653 -49.84  0.002212883    1.888    0.470
        48 -11.9794    104.6669    129.1745   1.1090225366e+02   3.5781587040e+01    0.6034277    0.4164059 -84.69  0.002114947    2.077    0.519
        49  -9.6690    138.9953    124.7508   1.0074088353e+02   2.9857013753e+01    0.2263568    0.1498078  57.32 0.0003755995    1.665    0.399
        50 -11.8935    135.3894    123.1225   1.0124625704e+02   3.1002353396e+01     0.708999    0.2063722 -49.65  0.001998618    3.617    0.724
        51 -10.8125    160.4445    127.6599   9.6278199932e+01   2.4445349058e+01    0.3002005    0.2325473 -67.21  0.001375295    1.450    0.310
        52 -11.1093    125.4008    127.2970   1.0486577514e+02   3.2158311816e+01    0.3697538    0.2608625  82.31  0.001174771    2.076    0.518
        53 -10.7969    111.1741    119.7142   1.0681973586e+02   3.6750744560e+01    0.2971216    0.2470584 -20.77 0.0005294181    1.388    0.280
        54 -12.0296     68.3507    116.1245   1.1836891846e+02   4.4789925201e+01    0.2895421    0.2619052 -18.46  0.000985379    1.192    0.161
        55 -10.4553     64.0088    230.1862   1.3689971891e+02   1.8539004186e+01    0.1897398    0.1272523  64.19  0.000301556    1.281    0.220
        56 -10.6086    167.7351    112.7815   9.0894163977e+01   2.5938592482e+01    0.4137822    0.2836396 -74.71  0.001438248    2.018    0.505
        57 -10.4019    205.2347    110.3682   8.2758252846e+01   1.7730937518e+01    0.3620749    0.2454866  34.57  0.001188995    1.892    0.471
        58 -10.7758    121.6121    111.2080   1.0179447998e+02   3.6566585991e+01      0.22184    0.1425882 -37.19 0.0009300582    1.642    0.391
        59 -12.5739     64.5482    106.2137   1.1723408259e+02   4.7590506245e+01     0.780446    0.4634603  -8.99  0.003108251    3.101    0.677
        60 -10.6951    134.4981    103.8745   9.6458011719e+01   3.5386309851e+01    0.4884886    0.1504491 -44.86  0.001476316    3.235    0.691
        61  -8.9406    153.6894    103.7116   9.1725857112e+01   3.1072252433e+01    0.1530174    0.1248508  10.72 0.0002641623    1.580    0.367
        62 -11.9200    174.1632     72.9247   7.9113602757e+01   3.1942397428e+01    0.7028027    0.4011896 -86.93  0.001791163    3.417    0.707
        63 -11.4644     41.1336    220.0564   1.4042657736e+02   2.3721163235e+01    0.2960427     0.156051  48.47  0.001069886    1.715    0.417
        64 -12.3856     46.4799    216.3733   1.3902697426e+02   2.3855619342e+01    0.4804185    0.2007807  51.88  0.002283802    2.189    0.543
        65 -11.3291     86.6899    239.1774   1.3336937386e+02   1.3347962849e+01    0.2497394     0.189935  89.37 0.0004184907    1.261    0.207
