#   1 NUMBER                 Running object number                                     
#   2 MAG_AUTO               Kron-like elliptical aperture magnitude                    [mag]
#   3 X_IMAGE                Object position along x                                    [pixel]
#   4 Y_IMAGE                Object position along y                                    [pixel]
#   5 X_WORLD                Barycenter position along world x axis                     [deg]
#   6 Y_WORLD                Barycenter position along world y axis                     [deg]
#   7 A_WORLD                Profile RMS along major axis (world units)                 [deg]
#   8 B_WORLD                Profile RMS along minor axis (world units)                 [deg]
#   9 THETA_WORLD            Position angle (CCW/world-x)                               [deg]
#  10 FWHM_WORLD             FWHM assuming a gaussian core                              [deg]
#  11 ELONGATION             A_IMAGE/B_IMAGE                                           
#  12 ELLIPTICITY            1 - B_IMAGE/A_IMAGE                                       
         1  -9.0749     91.3799     23.7839   9.1854284167e+01   5.7781068632e+01    0.1942022    0.1184958 -15.46  0.000952644    1.682    0.405
         2 -10.0554    141.9418     19.8932   7.7924132243e+01   4.6960251601e+01       0.4436    0.2679591   9.75  0.001952213    2.129    0.530
         3 -11.8515    241.7562     17.1096   6.3620311394e+01   2.2516077133e+01    0.6651433    0.3934006 -19.37  0.003149726    1.903    0.474
         4  -9.5595    201.5641     11.9606   6.6394614608e+01   3.2732824479e+01    0.3065602    0.1626292  53.89  0.001173996    1.819    0.450
         5  -9.2364    229.4639      9.0137   6.2764089573e+01   2.6228134958e+01    0.2290517    0.1653163  56.48 0.0006306261    1.441    0.306
         6  -9.7517    211.4400      8.3069   6.4328786576e+01   3.0646732458e+01    0.2550246    0.2031308 -12.38 0.0007621263    1.432    0.302
         7  -9.1716    138.7662      7.0421   7.3920702467e+01   4.9022806708e+01    0.4041528    0.2002204  20.36  0.001313829    2.816    0.645
         8 -10.1932    248.8486      4.6924   6.0114157676e+01   2.2214654301e+01     0.350717    0.1812768 -26.05  0.001777878    1.964    0.491
         9  -8.1039    179.7003      6.2686   6.7398180810e+01   3.8804963007e+01    0.1355391   0.09900431 -67.44 0.0002365904    1.523    0.344
        10  -8.3133    134.0025      4.0226   7.3692748532e+01   5.0448578402e+01    0.1647576    0.1455425  41.83 0.0004200649    1.008    0.008
        11  -9.0194    109.4653      2.9229   7.8320401841e+01   5.6267913255e+01    0.1924139    0.1258539 -15.77  0.000651128    1.560    0.359
        12  -8.5247    226.7791    231.6186   1.1366111084e+02  -4.0976914597e+00    0.1618116   0.09312642  43.71 0.0008400925    1.667    0.400
        13  -8.8598    186.6398    231.3237   1.2058597169e+02   2.2979841518e+00    0.1161608   0.08684814  62.39 0.0001919144    1.778    0.438
        14  -9.1973    248.3056    230.2616   1.0986089696e+02  -7.1756012497e+00    0.2268771    0.1337531  40.35  0.001349625    1.620    0.383
        15  -9.1159    150.2968    227.6558   1.2662420960e+02   8.7101502065e+00    0.1176901   0.08486285  67.73 0.0003106411    1.669    0.401
        16  -8.6764    195.0385    233.5244   1.1942626356e+02   6.6470528239e-01    0.1874219   0.09552823  41.54 0.0007391999    1.597    0.374
        17  -9.0351    181.8416    225.1749   1.2054445593e+02   3.9051497313e+00    0.1859885    0.1494475  47.04  0.001232782    1.225    0.184
        18  -8.7725    217.3821    224.3808   1.1411674792e+02  -1.7843086489e+00    0.2238031    0.1314307  54.49  0.001160408    2.409    0.585
        19  -9.5832    240.8620    222.9382   1.0987857448e+02  -5.2801364997e+00    0.3875934     0.148622  45.80  0.001785126    2.783    0.641
        20  -9.4516    228.9798    222.7471   1.1185376103e+02  -3.4245912947e+00    0.2939474    0.1688917  49.54   0.00160983    2.091    0.522
        21  -8.0764    141.6671    223.6721   1.2768793002e+02   1.0706991268e+01    0.1168668   0.08961194  13.52 0.0007051689    1.717    0.418
        22  -9.1111    192.8377    221.6795   1.1803167654e+02   2.5600498893e+00    0.2074295    0.1667649 -83.24  0.001244758    2.172    0.540
        23  -8.7734    210.9912    220.0603   1.1453697863e+02  -2.1934585409e-01    0.1729075    0.1452872  61.78  0.001118779    1.702    0.412
        24  -9.5415    249.3474    217.3759   1.0752394855e+02  -5.9487467537e+00    0.2733715    0.2581075  61.27  0.001967443    1.822    0.451
        25  -9.0796    233.4912    215.9543   1.0994263111e+02  -3.3380227046e+00    0.2215383    0.1536944  47.27  0.001298073    1.685    0.406
        26  -8.8016    168.8388    216.2722   1.2160753378e+02   7.3501816823e+00    0.1968658    0.1292795  73.40 0.0009504738    2.758    0.637
        27  -9.7579    185.7816    213.5374   1.1804117296e+02   4.8727553531e+00    0.2959795    0.2503574 -57.11  0.001277105    1.583    0.368
        28 -10.6037    215.1164    211.6717   1.1241340457e+02   1.7289507282e-01    0.3476823    0.2727002  44.71   0.00194082    1.380    0.275
        29  -8.8559    177.4732    211.9369   1.1933215532e+02   6.5252775522e+00    0.1678516    0.1256719 -39.93 0.0005592888    1.568    0.362
        30  -8.8995    204.9975    211.9985   1.1428033387e+02   1.8244641384e+00    0.2170697    0.1298739  59.17  0.001031505    2.666    0.625
        31  -9.4812    237.4102    209.4535   1.0814570319e+02  -3.1864922833e+00    0.2656553    0.2244577  78.46  0.001611114    2.338    0.572
        32  -9.8663    228.4533    209.4598   1.0968864019e+02  -1.7433923726e+00    0.3438126    0.1648105  18.08   0.00143443    3.120    0.680
        33 -10.1475    197.4164    205.2585   1.1452994793e+02   4.0513746718e+00    0.3619418    0.1993775  53.58  0.001677248    2.215    0.548
        34 -10.5661    123.9984    206.0091   1.2871662266e+02   1.6476362283e+01    0.1771036    0.1520283  54.03            0    1.004    0.004
        35  -8.7075     97.3675    205.2307   1.3379463964e+02   2.0717406747e+01    0.1580396    0.1061782 -80.73 0.0005453934    1.641    0.391
        36 -10.2505    244.1769    202.2159   1.0569999464e+02  -3.3959257319e+00    0.2829971    0.2749616 -89.75  0.001320708    1.709    0.415
        37  -9.7295    238.8162    200.4522   1.0628958615e+02  -2.3152012507e+00    0.3222528    0.2368102  54.19  0.001398962    1.919    0.479
        38 -11.1862    233.2804    195.7456   1.0637832479e+02  -8.0392972226e-01    0.5573983    0.3082252  52.00  0.002732577    2.367    0.577
        39  -8.7079    203.3265    198.6901   1.1229720609e+02   3.9558078364e+00    0.1837289    0.1551175  73.87  0.001088593    1.773    0.436
        40  -9.2526    178.7855    199.6039   1.1708148670e+02   8.1661521214e+00    0.1845484    0.1099266  48.46 0.0004934305    1.611    0.379
        41  -9.1886    148.6157    197.3959   1.2261961353e+02   1.3848618759e+01    0.2277987    0.1188379 -64.78  0.000957353    3.166    0.684
        42 -10.1029    216.1317    195.4790   1.0937481735e+02   2.1653865947e+00    0.3465997    0.2615334 -69.59  0.001796348    2.631    0.620
        43 -10.7714    238.4294    188.8680   1.0419018212e+02  -7.7765927798e-01    0.4530376     0.304273  20.76   0.00246686    1.360    0.265
        44 -10.3140    249.8328    177.9125   1.0011388730e+02  -1.2743799335e+00    0.4542783     0.230128 -18.73  0.001851919    2.131    0.531
        45 -11.1765    248.0580    193.5112   1.0343310449e+02  -2.9580845133e+00    0.4692754    0.3810786 -30.31  0.002063137    1.462    0.316
        46 -10.7433    244.2661    183.2325   1.0210132189e+02  -1.0285499092e+00    0.6493574    0.5095635 -71.44  0.003423747    2.754    0.637
        47 -11.2898    225.0031    194.3627   1.0757764642e+02   7.8289438987e-01    0.4816726     0.365398 -48.06  0.002309643    1.843    0.457
        48  -9.1474     60.4952    194.5460   1.3980053764e+02   2.7733229474e+01    0.1175652   0.09276301  73.57 0.0001001727    1.045    0.043
        49  -8.3680    104.3483    193.7146   1.3099146487e+02   2.1816106468e+01    0.1307318   0.08495434  66.92 0.0002842607    1.653    0.395
        50  -9.1050    210.9225    190.5048   1.0940820563e+02   3.7840836548e+00    0.1990971    0.1158236  41.05 0.0008360422    1.557    0.358
        51 -10.5629    231.6186    187.3051   1.0507684819e+02   5.9190053200e-01    0.3455087    0.3208927  20.01  0.002301219    1.268    0.211
        52 -10.6248    209.2637    194.6484   1.1047611087e+02   3.4861671281e+00    0.4125291    0.3195944 -80.71  0.002140023    2.583    0.613
        53  -9.2517    225.6303    184.0574   1.0551275742e+02   2.0826496662e+00    0.2619003    0.1731645  31.53   0.00144798    1.357    0.263
        54 -10.1548    235.0702    180.6714   1.0318315230e+02   8.9031842891e-01    0.5587695    0.3670468 -56.72   0.00263547    2.926    0.658
        55  -8.8728     80.4820    182.4683   1.3445881548e+02   2.7513961835e+01    0.1252925    0.1035914  73.93 2.827799e-05    1.066    0.062
        56  -8.7943    139.9679    180.4796   1.2165069097e+02   1.8397338647e+01     0.198681    0.1048206  60.28 0.0008101976    2.591    0.614
        57  -8.3844     25.1773    178.8584   1.4527970383e+02   3.4714244199e+01      0.13967    0.1162486 -70.09 0.0006143835    1.333    0.250
        58  -9.0564    218.3428    177.5878   1.0556467943e+02   4.3178428315e+00    0.2471113    0.2086451 -36.22   0.00148598    1.367    0.269
        59  -8.6024    211.7485    176.5485   1.0657650400e+02   5.6879807165e+00    0.1803891     0.123425  50.19 0.0009381328    1.606    0.377
        60  -9.1423    132.0000    157.9274   1.1937322783e+02   2.4219490498e+01    0.2256951   0.07934086 -49.86 0.0008045117    2.957    0.662
        61  -8.4882    217.6848    155.6442   1.0114701614e+02   7.7696899572e+00    0.1490117    0.1010025   7.43 0.0005117911    1.743    0.426
        62  -9.0733    229.2631    153.5744   9.8602874751e+01   5.8446203308e+00    0.1838233    0.1210196  31.97 0.0003932504    1.482    0.325
        63  -8.1303     39.6862    153.7087   1.3987498195e+02   3.8517767852e+01     0.110902   0.08434371 -46.48 0.0003742766    1.592    0.372
        64  -8.4723    118.4514    152.4814   1.2144529358e+02   2.7769914754e+01    0.1352109    0.1317482  74.62 7.986319e-05    1.037    0.036
        65  -9.7851    240.6752    149.0961   9.5646292250e+01   4.3406643807e+00    0.2845891    0.2435293 -62.79  0.001111896    1.694    0.410
        66  -9.2433    234.6852    146.4334   9.6087792185e+01   5.8750730909e+00    0.3152357    0.1379733  49.88  0.001291311    2.502    0.600
        67  -8.8299    214.3374    150.3104   1.0060585428e+02   9.2750678485e+00     0.149141    0.1029028  11.29 0.0003210261    1.685    0.407
        68 -10.7231    242.1742    138.4812   9.3041624751e+01   5.6155479635e+00    0.4336764    0.3267516  87.96  0.002085512    2.509    0.601
        69 -11.0233    248.3374    142.9643   9.3022408986e+01   3.7930985169e+00    0.7856985    0.3332222 -18.81  0.002799486    3.376    0.704
        70  -9.4718     95.9262    135.1174   1.2358052026e+02   3.5293910394e+01    0.2175653    0.1827141  79.67  0.001230202    1.266    0.210
        71  -8.3906    226.4466    134.4764   9.4827754575e+01   9.3443062672e+00    0.1444919    0.1262889   0.96 8.273654e-05    1.054    0.051
        72  -8.6886    121.7800    133.9776   1.1695895685e+02   3.1081575870e+01    0.1875195    0.1153089 -49.51 0.0003347764    1.615    0.381
        73  -8.5515    113.6690    134.6757   1.1909005645e+02   3.2400407518e+01    0.1427761    0.1128406 -11.90 0.0007050393    1.703    0.413
        74  -8.5156    163.3176    136.6790   1.0790310160e+02   2.2269308293e+01    0.1473799    0.1196157 -89.00 0.0006854799    1.664    0.399
        75  -9.8900    235.5866    130.0266   9.2219693451e+01   8.1845321893e+00    0.3031024    0.2061687  56.23 0.0009463809    1.757    0.431
        76  -9.5414    200.8974    125.8733   9.7526776321e+01   1.6157930832e+01    0.4299754    0.2032978 -32.49    0.0016847    2.155    0.536
        77  -8.5293    186.6069    128.2212   1.0094743619e+02   1.8859755949e+01    0.2098873     0.139991 -24.86 0.0007242925    1.628    0.386
        78  -9.6101    212.4227    123.7832   9.4838218215e+01   1.4013369119e+01    0.2841476    0.1760877  -2.89  0.001143334    2.371    0.578
        79  -8.4950    171.5817    121.6278   1.0250771375e+02   2.3372340823e+01    0.3074031    0.1389827 -26.01 0.0009570958    3.473    0.712
        80  -9.5822    232.0546    121.0343   9.0708290919e+01   1.0293924162e+01    0.2193676    0.1970878 -12.20 0.0005733113    1.020    0.020
        81  -9.5760    192.2627    118.5528   9.7430419078e+01   1.9341565548e+01    0.2882297    0.2463384 -64.64 0.0007314706    1.426    0.299
        82  -8.3692    165.8096    119.0395   1.0312890861e+02   2.5134438033e+01    0.2020809    0.1165071 -40.08 0.0006079083    1.737    0.424
        83  -8.3288    220.3137    121.6545   9.2893253845e+01   1.2669170782e+01    0.1444279    0.1144034 -64.68  0.000704713    1.713    0.416
        84  -8.4302    204.2983    116.6581   9.4613803842e+01   1.6989653763e+01    0.1481309    0.1178779 -66.71 0.0002774904    1.668    0.400
        85  -9.0055    209.7526    114.2717   9.2999808610e+01   1.6182156353e+01    0.2614781    0.2264085 -80.72 0.0008283016    1.499    0.333
        86  -8.1129    178.6642    115.6864   9.9502521563e+01   2.2906822838e+01    0.1590767    0.1173456  11.24 0.0007046279    1.689    0.408
        87  -9.2337    153.5191    114.4100   1.0474680998e+02   2.8721812665e+01    0.3091038    0.2160629 -72.51  0.001291838    2.181    0.542
        88  -9.4709    110.0157    115.1648   1.1570901967e+02   3.7281253755e+01    0.2425954    0.1687176  70.09   0.00109849    1.986    0.497
        89  -8.7431    220.1927    114.3991   9.1150344202e+01   1.3868665997e+01    0.1892072     0.142683  63.39  0.000484806    1.607    0.378
        90  -8.8874    241.2500    112.2341   8.7106304009e+01   9.7386885240e+00    0.1805421    0.1603872 -53.61 0.0004458178    1.310    0.237
        91  -9.1435     26.1312    111.3120   1.3782000864e+02   4.9138094566e+01    0.2191051    0.1566761 -39.66  0.001068655    1.571    0.363
        92  -9.2691    236.8443    107.2183   8.6600970652e+01   1.1421906886e+01    0.2482706     0.226809  -4.25  0.001177963    1.036    0.034
        93  -8.9935    197.2009    106.9233   9.3505341697e+01   2.0260273082e+01    0.2230128    0.2041065 -47.64 0.0006407712    1.170    0.145
        94  -8.4868    205.5056    105.9800   9.1691229971e+01   1.8526204391e+01    0.2100968    0.1295379  -5.65 0.0005318554    2.405    0.584
        95  -8.2533    108.6814    106.6962   1.1401364738e+02   3.9352159195e+01    0.1455462    0.1136778 -10.58 0.0005933681    1.627    0.386
        96  -9.8528    228.9809    104.4606   8.7201003290e+01   1.3536173246e+01     0.272196    0.2325451 -84.67  0.000682644    1.524    0.344
        97  -8.8101    213.8868    104.8465   8.9880998945e+01   1.6818140323e+01    0.2222967    0.1907664  10.58 0.0004124059    1.201    0.167
        98 -10.1228    246.8264    102.7939   8.3988965548e+01   9.9980807357e+00    0.3134419    0.2406011 -22.36  0.001000172    1.199    0.166
        99  -8.5674    181.8622    104.1689   9.5847380814e+01   2.4277343373e+01    0.2161252    0.1791344  13.01  0.001065087    1.317    0.241
       100  -9.4960    206.1800     98.2650   8.9571883300e+01   1.9659567216e+01    0.3945973    0.2664498  43.33  0.001614081    1.511    0.338
       101  -8.2446    235.1752     97.6179   8.4513195427e+01   1.3244932465e+01     0.199662    0.1271055  40.82 0.0009419805    1.682    0.405
       102  -8.5817    245.3041     94.6028   8.2239707433e+01   1.1526313885e+01    0.1484389    0.1005651 -56.41 0.0001584722    1.827    0.453
       103  -8.6834    171.5469     96.0614   9.5829215314e+01   2.8142365274e+01    0.2232367    0.1259111 -56.76 0.0008083727    2.534    0.605
       104  -9.2217    150.7066     92.6709   9.9566938760e+01   3.3574961177e+01    0.2552653    0.2265308  10.75 0.0006265495    1.183    0.154
       105  -8.6978    245.3056     87.5235   8.0514887706e+01   1.2563831161e+01    0.2533394    0.1176628 -30.77 0.0007989674    1.968    0.492
       106  -9.2413    227.4959     88.0073   8.3305342919e+01   1.6412423391e+01     0.228676    0.1355903 -30.93  0.001031834    1.587    0.370
       107  -9.6282    218.3660     86.5171   8.4390575787e+01   1.8729464956e+01    0.3009797    0.1840314 -26.98  0.001349798    1.617    0.382
       108  -9.0168    236.1682     86.4078   8.1571942931e+01   1.4716266872e+01    0.1825618    0.1403073  74.82 0.0005525001    1.601    0.376
       109  -8.5150    192.5100     85.5009   8.8679662247e+01   2.5004024775e+01    0.3506483   0.09473452 -46.34 0.0008102806    5.788    0.827
       110  -8.4758    185.8331     83.6997   8.9459425841e+01   2.6911039658e+01     0.519847    0.2100744 -31.98    0.0018119    2.510    0.602
       111  -9.5068    172.0820     84.2236   9.2390239883e+01   3.0127406005e+01    0.2959823      0.19421 -60.17  0.001215617    2.064    0.516
       112  -8.0995    232.5173     82.4500   8.1120960742e+01   1.6119384383e+01    0.1421904    0.1329356 -22.10 6.109063e-05    1.008    0.008
       113  -8.9224    196.4297     82.4994   8.7122989665e+01   2.4556753902e+01    0.1498715    0.1441516 -27.02 0.0001136775    1.033    0.032
       114  -9.1865    245.0045     80.6763   7.8878458397e+01   1.3620492535e+01    0.2514804    0.1782698 -52.27 0.0006962063    1.522    0.343
       115  -9.1061    167.6961     78.1269   9.1546801566e+01   3.2236844798e+01    0.2580287    0.1924135 -51.35  0.001199795    1.485    0.327
       116 -10.4411     43.6738     76.6936   1.2600357437e+02   5.5208106470e+01    0.3995859    0.2005853 -71.13  0.001743047    2.642    0.621
       117  -8.8605    250.1188     76.8938   7.7261344585e+01   1.3056872840e+01     0.219952     0.176473 -48.65  0.001233118    1.245    0.197
       118  -9.5166    240.3100     76.5665   7.8513315496e+01   1.5241018407e+01    0.2972538    0.2291466   0.15 0.0008591712    1.497    0.332
       119  -8.9868    157.8518     76.3570   9.3162671894e+01   3.4898705200e+01    0.2769061    0.2067065 -44.30  0.001307042    1.385    0.278
       120  -9.7287    139.6010     74.3031   9.6805229807e+01   3.9505060527e+01      0.30236    0.1389586 -41.16  0.001134643    2.161    0.537
       121  -8.6927    207.9988     74.2173   8.2829646191e+01   2.3083088258e+01    0.2463715    0.1570437  29.71 0.0006597318    1.959    0.490
       122 -10.3434    230.6821     71.8542   7.8686027254e+01   1.8094151261e+01    0.2358202    0.2301972 -12.93 0.0006970683    1.045    0.043
       123  -9.6558    234.4648     67.1633   7.6952614957e+01   1.7899587203e+01    0.2963761    0.1695691 -31.26  0.001346392    1.627    0.385
       124  -8.9067    188.0247     69.7057   8.5063141514e+01   2.8656967891e+01    0.3322521    0.2027851 -21.87  0.001409257    1.802    0.445
       125  -9.1086    215.1803     69.4962   8.0394069145e+01   2.2074257720e+01    0.2971946    0.1688126 -44.95 0.0007182772    1.797    0.443
       126  -9.4160    239.4343     68.2186   7.6543380665e+01   1.6624715201e+01    0.2468949    0.1951901 -25.28 0.0006881981    1.211    0.174
       127  -8.5522    219.7247     68.9734   7.9554689613e+01   2.1070377397e+01    0.1996981    0.1775669 -26.23  0.000264913    1.086    0.079
       128  -9.9917     43.8881     68.5272   1.2387864935e+02   5.6927301507e+01    0.2855172    0.2172199  -1.71  0.001742217    1.551    0.355
       129  -9.4360    245.4009     65.8660   7.5174388460e+01   1.5622661782e+01    0.2553176    0.1971974 -57.69 0.0007527319    1.373    0.271
       130  -8.8125    218.3562     62.2890   7.7978613889e+01   2.2364425187e+01    0.1497471    0.1080839  26.37 0.0007025804    1.680    0.405
       131  -8.6659    214.4776     61.9820   7.8476078570e+01   2.3340749731e+01    0.2187352    0.1388031 -30.39 0.0005299242    1.525    0.344
       132  -8.9372    201.9147     61.8225   8.0407235734e+01   2.6429220235e+01    0.2043645    0.1725824 -66.16 0.0006547549    1.312    0.238
       133  -9.7612    231.6820     58.8564   7.5203074856e+01   1.9700493234e+01    0.2406137    0.1908236  48.04 0.0006766515    1.341    0.254
       134 -10.1529    224.9525     58.7189   7.6085321102e+01   2.1297527653e+01    0.3909159    0.2138506  23.72  0.001405625    3.338    0.700
       135  -9.0848    174.2015     59.2471   8.4571014060e+01   3.3708718232e+01    0.2202309    0.2012383  31.07 0.0008237322    1.092    0.084
       136  -8.5429     20.3442     57.2928   1.2939276523e+02   6.1346501696e+01    0.1248092   0.07104888 -35.25 0.0007028917    1.661    0.398
       137  -8.9383    156.1513     54.1338   8.6615597765e+01   3.8955716479e+01    0.4342194    0.2616512 -83.32  0.001422026    3.815    0.738
       138 -10.5851    238.5105     54.1547   7.3124766925e+01   1.8763258510e+01     0.273487    0.2336767 -52.16  0.001578672    1.133    0.117
       139  -8.9975    149.5171     52.1221   8.7392155569e+01   4.0877363169e+01     0.221354    0.1463815 -29.29 0.0006363393    1.520    0.342
       140  -8.2601    105.6734     52.3296   9.8566190155e+01   5.0638859033e+01    0.1396517    0.1155068 -71.91 0.0007050816    1.706    0.414
       141  -8.8489    194.8514     49.1521   7.7937117475e+01   2.9991101334e+01    0.4043468    0.1587792 -38.81   0.00128507    2.457    0.593
       142  -8.9813    233.3474     46.2777   7.1763941592e+01   2.0992155032e+01    0.1383593    0.1028501  30.47 0.0003010072    1.635    0.388
       143  -8.4953     25.3795     46.6943   1.2459970070e+02   6.3103101322e+01    0.1093438   0.09108122  79.01 0.0007025649    1.781    0.439
       144  -9.2845    221.2030     44.5280   7.2840720246e+01   2.4102702229e+01    0.3165927    0.2098148  22.66  0.001450449    2.075    0.518
       145  -8.6844    237.6559     44.6826   7.0843801112e+01   2.0197048810e+01     0.139368    0.1025822  26.62 0.0007048813    1.719    0.418
       146  -8.6464    189.9737     44.5046   7.7361500266e+01   3.1850386199e+01    0.2189728    0.1395105  58.12 0.0004369672    1.529    0.346
       147  -8.7240    184.1846     42.9874   7.7854917320e+01   3.3517908032e+01    0.2575025    0.1593111 -57.83  0.001096982    2.021    0.505
       148  -9.5991      5.0665     40.1892   1.3093486864e+02   6.5768950106e+01    0.4787705   0.07197823 -55.03  0.001892832    3.323    0.699
       149 -10.6704    248.5099     38.0393   6.8004110525e+01   1.8562112441e+01    0.4100752    0.3046369  20.68  0.001322699    1.792    0.442
       150  -9.0141    173.8280     40.1558   7.8753364561e+01   3.6519353541e+01    0.2211221    0.2039827 -66.88  0.001216128    1.165    0.141
       151  -9.3122     95.7286     37.3321   9.5967200488e+01   5.5011158227e+01    0.2623673    0.2202644 -25.45  0.001510005    1.155    0.134
       152  -8.3005    165.4817     39.5044   8.0051978132e+01   3.8715762430e+01    0.1467131     0.140003  33.68 6.903092e-05    1.012    0.012
       153 -10.1251    242.1279     37.8031   6.8625543217e+01   2.0032518481e+01    0.2278536    0.1870339 -31.13 0.0007633569    1.179    0.152
       154  -9.4966    229.5028     37.2026   6.9897799455e+01   2.3044216731e+01    0.2514504    0.2086506  50.01 0.0005628765    1.287    0.223
       155  -9.2587    218.3787     34.3379   7.0485274780e+01   2.6069696331e+01     0.260601    0.2219957 -55.43 0.0006494374    1.151    0.131
       156  -7.9833    149.3240     35.6906   8.1935874099e+01   4.3248695890e+01    0.1467778    0.1135675 -67.13 0.0005397458    1.652    0.394
       157  -9.0968    111.7969     35.5807   9.0719014909e+01   5.1982726700e+01    0.1915821    0.1375476  63.07 0.0005892346    1.710    0.415
       158  -8.3851    160.4423     34.4593   7.9353305869e+01   4.0638157644e+01    0.1439903    0.1384581  37.03 0.0001701743    1.013    0.013
       159  -8.6136    104.4415     34.5503   9.2351274887e+01   5.3678226143e+01    0.1393028    0.1262093   3.16 0.0008053858    1.031    0.030
       160  -9.0234    164.4225     32.2927   7.7919865683e+01   3.9905658285e+01      0.26805    0.1416837 -28.25 0.0006288001    1.923    0.480
       161  -8.7504    162.5070     28.5393   7.7039415421e+01   4.0844753505e+01    0.2102045    0.1300215 -38.12 0.0007933547    1.684    0.406
       162  -8.9883    194.3156     29.9626   7.2444719289e+01   3.2587524813e+01    0.1980034    0.1840644 -33.70   0.00054635    1.099    0.090
       163  -8.4187    170.5075     29.0034   7.5812976711e+01   3.8760180768e+01    0.2103042     0.104215 -49.02 0.0008096099    2.462    0.594
       164  -9.8004    220.8129     23.8891   6.7435025377e+01   2.6704954042e+01    0.1919942    0.1492299 -68.76 0.0008488959    1.311    0.237
       165  -8.7080    235.1675    248.3657   1.1483885196e+02  -7.1169001255e+00    0.1581066   0.08476897  43.30 0.0009486728    1.779    0.438
       166  -8.6465    191.4182     21.8107   7.0469484623e+01   3.4254412203e+01    0.1852086    0.1361691  -3.14   0.00056018    1.611    0.379
       167  -9.2406    206.3479     20.4522   6.8183299191e+01   3.0645569277e+01    0.2319353    0.2054791 -43.68 0.0005183858    1.128    0.114
       168  -9.0283    225.4896    246.4770   1.1614738438e+02  -5.5147053225e+00    0.1597524    0.1046033 -42.29  0.001028621    2.238    0.553
       169  -8.2932    174.5232     17.5175   7.1565097045e+01   3.9019044786e+01     0.139208    0.1324077  72.00 1.284474e-05    1.032    0.031
       170  -8.5962    121.0000     16.9470   8.1269703709e+01   5.2267826241e+01    0.2225544   0.07728926 -24.04 0.0008048608    2.959    0.662
       171  -9.2713    232.8589     14.8897   6.3904101799e+01   2.4817165959e+01    0.1863304    0.1381261 -62.53 0.0004796325    1.308    0.235
       172  -9.0633    249.7005    243.2146   1.1170270105e+02  -8.6754153391e+00    0.1743213    0.1621771  19.52  0.001026099    1.609    0.379
       173  -8.5816     63.0000     15.0118   9.7469024454e+01   6.3972679546e+01    0.2062721   0.06399654 -32.55 0.0008053213    2.962    0.662
       174  -9.2309    249.6362     22.5614   6.4200953109e+01   2.0131009953e+01     0.253264    0.2168634  11.73  0.001558442    1.457    0.314
       175  -9.0267    131.2277     13.7811   7.7851075286e+01   5.0199021296e+01    0.2009291    0.1465128  28.34 0.0007957313    1.349    0.259
       176  -8.3145    195.6674    240.2868   1.2029273045e+02  -2.6848584298e-01    0.1088891   0.08220842  55.70 0.0007014619    1.622    0.384
       177  -8.8180    175.5132     12.5294   6.9873551917e+01   3.9273900799e+01    0.1380002    0.1298203  74.21 0.0008095812    1.033    0.032
       178  -8.9495    233.2692    239.0043   1.1372971405e+02  -5.8799432570e+00    0.2949454     0.129824  51.10  0.001300816    3.612    0.723
       179  -9.0648    204.5104    236.3003   1.1818794821e+02  -1.1772203095e+00    0.2561007    0.1936814 -84.70  0.001410523    3.167    0.684
       180  -8.3647    248.4949    235.9686   1.1075386612e+02  -7.7879362999e+00    0.1202424   0.09835759 -49.95 0.0004862793    2.290    0.563
       181  -9.3015    217.0603    234.3682   1.1574158397e+02  -2.9107102444e+00    0.2321185    0.2118475  64.80  0.001680847    1.684    0.406
       182  -8.5619    239.5127    232.0544   1.1159868422e+02  -6.0693813765e+00     0.153038    0.1040829 -20.17 0.0008102857    1.548    0.354
       183  -8.6709    157.4945    231.9824   1.2588897176e+02   6.9189433471e+00    0.1531545    0.1029464 -83.61 0.0008098956    2.752    0.637
