#   1 NUMBER                 Running object number                                     
#   2 MAG_AUTO               Kron-like elliptical aperture magnitude                    [mag]
#   3 X_IMAGE                Object position along x                                    [pixel]
#   4 Y_IMAGE                Object position along y                                    [pixel]
#   5 X_WORLD                Barycenter position along world x axis                     [deg]
#   6 Y_WORLD                Barycenter position along world y axis                     [deg]
#   7 A_WORLD                Profile RMS along major axis (world units)                 [deg]
#   8 B_WORLD                Profile RMS along minor axis (world units)                 [deg]
#   9 THETA_WORLD            Position angle (CCW/world-x)                               [deg]
#  10 FWHM_WORLD             FWHM assuming a gaussian core                              [deg]
#  11 ELONGATION             A_IMAGE/B_IMAGE                                           
#  12 ELLIPTICITY            1 - B_IMAGE/A_IMAGE                                       
         1 -12.8963    199.4748     35.8042   5.6245209929e+01   3.0344093083e+01     1.276016    0.9148399  48.92  0.006273978    1.423    0.297
         2 -13.7117    215.3429     19.3860   4.9502301524e+01   2.8164411767e+01     1.464536    0.9331062  30.27  0.006790429    2.011    0.503
         3 -10.3556      2.3387     22.5257   1.1224111284e+02   7.0537375395e+01    0.2070442   0.08226956 -61.23  0.000924796    1.950    0.487
         4 -10.4929      2.0835      3.5586   1.0539548907e+02   7.4161251695e+01    0.2643083    0.1297607 -55.40  0.001566119    1.705    0.414
         5 -10.6740    222.1963    194.4995   9.0545877884e+01   2.5932073527e+00    0.5726269    0.3151773 -54.69  0.002351348    4.672    0.786
         6 -11.0522    148.9869    250.1168   1.1076615535e+02   7.4666239282e+00    0.3510415    0.1120506  42.22  0.001758267    2.275    0.560
         7 -12.1708    138.9609    248.8427   1.1228960168e+02   9.0907282651e+00    0.4362696    0.2681861  45.53  0.003045892    1.184    0.155
         8 -11.8791    125.3569    247.6599   1.1442660981e+02   1.1207346699e+01    0.3799144    0.2272567 -65.87  0.002585537    2.274    0.560
         9 -15.4766     10.2467    207.1685   1.3113999731e+02   3.1659495595e+01     8.657863     4.535204  85.12   0.06180465    1.549    0.355
        10 -13.5768     11.9413    238.5030   1.3208417226e+02   2.6338902223e+01     1.250619    0.5553214  72.33   0.00707075    1.761    0.432
        11 -11.8379     41.5968    206.3964   1.2562419601e+02   2.8634129610e+01    0.2995034    0.2625374  74.15 0.0004873531    1.298    0.229
        12 -12.8646     28.7995    221.8280   1.2870931573e+02   2.7351861368e+01    0.3924832    0.3312235 -38.61 0.0007609211    2.208    0.547
        13 -15.1938     35.8492    213.6535   1.2707856896e+02   2.7993640815e+01     6.131043     2.388489 -88.85  0.008143567    2.751    0.637
        14 -10.8003    103.9589    238.0114   1.1713955638e+02   1.5573164007e+01    0.1717408    0.1276089  54.34 0.0005647095    1.010    0.010
        15 -11.5163     57.3902    190.4740   1.2147961512e+02   2.9708467018e+01    0.2889123    0.2330036 -46.03  0.001229267    1.828    0.453
        16 -11.6088     63.6207    183.3174   1.1959553028e+02   3.0296618538e+01    0.2251596    0.2098831 -70.44 0.0007881559    1.384    0.277
        17 -11.1380     92.3308    221.6650   1.1770809560e+02   1.9689144235e+01    0.4369745   0.08192556  48.64  0.001586706    4.307    0.768
        18 -10.0717    150.4958    228.4954   1.0810645233e+02   1.0023613156e+01    0.1161753   0.08923744  44.00 -2.385283e-05    1.002    0.002
        19 -10.8371     74.1433    171.8708   1.1621249421e+02   3.1160876769e+01    0.2134586    0.1883069 -87.82 0.0004047842    1.158    0.137
        20 -13.0884     60.7231    169.1758   1.1878886937e+02   3.3444681051e+01    0.4198577    0.2556053 -48.88  0.001657811    2.166    0.538
        21 -11.8888     81.8353    163.3270   1.1350150276e+02   3.1810363978e+01    0.6740196    0.4619836  63.55  0.003971442    1.370    0.270
        22 -14.4085      7.1510    247.7264   1.3309898522e+02   2.5383072289e+01     2.984286    0.7539576  34.16   0.01483689    4.538    0.780
        23 -11.6801     56.4539    128.1586   1.1476583469e+02   4.2703811925e+01     1.751407    0.5423604 -76.92   0.00389718    9.893    0.899
        24  -9.8652     95.7334    148.5272   1.0820307453e+02   3.2776094125e+01    0.2693281    0.2547413 -46.00 0.0007724275    1.264    0.209
        25  -8.9850     99.1081    144.8614   1.0681086888e+02   3.3003278581e+01    0.1693025    0.1594744 -20.13 0.0003792505    1.335    0.251
        26 -11.8910     84.1651    147.3723   1.1075005883e+02   3.4786865798e+01    0.2660581    0.2224671 -58.85 0.0005442391    1.276    0.217
        27 -12.4200     67.6314    144.1678   1.1423311575e+02   3.7782815434e+01    0.7207046    0.4499111  76.03  0.003016177    1.758    0.431
        28  -9.5042    108.4413    134.8712   1.0279328442e+02   3.3538755728e+01    0.3042115    0.2322559 -15.52  0.001373086    2.009    0.502
        29 -10.3528     95.2988    131.7211   1.0544958909e+02   3.6419742329e+01    0.2350495    0.2183449 -26.37 0.0003593277    1.314    0.239
        30  -9.2891    105.8922    122.2784   1.0093972873e+02   3.6668254134e+01    0.1800863    0.1704658  55.40 0.0002595023    1.082    0.076
        31  -9.8570    168.1660    113.1636   8.4051898559e+01   2.5805254003e+01    0.3324204    0.2686319 -81.97  0.001127881    1.626    0.385
        32  -8.9984    203.7480    111.3920   7.6536077468e+01   1.8081657212e+01    0.2154311    0.1278144  39.77  0.000948031    1.709    0.415
        33 -11.0742    243.2401     94.3535   6.5847619231e+01   1.1920642944e+01    0.2362708    0.1940806  68.98  0.001316492    1.477    0.323
        34 -10.5757      2.0000     62.9778   1.2135571987e+02   6.2022475257e+01    0.3302773   0.05103415 -71.27  0.001053263    4.952    0.798
        35 -10.3991     12.8528     61.4434   1.1710513201e+02   6.1751105731e+01    0.2447774   0.08241273 -52.22  0.001151686    2.275    0.560
        36 -11.2849      9.0129     59.7047   1.1820919214e+02   6.2363767279e+01    0.3981808   0.05941388 -57.62  0.001523134    3.378    0.704
        37 -11.9509    161.8570    248.5708   1.0848201310e+02   5.7515006707e+00    0.4418375    0.1952471  37.55  0.002534967    1.789    0.441
        38 -10.3119     63.5936    250.2381   1.2464738584e+02   1.9002424993e+01    0.1967171    0.1129125  38.93 0.0009631012    1.663    0.399
        39 -10.8941     84.3837    247.9932   1.2118034242e+02   1.6747255588e+01    0.2898476    0.1473696  82.49  0.001741582    2.622    0.619
