#   1 NUMBER                 Running object number                                     
#   2 MAG_AUTO               Kron-like elliptical aperture magnitude                    [mag]
#   3 X_IMAGE                Object position along x                                    [pixel]
#   4 Y_IMAGE                Object position along y                                    [pixel]
#   5 X_WORLD                Barycenter position along world x axis                     [deg]
#   6 Y_WORLD                Barycenter position along world y axis                     [deg]
#   7 A_WORLD                Profile RMS along major axis (world units)                 [deg]
#   8 B_WORLD                Profile RMS along minor axis (world units)                 [deg]
#   9 THETA_WORLD            Position angle (CCW/world-x)                               [deg]
#  10 FWHM_WORLD             FWHM assuming a gaussian core                              [deg]
#  11 ELONGATION             A_IMAGE/B_IMAGE                                           
#  12 ELLIPTICITY            1 - B_IMAGE/A_IMAGE                                       
         1 -14.2218    221.8190      4.3652   3.9045267950e+01   2.8998385146e+01     2.373572     1.249268  52.39  0.008129748    2.148    0.534
         2 -14.0667    180.0142     48.7129   5.6507625883e+01   3.4052175321e+01     1.950039     1.394391  27.60 0.0008683238    1.770    0.435
         3 -13.9687    192.1671     38.1144   5.1453858134e+01   3.2414335111e+01     1.178245    0.9669944 -67.24  0.003369811    1.226    0.184
         4 -14.3946    199.2648     30.2509   4.8242712229e+01   3.1624527159e+01     1.441923     1.203562  28.29  0.001381688    1.457    0.314
         5 -12.4215     57.1823      4.1003   7.0530320046e+01   6.7436053832e+01    0.3755462    0.3319794  57.36  0.002526531    1.648    0.393
         6 -11.3199    157.5071     59.5780   6.4202669266e+01   3.8119007618e+01    0.4016345    0.2993216 -86.08 0.0005056912    1.736    0.424
         7 -11.1961    248.4579    249.4191   8.9348085464e+01  -1.1352182767e+01    0.3740463    0.1664457  29.18  0.002122986    1.856    0.461
         8 -16.8041     71.1994    147.5282   1.0956312442e+02   3.6158551912e+01     14.18849     6.756653  77.17   0.01624066    5.289    0.811
         9 -19.1771      5.0573    110.6975   1.2225878837e+02   5.1533635236e+01     16.01302    0.7291377 -72.87   0.02800337   15.561    0.936
        10 -13.2468     32.4081    206.7473   1.2454446925e+02   2.7770187758e+01    0.3458028    0.1537321  56.75  0.001440886    1.896    0.473
        11 -11.9490    207.6735    193.9442   8.7128326081e+01   2.1230086728e+00    0.5128865    0.2782747 -29.37  0.002261247    2.040    0.510
        12 -11.8624    193.6939    195.8335   9.0184108948e+01   4.3397264873e+00     1.251984    0.7579892 -68.69  0.004604396    4.397    0.773
        13 -11.7811    204.5241    199.4913   8.8752891876e+01   1.8191513548e+00    0.3771884    0.3265366  35.73   0.00234536    1.160    0.138
        14 -17.9364     20.2785    242.4773   1.2871197016e+02   2.2341355855e+01      6.52488     3.550136  41.18   0.04509303    1.772    0.436
        15 -10.9628     97.8395    200.6693   1.1083584623e+02   2.0314075618e+01    0.3442946    0.2653039  15.54 0.0006163186    1.928    0.481
        16 -10.4009     62.0475    220.3532   1.2001703487e+02   2.1521454147e+01    0.1861168    0.1259877  66.46  0.001007536    1.198    0.165
        17 -11.7254    152.3985    196.8940   9.8768814266e+01   1.1723796728e+01    0.4596633    0.2826564 -44.53  0.002306477    1.836    0.455
        18 -10.4480     29.8750    218.3608   1.2577448009e+02   2.5756111949e+01    0.2271252    0.1631847 -32.30  0.001359978    3.047    0.672
        19  -9.6245     72.8765    217.6216   1.1771311340e+02   2.0601528289e+01    0.1662754    0.1195419  58.56 0.0004210153    1.133    0.118
        20 -10.7460     37.9093    211.5845   1.2385596383e+02   2.6188092522e+01    0.1492858    0.1089996  66.43 0.0002699292    1.080    0.074
        21 -12.3760     29.0157    196.9305   1.2449632348e+02   3.0142628481e+01    0.2035315    0.1531123  64.60 0.0009457439    1.140    0.123
        22 -10.0310     34.3472    197.1133   1.2346901941e+02   2.9530666883e+01   0.09345339   0.07041078  34.75 0.0001970478    1.633    0.388
        23  -9.9070     82.2264    195.0679   1.1345240604e+02   2.3835948489e+01     0.221495    0.1712395  51.21 0.0008717568    1.197    0.165
        24 -13.4111     64.6714    188.1836   1.1641715218e+02   2.7759595516e+01    0.7992282    0.6869472 -35.84  0.005091401    1.690    0.408
        25 -10.9409     96.6661    190.3861   1.0975953056e+02   2.2629365697e+01    0.3110929    0.2589985  35.24  0.001086086    1.352    0.260
        26 -11.8833     66.6470    206.5328   1.1788266964e+02   2.3646963859e+01    0.5143972    0.3451921 -37.55            0    2.670    0.625
        27 -10.4026     72.5873    203.0576   1.1633835343e+02   2.3547372770e+01     0.368868    0.2077681  74.41  0.001915699    1.907    0.475
        28 -10.0696    153.9277    184.9642   9.6408570296e+01   1.3698338087e+01     0.222728    0.1696086  79.35  0.000894121    1.721    0.419
        29 -11.6884    146.8190    183.3890   9.7669292411e+01   1.5342552336e+01    0.4015794    0.2449358  51.50  0.001528969    1.609    0.379
        30 -10.9971     99.4687    180.7074   1.0779093195e+02   2.4257300317e+01    0.2609271    0.2308147  47.37 0.0005964059    1.175    0.149
        31 -11.5827    140.7393    174.2475   9.7384657627e+01   1.8338901060e+01    0.6692299    0.4112566  71.96  0.002536827    2.585    0.613
        32 -10.5644    204.3699    176.0848   8.4295506558e+01   5.6401058661e+00    0.4093936    0.2522511 -46.81  0.001608772    1.860    0.462
        33  -9.6783    197.3273    176.9037   8.5848982319e+01   6.8454489233e+00    0.2453837    0.1868626  46.89  0.001307005    1.341    0.254
        34 -10.7009     58.6633    176.4520   1.1643271639e+02   3.1125784331e+01    0.2337712    0.1817709  72.71  0.000436331    1.117    0.104
        35 -10.0683     37.5773    176.4753   1.2106602004e+02   3.3613221132e+01    0.3193303     0.140152  51.99   0.00160134    2.126    0.530
        36  -9.3344    188.4604    175.2244   8.7301020208e+01   8.8565428159e+00    0.1875083    0.1371464 -52.31 0.0006130022    1.607    0.378
        37 -10.9795     45.0405    172.8198   1.1907469537e+02   3.3592932222e+01    0.5675873    0.2230025  47.72  0.002653403    2.373    0.579
        38 -10.6151     44.0607    210.2886   1.2260373066e+02   2.5733410226e+01    0.2765889    0.1718586 -87.92 0.0007081442    1.413    0.292
        39  -9.5694    185.6924    169.3279   8.6678011795e+01   1.0473211669e+01    0.1399169    0.1164254  87.97 0.0007038269    1.657    0.396
        40 -10.5579    230.0009    166.2748   7.7450067468e+01   2.4434925764e+00    0.2729675    0.1661713 -56.14  0.001177467    2.695    0.629
        41  -9.8585    161.3728    165.3139   9.1064824925e+01   1.6125451468e+01    0.1991443    0.1396177 -56.14 0.0009415427    1.603    0.376
        42 -10.8734     42.3245    205.9574   1.2260107698e+02   2.6809611879e+01    0.2461436     0.227656 -22.81  0.001228677    1.765    0.433
        43  -8.9561    149.4846    155.9775   9.1838227126e+01   2.0453324998e+01    0.2132848    0.1322853 -72.99 0.0008104424    2.601    0.615
        44 -12.3372     94.2205    153.5226   1.0473438558e+02   3.1258518046e+01    0.6364515    0.4740279 -25.99  0.003127495    1.963    0.491
        45 -11.5457    133.9352    145.5314   9.3326936052e+01   2.5858833188e+01     1.257162    0.3317064 -55.36  0.003044582    5.646    0.823
        46  -9.3507     56.1275    210.8698   1.2034141361e+02   2.4142372643e+01    0.3665949    0.2217089  78.66  0.001439253    1.520    0.342
        47 -10.5438    174.3012    148.6102   8.4665917465e+01   1.6804847066e+01    0.3780237    0.2861226 -64.16  0.001296791    1.627    0.385
        48 -10.6947    143.9904    146.1977   9.1049251536e+01   2.3675659398e+01    0.3656246    0.2127517 -65.87  0.001401738    2.408    0.585
        49 -13.4428     55.2574    201.1465   1.1965634892e+02   2.6230960913e+01    0.4464824    0.3601601 -84.21  0.001633754    1.191    0.161
        50 -11.4071    107.0176    139.1164   9.8762638553e+01   3.2448899235e+01    0.5306563    0.4852481  -5.74  0.002832186    1.331    0.249
        51 -12.3218     94.1583    139.0527   1.0211142150e+02   3.4681565893e+01    0.2846135    0.2571089 -47.72 0.0004389677    1.186    0.157
        52 -11.3018    119.8475    123.8208   9.2025004701e+01   3.3597983423e+01     0.678606    0.3654201 -29.44  0.002314839    3.101    0.678
        53 -10.8740    114.0804    129.9517   9.4956991936e+01   3.3291781374e+01    0.3483473    0.3082226   1.52 0.0008409227    1.380    0.275
        54 -11.0033    105.9160    130.8045   9.7308622001e+01   3.4601415742e+01    0.3711633    0.3087029 -75.66  0.001188208    1.227    0.185
        55 -11.1829    135.7799    127.8020   8.8868076125e+01   2.9450424110e+01    0.6727094    0.1975696 -50.19   0.00193917    3.589    0.721
        56 -10.2028    160.6616    127.9188   8.2887234051e+01   2.4035985517e+01    0.3243735     0.279672 -75.92  0.001346185    1.328    0.247
        57 -11.1406    101.5372    125.8029   9.7398732516e+01   3.6565270492e+01     0.286819     0.243673 -28.27 0.0006417903    1.369    0.270
        58 -10.2201    109.7050    118.9621   9.3597691903e+01   3.6681069599e+01     0.234754     0.213202  47.69 0.0004434084    1.142    0.124
        59 -10.1122    167.8509    112.5979   7.7349327690e+01   2.5581572664e+01    0.3932225    0.2757999 -75.81  0.001479327    2.122    0.529
        60 -10.2342    135.0000    111.6643   8.5027641007e+01   3.3207918301e+01    0.4761111    0.1339771 -43.17  0.001338664    3.586    0.721
        61  -9.6157    134.5300    105.5436   8.3517028770e+01   3.4651619321e+01    0.3944099    0.1505822 -46.57  0.001298031    2.594    0.614
        62 -11.5724    118.6982    110.6196   8.9071809112e+01   3.6850016412e+01    0.6470873    0.4302366  66.81   0.00270751    2.025    0.506
        63 -10.2274    205.5190    110.1838   6.8972124247e+01   1.7270965329e+01    0.3153641    0.2180158  41.94 0.0008765747    1.532    0.347
        64 -10.4083     65.2987    100.1287   1.0221940710e+02   4.8346567154e+01    0.3147309    0.2093328  22.75  0.001165827    1.854    0.460
        65  -9.0721     48.4921    217.5644   1.2232703924e+02   2.3766491372e+01    0.1952169    0.1038979  35.95 0.0006389093    2.015    0.504
        66  -9.3244    155.7623     81.2218   7.1287388144e+01   3.4700607813e+01    0.2155754    0.1849275  17.63 0.0005938951    1.318    0.241
        67  -9.6440     66.3999     70.8705   9.4108977952e+01   5.4823829042e+01    0.2104788    0.1852122  46.47 0.0005854779    1.334    0.250
        68  -9.9383    152.3721    211.2216   1.0103264649e+02   9.1518824204e+00    0.1606182    0.1256243 -67.71 0.0002564774    1.575    0.365
        69 -10.4229    169.0612    236.1378   1.0140447250e+02   2.3264950979e+00    0.1767286    0.1642215  22.50 0.0003924202    1.164    0.141
        70  -6.2186     51.6863    215.3234   1.2155544570e+02   2.3814218476e+01    0.1705561    0.1037628 -61.74 0.0006024967    1.850    0.460
        71 -11.5102     61.1070    234.2251   1.2129744229e+02   1.9047302670e+01    0.1951618    0.1382298  82.61 0.0003775157    1.240    0.193
        72 -10.8609    160.0712     53.5420   6.1745791859e+01   3.8441324830e+01    0.2767453    0.2445766 -42.90 0.0004052688    1.147    0.128
        73  -9.3317    220.5127    228.2767   9.0766630717e+01  -4.8838903544e+00    0.2018816    0.1075201 -50.41 0.0009539092    3.309    0.698
        74 -10.6238    189.9349     14.9932   4.5115592211e+01   3.5797004057e+01    0.2148362     0.195517 -89.01  0.000700508    1.008    0.008
        75 -10.3057     53.9890    231.5180   1.2236372808e+02   2.0444519523e+01    0.2080766    0.1319968  86.48  0.001376546    1.420    0.296
