#   1 NUMBER                 Running object number                                     
#   2 MAG_AUTO               Kron-like elliptical aperture magnitude                    [mag]
#   3 X_IMAGE                Object position along x                                    [pixel]
#   4 Y_IMAGE                Object position along y                                    [pixel]
#   5 X_WORLD                Barycenter position along world x axis                     [deg]
#   6 Y_WORLD                Barycenter position along world y axis                     [deg]
#   7 A_WORLD                Profile RMS along major axis (world units)                 [deg]
#   8 B_WORLD                Profile RMS along minor axis (world units)                 [deg]
#   9 THETA_WORLD            Position angle (CCW/world-x)                               [deg]
#  10 FWHM_WORLD             FWHM assuming a gaussian core                              [deg]
#  11 ELONGATION             A_IMAGE/B_IMAGE                                           
#  12 ELLIPTICITY            1 - B_IMAGE/A_IMAGE                                       
         1 -14.2861    198.2043     74.8615   7.3499262348e+01   2.5542710440e+01     2.399731     1.495532  29.65  0.005292355    1.927    0.481
         2 -15.1894    204.6767     90.0988   7.6531159859e+01   2.1677591969e+01     3.711476     2.548313   9.46   0.01675759    1.840    0.456
         3 -16.0851    202.0722    116.4146   8.3638338794e+01   1.8234540913e+01     4.888629     3.468653  53.17   0.01491475    1.440    0.306
         4 -10.7951    168.7665     38.0255   6.7431641853e+01   3.8413758751e+01    0.6019533      0.14063 -29.66  0.001693543    3.872    0.742
         5 -11.0941    191.1218     27.0580   6.0124110092e+01   3.3907247374e+01    0.4251869    0.2870381  52.45  0.001995734    1.451    0.311
         6  -9.7038    192.5173     14.5152   5.5893413709e+01   3.4927069938e+01    0.1435112    0.1420137  75.98  0.000212408    1.005    0.005
         7  -9.6501    242.7255      7.7628   4.8638157565e+01   2.2695908743e+01     0.243951    0.1669078  70.50  0.001289327    1.503    0.335
         8 -10.9564    184.1257    201.8749   1.0323167162e+02   9.4177073514e+00    0.2288107    0.1751763  19.54  0.001452478    1.374    0.272
         9  -9.2521    196.2957    202.9672   1.0132623101e+02   7.2361345478e+00    0.1590129     0.132375  26.95  0.000397271    1.092    0.085
        10  -8.9661    230.4995    198.4867   9.5005514371e+01   2.0470000078e+00    0.1178538   0.09207533  26.75 0.0002264654    1.031    0.031
        11  -9.0950    191.6420    201.2687   1.0185831849e+02   8.2261366466e+00    0.1597089    0.1411583  27.65 0.0004361133    1.126    0.112
        12 -10.1753    188.4955    200.4917   1.0227853573e+02   8.8547136341e+00    0.2228134    0.1700229  53.44 0.0007524739    1.338    0.252
        13  -9.5749    214.7825    199.3537   9.7691255600e+01   4.5570442465e+00    0.3362566    0.1716442  22.23   0.00164983    2.490    0.598
        14 -10.1060    212.4617    197.4891   9.7776552034e+01   5.1586245169e+00    0.2273818    0.1815458  47.30 0.0008869888    1.312    0.238
        15 -10.8966    155.4865    194.9830   1.0728212446e+02   1.5188854530e+01    0.2786207     0.146667  47.03 0.0008165263    1.567    0.362
        16 -10.5625    199.7145    193.5748   9.9293314305e+01   7.7996935343e+00    0.2581795    0.1678397   2.25  0.001434645    2.126    0.530
        17 -10.3811    208.2238    192.0202   9.7600063690e+01   6.5220640300e+00    0.3853041    0.2416242  54.46  0.002199765    1.787    0.440
        18 -10.1230    143.4129    192.7216   1.0916469602e+02   1.7536910557e+01    0.2113285    0.1318846  30.85  0.001187049    1.810    0.448
        19  -9.8601    226.9084    191.3991   9.4406090419e+01   3.4060767493e+00    0.2141635    0.1593869  -1.73 0.0008377806    1.373    0.271
        20  -9.6523    117.3060    192.3327   1.1393069844e+02   2.1770632636e+01    0.1051768   0.09097429  10.78 0.0007039175    1.664    0.399
        21  -9.4136    232.3759    188.6629   9.3056617201e+01   2.7845061696e+00    0.1582774    0.1450948  70.78  0.001100236    1.666    0.400
        22  -9.7447    128.7855    188.6177   1.1132778786e+02   2.0567681504e+01    0.1786304   0.09241413  51.29 0.0009523132    1.675    0.403
        23  -9.9793    197.9578    178.5246   9.7101558185e+01   1.0037962198e+01    0.2703716    0.1602722 -12.02  0.001317771    2.564    0.610
        24 -10.6462    192.9958    185.8022   9.9197631898e+01   9.9649335929e+00     0.251378    0.1673663 -22.76  0.001465229    1.851    0.460
        25 -10.6123    194.1638    181.6177   9.8296831697e+01   1.0310445284e+01    0.2328878    0.2265902  60.37  0.000881277    1.269    0.212
        26 -10.6820    182.0000    186.0053   1.0117463158e+02   1.1883932583e+01     0.265572    0.1820152 -37.77  0.001603563    1.736    0.424
        27 -11.5766    179.5994    183.2411   1.0116091419e+02   1.2693902265e+01    0.3419923    0.2828874 -20.38  0.001809441    1.429    0.300
        28 -10.9146    203.3190    184.9030   9.7255256293e+01   8.2534877919e+00    0.2595097    0.1907126  42.15  0.001630547    1.181    0.153
        29  -9.7402    198.4277    184.6678   9.8061898601e+01   9.1498715098e+00    0.2338868    0.1722205  60.07  0.001237537    1.638    0.389
        30  -9.3631    247.1070    183.1807   8.9761197157e+01   9.0435356437e-01    0.1916689    0.1323521  19.64 0.0007900777    1.226    0.185
        31 -10.6679    188.0671    181.9194   9.9427464489e+01   1.1363253747e+01    0.3025563    0.1921786 -28.60   0.00171037    1.913    0.477
        32  -9.2360    222.2188    182.3905   9.3627326859e+01   5.2338512159e+00     0.172901    0.1036116  50.23 0.0009512597    1.709    0.415
        33  -9.3427    210.9648    179.4991   9.5015588428e+01   7.5721620511e+00    0.1769012    0.1543208   7.18 0.0004583025    1.144    0.126
        34 -10.8975    203.4777    176.3306   9.5751747126e+01   9.3259365956e+00    0.3180399    0.2745185 -56.31   0.00178346    1.580    0.367
        35  -9.9024    118.8407    177.3563   1.1173880826e+02   2.4045908278e+01    0.3103586   0.07602306 -50.75    0.0011241    4.661    0.785
        36 -11.4467    161.7917    176.6228   1.0337408931e+02   1.6849129843e+01     0.330489    0.1853176  54.52  0.001078923    1.775    0.437
        37 -15.3259    172.8076    156.2589   9.7740077113e+01   1.7996295010e+01     2.922902     2.344013 -38.28   0.01734615    1.392    0.281
        38 -11.4357    178.2157    222.2399   1.0701557305e+02   7.8840002811e+00    0.5783433    0.2505269  55.03   0.00278913    2.778    0.640
        39 -13.3426    222.6998    137.1595   8.4697883367e+01   1.0888002367e+01     1.352669    0.9858095  33.95  0.001997574    1.260    0.206
        40 -14.0748    199.3763    144.7585   9.0448157713e+01   1.4513491077e+01     2.254645     1.665144  56.85  0.008884801    1.482    0.325
        41 -10.2972    204.5903    219.8011   1.0240268236e+02   3.9717774475e+00    0.2045617    0.1735133 -82.85  0.001456606    2.009    0.502
        42 -13.0453    246.2582    116.1955   7.6164644655e+01   8.8827861715e+00     2.008764     1.309062  30.82  0.007548789    1.528    0.346
        43  -9.1199    149.4951    154.4950   1.0203845926e+02   2.2714734191e+01    0.1324017    0.1186429  54.20 -8.275609e-05    1.026    0.026
        44 -10.3966    114.9070    149.4446   1.0842576143e+02   2.9777326145e+01     0.412384    0.2403146 -82.77  0.001832819    2.723    0.633
        45  -9.3769     89.8558    150.5983   1.1403722165e+02   3.3485289464e+01    0.2067595    0.1424368 -74.20  0.001220574    1.444    0.308
        46  -9.0376    220.2227    175.1748   9.2675226278e+01   6.4477980775e+00    0.1524877    0.1335468  41.58 0.0003990919    1.246    0.197
        47 -12.3131    149.8242    137.2074   9.8700162295e+01   2.5716213526e+01    0.6566224    0.4391847 -81.81  0.002936397    2.482    0.597
        48 -11.4253    158.4711    147.0899   9.8844632985e+01   2.2287549184e+01    0.3722198    0.2355542 -34.93  0.001631672    1.854    0.461
        49 -11.4272    154.9956    144.4936   9.9055338748e+01   2.3411720117e+01     0.367015    0.2455289  36.35  0.001622182    1.505    0.336
        50 -10.7357    148.0680    173.7842   1.0553879849e+02   1.9731638691e+01    0.3496852    0.2417468   1.25  0.001713742    2.742    0.635
        51 -10.4588    135.3377    141.2783   1.0258623806e+02   2.7724906624e+01    0.5236848    0.1683946 -53.85   0.00179911    3.806    0.737
        52 -10.4242    240.3275    139.2242   8.2226029600e+01   7.1499899257e+00    0.5669243     0.286608  19.23  0.002294502    2.906    0.656
        53 -10.2762    236.3008    136.4546   8.2279539309e+01   8.2809719463e+00    0.3168825    0.2317532 -44.24  0.001368699    1.701    0.412
        54  -9.4592    221.9979    170.4938   9.1518176651e+01   6.6999288047e+00    0.1998258     0.174409  72.55  0.001225181    1.657    0.396
        55 -10.8286    150.2261    127.8402   9.6674893223e+01   2.7346938898e+01    0.4093145    0.2838278  13.45  0.001863966    2.224    0.550
        56 -10.9409    155.5242    126.5248   9.5253459970e+01   2.6512969536e+01    0.3738771     0.283403  53.15   0.00104364    1.287    0.223
        57  -9.5006    219.3074    167.6764   9.1447012028e+01   7.5408378099e+00     0.209883    0.1925432 -73.46  0.001311568    1.594    0.373
        58 -10.6999    137.5548    122.1971   9.8260154668e+01   3.0927461244e+01     0.371108     0.183967 -53.45  0.001068752    2.238    0.553
        59 -11.1114    138.2093    118.4086   9.7282513094e+01   3.1528417544e+01    0.5732191    0.2629155  57.09  0.002152182    2.727    0.633
        60 -11.6207    139.5195    115.4953   9.6329590216e+01   3.1828510210e+01    0.5976123    0.3401389 -68.90  0.002246493    3.080    0.675
        61 -10.2160    207.6223    167.9930   9.3520967965e+01   9.6604806273e+00    0.4716048    0.3351209  72.22  0.002435534    2.338    0.572
        62  -9.3568    153.7486    120.0003   9.4186357315e+01   2.8070497255e+01    0.2081757    0.1900582  14.28 0.0003060726    1.184    0.155
        63 -12.2480    149.6124    119.5732   9.4993412937e+01   2.9003373904e+01    0.5243477    0.4169795 -43.00  0.002817554    1.308    0.235
        64 -11.3813    150.8622    114.6177   9.3580387548e+01   2.9668435225e+01    0.6222243     0.254346  46.98  0.002367763    2.368    0.578
        65  -9.3152    199.4807    168.9882   9.5141112805e+01   1.1042646344e+01    0.2466565    0.1831663 -21.50  0.001072667    1.509    0.337
        66 -11.5477    162.5049    114.9309   9.1129137177e+01   2.7142731569e+01    0.4387723    0.3080926 -59.84  0.001466938    1.753    0.430
        67 -10.5247     96.3746    117.9606   1.0715095313e+02   3.9169496432e+01    0.2821319    0.2193399 -59.01  0.001628525    1.243    0.195
        68 -11.0132    130.0063    107.4065   9.6674012472e+01   3.5308188473e+01    0.6079736    0.1880205 -47.15  0.001944057    3.264    0.694
        69 -11.5390    198.1737    164.5051   9.4549217627e+01   1.1907498639e+01    0.4279723    0.2679185  56.11  0.001663887    1.780    0.438
        70 -10.9746    202.3756    162.7783   9.3472346469e+01   1.1351027190e+01    0.7802266    0.4251085  10.54  0.002901721    3.937    0.746
        71 -10.2786    101.7995    105.8065   1.0329388471e+02   4.0833343361e+01    0.2614975    0.2226981  81.50  0.001504522    1.224    0.183
        72 -11.0944    143.1582    166.2514   1.0530453572e+02   2.1849655754e+01    0.4342785    0.2419733  20.93  0.001633328    4.047    0.753
        73 -11.8780    188.9834    121.7551   8.7362000413e+01   2.0247426347e+01    0.4330646    0.3745931  12.68 0.0005898796    1.180    0.152
        74  -9.8494    126.0886    100.7550   9.6018989266e+01   3.7407917944e+01    0.2347459    0.1847684 -59.29 0.0002921812    1.314    0.239
        75 -10.4355    149.0102     99.0706   9.0179227176e+01   3.2975295100e+01    0.2264518    0.2208809   4.43 0.0007396506    1.046    0.044
        76 -11.8938    131.3553    165.0596   1.0747546321e+02   2.4116150673e+01    0.4900345    0.3021889  46.48  0.002692319    1.437    0.304
        77 -11.0947    155.4985    160.6580   1.0192183520e+02   2.0553383005e+01    0.3998666    0.3533917  58.22  0.002529282    1.092    0.084
        78  -9.9666    242.8452     89.1701   7.0160919310e+01   1.3092517544e+01     0.269622    0.1962106  38.62 0.0008346177    1.389    0.280
        79 -10.8509    246.0188     86.0200   6.8916092950e+01   1.2807411849e+01    0.3730618    0.2919619 -36.51  0.002051187    1.285    0.222
        80  -9.4777    123.9444     88.9639   9.3529937447e+01   4.0192207573e+01     0.231858    0.1793194 -86.82  0.001004276    1.681    0.405
        81  -9.6147    141.9663    176.2798   1.0709655311e+02   2.0384554451e+01    0.1867036    0.1462545  49.34  0.001173545    1.094    0.086
        82 -12.1671    238.4010     76.6643   6.7608163826e+01   1.5719062727e+01     0.775921    0.6826784   7.53  0.003657985    1.106    0.096
        83 -10.4198    232.3360     81.6660   6.9795246486e+01   1.6439199892e+01    0.3411153     0.253298 -40.46  0.001159039    1.383    0.277
        84 -10.1684    229.2241     78.3995   6.9406344803e+01   1.7598227562e+01    0.3357981     0.217949  57.06  0.001523049    1.624    0.384
        85 -11.3893    168.1094     80.3300   8.0865393316e+01   3.1983888405e+01    0.5463536    0.4355294 -21.23  0.001403123    1.313    0.238
        86  -9.6480    231.7685     74.0090   6.7867068710e+01   1.7596958803e+01    0.2783447    0.1697017 -21.17 0.0007712825    1.612    0.380
        87  -9.5314    202.4056    215.7896   1.0218987968e+02   4.7562125295e+00    0.2347194    0.1644647  19.40  0.001583037    1.434    0.303
        88 -10.8694    126.6645    155.6814   1.0694551307e+02   2.6608435967e+01    0.2584817    0.2262337 -31.65  0.001616963    1.427    0.299
        89 -10.1988    120.2777    158.9320   1.0879203570e+02   2.7098456099e+01    0.2461457     0.160698  64.36    0.0013303    1.627    0.385
        90  -9.8705    132.8026     72.2020   8.6515294632e+01   4.1574116809e+01    0.2110867    0.1787937   9.47  0.001080033    1.355    0.262
        91  -9.5130    119.0000     69.9777   8.9379426107e+01   4.4926535740e+01    0.2477815   0.08035354 -41.73 0.0008059568    2.967    0.663
        92 -10.6971    242.9160     66.1910   6.4252236726e+01   1.6034614647e+01    0.5245358    0.3653608 -85.50  0.002492366    2.068    0.516
        93 -10.2421    238.5067     66.5055   6.4926960801e+01   1.7011239881e+01    0.2765498    0.2400383  35.12  0.001089049    1.182    0.154
        94  -9.6872    194.9918     67.4577   7.1939902104e+01   2.7448100881e+01    0.2247711    0.2031371 -15.14 0.0004089464    1.089    0.082
        95 -10.2208    189.9086     67.1071   7.2743794613e+01   2.8770803410e+01    0.5161065    0.1770035  52.30  0.001724887    2.755    0.637
        96 -10.8194    220.4870     65.1947   6.7147613587e+01   2.1469021494e+01    0.3958744    0.3707035  -8.27  0.002229123    1.016    0.016
        97 -11.1867    201.6723     63.2419   6.9568600351e+01   2.6392910058e+01    0.5532341    0.3599764 -19.63  0.001872839    1.602    0.376
        98  -8.9815    182.4992     66.4762   7.3924880641e+01   3.0720648969e+01    0.1507362    0.1479296  -6.22 0.0008100779    1.026    0.025
        99 -10.4744    166.3985     65.4037   7.6775880788e+01   3.4893527477e+01    0.2741619    0.2632659 -80.20 0.0006565201    1.127    0.113
       100 -11.1383    190.4763     59.0488   7.0239451540e+01   2.9826955705e+01    0.5677345    0.3129421 -29.58  0.002358427    1.777    0.437
       101 -11.8450    181.5579     60.0927   7.2167552282e+01   3.1934897671e+01    0.5991675     0.449314  75.67  0.002810112    1.571    0.364
       102  -9.9649    231.1607    157.3772   8.7468016972e+01   6.6318378319e+00    0.3728399    0.2801321  80.60  0.001922703    2.555    0.609
       103 -11.0484    202.9512     47.6753   6.4756826094e+01   2.8219474933e+01    0.6825746    0.2656396 -42.79   0.00235793    2.723    0.633
       104 -10.5201    206.5039     56.6603   6.6866818406e+01   2.6101079654e+01    0.3209757    0.2928251  -7.28  0.001736428    1.082    0.076
       105 -10.8502    202.9966     54.1720   6.6688656922e+01   2.7331225673e+01    0.4456167    0.3562312  -5.53  0.001780869    1.326    0.246
       106  -9.6681    242.9356     56.6460   6.1731158764e+01   1.7220930137e+01    0.2894209     0.160473  53.48  0.001297791    1.855    0.461
       107 -10.4082    158.4807     55.0943   7.5158243034e+01   3.8511749733e+01    0.6839222    0.3995632 -88.18  0.002136044    4.049    0.753
       108 -11.6046    226.6607     55.6925   6.3618691107e+01   2.1221239350e+01    0.5974776    0.4117897  20.09  0.002802722    1.735    0.424
       109 -11.7678    141.2657    151.5589   1.0320444491e+02   2.4752327774e+01    0.5309671    0.2594679 -39.36  0.002345578    2.571    0.611
       110  -9.0712    250.0115     52.5212   5.9782939099e+01   1.6087521207e+01    0.1878437    0.1159731 -74.20 0.0008087336    2.431    0.589
       111 -10.0339    197.5482     48.1890   6.5758406602e+01   2.9541883100e+01    0.3035299    0.2376317 -70.07  0.001466549    1.524    0.344
       112 -10.1596    194.9971     43.8967   6.4846667195e+01   3.0776858238e+01    0.2902231    0.2069175 -23.20 0.0004351887    1.399    0.285
       113 -11.6925    169.9259     48.6178   7.0734500651e+01   3.6613028037e+01    0.7328393     0.298624  64.23  0.002453149    2.880    0.653
       114  -9.2128    190.7098     46.5448   6.6363700049e+01   3.1534569037e+01    0.2900428    0.1328689 -27.65  0.001089234    2.140    0.533
       115  -9.6238    233.2981     45.6081   5.9952599587e+01   2.0865309451e+01     0.529362    0.1561014  47.43  0.001680177    3.707    0.730
       116 -11.7708    223.0633     46.0129   6.1387597914e+01   2.3334901474e+01    0.7922515    0.3630101  37.70  0.002882282    2.822    0.646
       117  -9.4356    245.6486     45.7010   5.8494010892e+01   1.7906069528e+01    0.1459608    0.1011967  26.72 0.0007036556    1.692    0.409
       118 -10.7505    163.1966     43.9808   7.0504679391e+01   3.9012787717e+01    0.2766095    0.2269571  53.77  0.001213355    1.214    0.177
       119  -9.9109    210.4102    218.2733   1.0125468318e+02   3.2109041588e+00    0.1853769    0.1071136 -25.77  0.001154116    2.172    0.540
       120 -10.0518    174.6541     42.7470   6.7929112393e+01   3.6232477509e+01    0.3444909    0.1803785 -34.77  0.001391005    1.855    0.461
       121 -10.3793    243.2804     36.8254   5.6387495124e+01   1.9494760101e+01    0.3679196    0.2251455  -3.91  0.001671013    1.958    0.489
       122 -11.0172    213.0134     45.6812   6.2677292820e+01   2.5906489622e+01    0.4640447     0.415204  43.26   0.00253058    1.136    0.120
       123  -9.5449    206.4201     36.1863   6.0782251532e+01   2.8789446117e+01     0.262409    0.1989323 -71.96  0.001117764    1.547    0.354
       124 -10.3309    218.4913     34.7171   5.8733822842e+01   2.5860967895e+01    0.3137654     0.150442  51.35  0.001261287    2.088    0.521
       125  -9.7612    163.9793     36.0000   6.7633062070e+01   3.9932632027e+01    0.2539478   0.08568405  60.72 0.0008055129    2.964    0.663
       126  -9.8764    175.6886     34.3191   6.4953965073e+01   3.7094937546e+01    0.3322717    0.1458087  42.71  0.001177021    2.507    0.601
       127 -11.6363    129.5252    156.0378   1.0640808348e+02   2.6046348702e+01    0.5229009    0.3168153  84.04  0.002263009    2.959    0.662
       128 -10.3973    236.6356     31.0706   5.5553098643e+01   2.1749006790e+01    0.3450088    0.2447154  -2.71   0.00172344    1.581    0.367
       129 -10.8373    173.5895     30.6728   6.4086521980e+01   3.8114669203e+01    0.5167418    0.1478379  57.28  0.001632728    3.060    0.673
       130  -8.9889    246.1538     28.2329   5.3783701130e+01   1.9768300791e+01    0.2421509     0.126206  28.95  0.000948694    2.845    0.648
       131  -9.8067    195.3328    215.3421   1.0328079020e+02   5.9461336472e+00    0.2187429    0.1404835 -35.85  0.001431801    1.969    0.492
       132  -9.8253    226.0392     22.6305   5.4353055077e+01   2.5312527662e+01    0.3588104    0.2314009  40.12  0.001700658    1.729    0.422
       133  -9.8400    209.1963     21.3189   5.5916710514e+01   2.9787861304e+01    0.4494626    0.2303656  88.19  0.001694486    2.678    0.627
       134  -9.1505    187.0357     41.2394   6.5300610899e+01   3.3206423558e+01    0.2576873    0.1724894 -72.55  0.001081974    2.043    0.510
       135  -9.7346    141.8285     22.3494   6.7052302839e+01   4.7394347431e+01    0.2126823    0.1918093 -32.15  0.001152139    1.139    0.122
       136 -10.5288    182.5571     26.5518   6.1247428633e+01   3.6243094900e+01    0.3304136    0.2482624  71.71  0.001608639    1.383    0.277
       137 -10.2962    234.7844    213.2671   9.6673355795e+01  -1.2117970072e-01     0.363638    0.2197811  -0.81  0.002266913    1.938    0.484
