#   1 NUMBER                 Running object number                                     
#   2 MAG_AUTO               Kron-like elliptical aperture magnitude                    [mag]
#   3 X_IMAGE                Object position along x                                    [pixel]
#   4 Y_IMAGE                Object position along y                                    [pixel]
#   5 X_WORLD                Barycenter position along world x axis                     [deg]
#   6 Y_WORLD                Barycenter position along world y axis                     [deg]
#   7 A_WORLD                Profile RMS along major axis (world units)                 [deg]
#   8 B_WORLD                Profile RMS along minor axis (world units)                 [deg]
#   9 THETA_WORLD            Position angle (CCW/world-x)                               [deg]
#  10 FWHM_WORLD             FWHM assuming a gaussian core                              [deg]
#  11 ELONGATION             A_IMAGE/B_IMAGE                                           
#  12 ELLIPTICITY            1 - B_IMAGE/A_IMAGE                                       
         1 -10.3062    250.2460     28.7132   4.0908079423e+01   1.9805802667e+01    0.7846738    0.1347398 -33.30 0.0006015153    4.451    0.775
         2 -10.1305    250.2067      5.0411   3.5727785954e+01   2.2584617686e+01    0.5233806    0.1255567 -36.03   0.00210602    3.121    0.680
         3 -11.2518    213.4048     24.3314   4.3496796585e+01   2.8856521742e+01     1.475939     0.817154 -59.44  0.006906537    1.891    0.471
         4 -12.2430    239.7270     16.6828   3.9103314589e+01   2.3587966517e+01     3.618899          nan  62.31  0.008296645    9.516    0.895
         5 -13.4027    226.3147     52.0829   4.9001389440e+01   2.2088707420e+01     9.600736    0.4653898 -41.20   0.02170887    7.065    0.858
         6 -11.1316    237.7952     46.1920   4.6199641463e+01   2.0273049630e+01    0.5986036    0.5116709  32.02  0.002131299    1.503    0.334
         7 -11.5536    167.1395     56.8631   5.9676093695e+01   3.6053283513e+01     1.969925    0.8561919 -58.57  0.005167354    5.278    0.811
         8  -9.0666     54.5678     19.3183   7.7514091162e+01   6.5776660164e+01    0.4548993    0.1384566 -40.62  0.001745178    3.488    0.713
         9  -9.4643    133.8442     15.3141   5.2462125120e+01   4.9905167134e+01     0.507954    0.2293672 -33.71 0.0006171053    2.315    0.568
        10  -9.2608    185.3579     13.3903   4.3815990628e+01   3.7076552537e+01    0.4952061    0.1687564 -34.19  0.001932488    2.762    0.638
        11  -9.3749    211.4880     13.6009   4.0966852464e+01   3.0557586477e+01    0.2613495    0.1901536 -55.33 0.0006430083    1.288    0.223
        12  -9.2324    116.4683     12.3296   5.5000095048e+01   5.4378856423e+01    0.3958836     0.198786  63.40  0.001415762    1.980    0.495
        13 -10.3078    120.2844      8.9600   5.2867656816e+01   5.3804388574e+01    0.4798732    0.3906896  67.83  0.001306818    1.244    0.196
        14  -7.7841    195.6012     10.2416   4.1756944469e+01   3.4830645872e+01     0.175214    0.1327459 -10.19 0.0009578326    1.660    0.398
        15  -8.5350     99.9727      4.4820   5.5725682902e+01   5.8867783049e+01    0.1998829    0.1179281  57.06 0.0007867041    1.570    0.363
        16  -7.2158    205.5984      3.7977   3.9050849458e+01   3.3018461770e+01    0.1310183   0.08347837  55.51 0.0005430282    1.623    0.384
        17  -8.9090    130.5388     19.2479   5.4550970009e+01   5.0297281246e+01     0.266515    0.1826682 -20.42  0.001362844    1.580    0.367
        18 -11.8155     40.5363    167.1557   1.1833777111e+02   3.5267934137e+01     0.833211    0.7132142 -86.43  0.003347892    1.096    0.088
        19  -8.3701    202.2411    171.6171   8.1950534615e+01   6.7844600101e+00    0.2104887    0.1818472 -36.68 0.0005403832    1.222    0.181
        20  -7.9249    188.3606    169.6340   8.4365093479e+01   9.8413396006e+00    0.2105469    0.1762014  86.38 0.0004830611    1.677    0.404
        21  -8.6826     67.0675    167.0715   1.1206604328e+02   3.2054701220e+01    0.1909246    0.1677446  86.57 0.0002929078    1.030    0.029
        22  -8.4711    242.6566    149.6892   6.9780896050e+01   2.8605597621e+00    0.1429685   0.09901033   4.26 0.0007045549    1.701    0.412
        23 -10.2763    238.8995    145.5611   6.9514413590e+01   4.2240743773e+00    0.4460291    0.2466438  30.09  0.001990823    2.172    0.540
        24  -9.6620     67.8400    144.3732   1.0855020235e+02   3.7333390891e+01    0.5641595    0.3139271  56.26  0.002034434    2.029    0.507
        25  -7.3374    160.0646    143.7770   8.4963432739e+01   2.0802243641e+01    0.1941232    0.1245172  45.74            0    1.545    0.353
        26 -10.1752    113.1871    247.3410   1.1176729715e+02   9.1167522879e+00    0.2023193    0.1744666  50.26 0.0002842957    1.132    0.117
        27  -7.9555    238.4578    236.4397   8.7136416350e+01  -8.7165936261e+00    0.1173687   0.09029753  14.02 0.0001190411    1.032    0.031
        28  -7.8764    116.0255    233.3132   1.0970125017e+02   1.1054629958e+01    0.1725438    0.1302858  47.41 0.0001841871    1.094    0.086
        29  -8.3387    225.6825    224.1330   8.7340199304e+01  -5.3061129248e+00    0.1894272    0.1420477  32.22 0.0004154929    1.243    0.196
        30  -8.9898    224.0560    206.4555   8.4530601128e+01  -2.6306050280e+00    0.2695617    0.2239718  70.43  0.001162794    2.058    0.514
        31  -7.3414    111.2598    115.2755   9.0586422916e+01   3.7231888613e+01    0.1444954    0.1186766 -16.75 0.0006850893    1.467    0.319
        32  -9.2690    210.1982    113.9094   6.7194796648e+01   1.5616927273e+01    0.2571021    0.2177316  27.30 0.0006649407    1.277    0.217
        33  -8.3838    167.4827    113.3231   7.5788467782e+01   2.5523320234e+01    0.3294868    0.2206991 -70.41  0.001286023    2.244    0.554
        34 -10.3721    243.5814    199.3157   7.9710604716e+01  -4.7433985352e+00     0.242887    0.2097151  16.35 0.0006368586    1.189    0.159
        35  -8.1288    126.9512    111.9304   8.5441805888e+01   3.4845713101e+01    0.2375423    0.1892733 -84.14 0.0005115116    1.583    0.368
        36  -9.3356    226.2145    110.5574   6.3562469742e+01   1.2704237075e+01    0.3436181    0.2346026 -75.18  0.001484269    2.330    0.571
        37  -9.2436    205.3631    109.8735   6.7080335617e+01   1.7438998319e+01    0.2918492    0.2410102   3.95  0.001453933    1.407    0.290
        38 -10.2832    186.3930     92.4020   6.6145180672e+01   2.5113473774e+01    0.7118444    0.3576291 -47.96  0.002692197    2.111    0.526
        39  -9.8120    187.9014    105.7919   6.9425370896e+01   2.2240498266e+01    0.4182405    0.3576633  69.39  0.002093313    1.294    0.227
        40  -8.0608    220.4864    105.0360   6.3177354432e+01   1.4909676196e+01     0.230156    0.1383291 -33.77 0.0005034517    1.572    0.364
        41  -9.1374    202.0024    102.5056   6.5826469505e+01   1.9556459664e+01    0.3526575    0.2897065 -73.20  0.001742423    1.442    0.306
        42  -9.4451    233.0527    101.4330   6.0248892858e+01   1.2787677271e+01    0.3681532    0.2216936 -43.96   0.00105832    1.554    0.357
        43  -8.7085    151.3069     98.8694   7.5659142827e+01   3.2248918230e+01    0.3070138     0.229728  36.20 0.0008713576    1.423    0.297
        44  -8.0679    136.8289     95.8412   7.8427760234e+01   3.6195422055e+01    0.2496766    0.1948904 -86.45  0.001109148    1.725    0.420
        45  -7.7879     93.8724     95.1793   9.0443901918e+01   4.5057364427e+01    0.2000266    0.1870579 -62.99 0.0002555094    1.095    0.087
        46  -7.6416    151.0534     93.9771   7.4334612478e+01   3.3302780209e+01    0.1834834    0.1775343 -37.70            0    1.023    0.023
        47  -9.2217    163.6012     91.1924   7.0616879960e+01   3.0861791925e+01    0.5753549    0.3122762  30.67  0.001989716    2.746    0.636
        48  -9.0384    145.6019     88.3050   7.4018640344e+01   3.5719638413e+01    0.2996325    0.2765916 -55.51 0.0006571962    1.114    0.103
        49 -10.0963    221.4481     81.5050   5.7119115653e+01   1.8683460153e+01     1.019094    0.4578979 -58.42  0.003210747    3.844    0.740
        50 -10.2711    216.0237     71.6391   5.5418578950e+01   2.1550268927e+01     0.980462    0.3765359 -51.96  0.002532101    3.433    0.709
        51  -8.5321    211.0836     69.2058   5.5538816692e+01   2.3117944905e+01    0.3724373    0.2286366 -61.10  0.001271682    1.939    0.484
        52 -10.5889    206.1871     66.3622   5.5546348752e+01   2.4755619964e+01    0.6852025    0.4160572 -21.41   0.00160488    1.984    0.496
        53  -9.7487    200.1580     68.6464   5.7136324432e+01   2.5866350634e+01    0.3695802    0.2562834  44.65 0.0008782164    1.573    0.364
        54 -11.3850    181.7049     65.1029   5.9362208072e+01   3.1043720497e+01    0.6475148    0.4510557  -1.44  0.002772885    2.080    0.519
        55 -10.9292    181.5037     80.4480   6.3792322032e+01   2.8474514916e+01    0.8722787    0.7045926 -35.38   0.00117904    1.227    0.185
        56  -9.4869    188.9592     75.4878   6.0981344147e+01   2.7494186310e+01    0.2847987    0.2742054  26.98 0.0004215383    1.106    0.096
        57 -10.5724    161.4907     81.5043   6.8283808715e+01   3.3215950444e+01    0.5111371    0.3840289   0.73  0.001484551    1.782    0.439
        58  -8.6229      3.7814     83.8204   1.1791747229e+02   5.7755334628e+01    0.1521989    0.1209633 -88.86 0.0003581643    1.282    0.220
        59 -10.3280    109.7885     74.8997   7.9577589592e+01   4.6352331398e+01    0.2395352    0.2305821  21.62 0.0002466187    1.057    0.054
        60  -7.1378    121.2850     73.2517   7.5752984382e+01   4.4227206584e+01    0.1465532    0.1168198  10.53   0.00068494    1.471    0.320
        61  -8.5028    148.3999    120.0572   8.2038540269e+01   2.8426826000e+01    0.2372805    0.2096692  31.58 0.0002982486    1.177    0.150
        62  -9.0901    235.8841    197.1460   8.0658940528e+01  -3.2194154017e+00    0.3801665    0.1953412  50.70  0.001700271    2.710    0.631
        63 -11.0502    137.7704     35.7854   5.8886491668e+01   4.6514865067e+01      1.15739    0.2811205  49.80  0.003509639    3.581    0.721
        64 -11.8327    140.5044     41.1570   6.0136522530e+01   4.5100879401e+01    0.9780963    0.4850921  55.03  0.003245163    1.891    0.471
        65  -8.4612    245.2722     60.5480   4.8752717880e+01   1.6570699709e+01    0.2385117     0.134706  72.30   0.00112641    2.036    0.509
        66  -7.7961    198.9830     57.7141   5.4330047828e+01   2.7876298908e+01    0.2835946    0.1312982 -59.91 0.0009080676    3.473    0.712
        67  -8.6934    201.9459     54.9960   5.3128249354e+01   2.7550497753e+01     0.399908    0.1653155 -44.46  0.001490078    2.368    0.578
        68  -7.9971    190.8737     52.9824   5.4301078141e+01   3.0623104474e+01     0.288554    0.1831357 -51.95  0.001022992    1.646    0.393
        69  -7.8903    114.8934     51.3007   7.0093181557e+01   4.9579408464e+01    0.2058965    0.1828009  36.71 0.0009599973    1.099    0.090
        70  -8.4530    198.6894     48.1388   5.1735757242e+01   2.9366153187e+01    0.2990716    0.1688834 -43.50 0.0008628003    1.714    0.416
        71  -8.1529    188.7820     46.8700   5.2895294773e+01   3.2045342385e+01    0.3203151    0.1386127 -49.52  0.001161771    2.616    0.618
        72  -9.8278    250.1976     42.9339   4.4127567192e+01   1.7969078575e+01     0.424252    0.1892182 -35.03 0.0006118664    1.995    0.499
        73 -10.5079    155.2856     47.3772   5.9066382333e+01   4.0506236914e+01    0.4273528    0.3588755 -48.31 0.0009249644    1.246    0.197
        74 -11.4979    149.5259     44.1967   5.9218460885e+01   4.2420956832e+01     0.760607    0.6203282  43.94  0.003958984    1.201    0.167
        75  -8.3845    185.3257    119.3220   7.3443874161e+01   2.0217823316e+01     0.160346    0.1222926   7.03 0.0003855841    1.685    0.406
        76 -10.1011    134.8337     31.6659   5.8085517426e+01   4.7775413269e+01    0.3527796    0.2537345  22.28  0.001734832    1.592    0.372
        77  -8.4603    183.1326     29.9127   4.8860264320e+01   3.5750779271e+01    0.2299626    0.1820526 -72.66 0.0009603527    1.305    0.234
        78  -9.6409    204.8753    117.3052   6.9032027864e+01   1.6182063722e+01    0.2637478    0.2538147 -30.52 0.0002980912    1.029    0.028
        79  -8.9730    213.1970    196.3219   8.4685648150e+01   7.0057960668e-01    0.2389856    0.1929806   0.09 0.0003004387    1.170    0.145
        80  -8.2648    194.3560    197.0321   8.8482358937e+01   3.9095400206e+00    0.2060879    0.1124856 -62.13 0.0007045718    4.506    0.778
        81  -7.7907    166.2267     17.9862   4.7784826371e+01   4.1463042414e+01     0.177174    0.1678373  81.93 0.0002026587    1.040    0.038
        82  -8.3882    158.6826    114.7062   7.8183411519e+01   2.7258248239e+01    0.2856632    0.2454081 -75.99 0.0006529154    1.347    0.258
        83  -9.0018    212.4009    201.0899   8.5723591337e+01   1.0461538975e-01    0.2780775    0.1693926  43.01            0    1.623    0.384
        84  -8.2874    213.8297    191.6837   8.3685231422e+01   1.3149636075e+00    0.2079797    0.1644125 -14.01 0.0003321608    1.234    0.189
        85  -9.9721    181.5254    187.4118   8.9296668524e+01   7.9172990493e+00    0.2458131    0.2299177  33.74 0.0002975939    1.088    0.081
        86  -7.9586    240.2725    187.0729   7.7939266356e+01  -2.4810496860e+00    0.1763883    0.1467534 -10.38 0.0003094934    1.079    0.073
        87  -8.1568    134.0424    187.2245   9.9519617506e+01   1.6791169247e+01    0.1952697    0.1739077  25.93  0.000316727    1.202    0.168
        88 -12.4980     26.6861    175.8083   1.2226079752e+02   3.4749646867e+01    0.7584327    0.6878048 -59.69  0.004077296    1.405    0.288
        89  -8.9698     66.6498    182.5201   1.1409527156e+02   2.8590689558e+01    0.2061904    0.1869632 -86.83 0.0005107586    1.151    0.131
