#   1 NUMBER                 Running object number                                     
#   2 MAG_AUTO               Kron-like elliptical aperture magnitude                    [mag]
#   3 X_IMAGE                Object position along x                                    [pixel]
#   4 Y_IMAGE                Object position along y                                    [pixel]
#   5 X_WORLD                Barycenter position along world x axis                     [deg]
#   6 Y_WORLD                Barycenter position along world y axis                     [deg]
#   7 A_WORLD                Profile RMS along major axis (world units)                 [deg]
#   8 B_WORLD                Profile RMS along minor axis (world units)                 [deg]
#   9 THETA_WORLD            Position angle (CCW/world-x)                               [deg]
#  10 FWHM_WORLD             FWHM assuming a gaussian core                              [deg]
#  11 ELONGATION             A_IMAGE/B_IMAGE                                           
#  12 ELLIPTICITY            1 - B_IMAGE/A_IMAGE                                       
         1  99.0000     46.0786     30.7269   4.3804322574e+01   6.7354980861e+01     1.596459     1.407875  64.27  0.009592053    1.516    0.340
         2  99.0000     35.2791     20.7400   4.4687505423e+01   7.0717772524e+01     1.440206    0.7053384  34.48  0.007002325    2.012    0.503
         3 -12.5937     11.8737     24.3898   6.1513814560e+01   7.2725371964e+01    0.4087057    0.3335735 -62.46 0.0004932916    1.402    0.287
         4 -12.6684     53.7278     21.1712   3.5280049450e+01   6.7590270650e+01    0.9948338    0.7862268 -85.73  0.005253662    2.185    0.542
         5 -14.0009     56.5104     67.1630   5.3194265564e+01   5.8326466106e+01     2.727498    0.9370406 -43.84  0.009310471    2.999    0.667
         6 -13.3399     63.4995     34.9595   3.7620644680e+01   6.3566738915e+01     1.432218     1.032586 -42.40  0.007601512    1.459    0.315
         7 -13.5587     74.8051     21.8158   2.6994514674e+01   6.3239623387e+01     2.049644     1.640954 -63.72   0.01123325    1.644    0.392
         8 -13.7029     36.6467     57.2744   5.9188287996e+01   6.3271988405e+01     2.018027    0.6706402  28.64  0.007525137    3.115    0.679
         9 -12.8770     51.4937     53.7682   5.0809749371e+01   6.2029996603e+01     1.461976     1.055087  86.66  0.005806566    2.387    0.581
        10 -13.3839     13.0087     44.9484   6.8082459015e+01   6.8285147669e+01     1.628945    0.6598961 -61.91  0.007339996    2.182    0.542
        11 -12.9410      4.1463     32.8031   6.9842934196e+01   7.1507795671e+01     1.021552    0.5837069 -67.71  0.005596294    1.740    0.425
        12 -12.4384     78.8924      9.8266   1.9766142557e+01   6.3754448040e+01    0.4260884    0.2320084  51.33   0.00124743    1.602    0.376
        13 -11.5578     76.9405      5.0365   1.7948441404e+01   6.4685121380e+01    0.3136055    0.2131542  39.78 0.0003225447    1.358    0.264
        14 -13.2003      3.9640     54.8669   7.5650273973e+01   6.6535318453e+01     1.139761    0.6166281 -66.35  0.006007823    1.578    0.366
        15 -13.3282    184.0389     57.7245   1.5193004671e+01   3.1188259592e+01     1.350853     1.269612 -62.98 0.0004599224    1.064    0.060
        16 -12.9723    220.8667     39.5446   6.1636000413e+00   2.5301595840e+01     1.000134     0.657386  79.17 0.0004032826    1.580    0.367
        17  -9.0591    178.1071     40.3374   1.1201012265e+01   3.5137486315e+01     3.138751     1.589124  35.84   0.01129027    3.632    0.725
        18 -12.3820    217.4146     28.5243   3.8549149189e+00   2.7437329441e+01    0.8814438    0.4522416  89.94 0.0009242244    2.160    0.537
        19 -12.6309    225.8026     22.7419   1.8269611064e+00   2.6308395270e+01    0.4308655    0.3456205  82.57  0.001283986    1.285    0.222
        20 -11.8479    211.2896     21.3566   2.6459476732e+00   2.9652706923e+01    0.4895196    0.4092157  51.93  0.003047059    1.499    0.333
        21 -12.1625    203.5585     18.2245   2.5218033672e+00   3.1775327451e+01    0.9725784    0.4834833  75.01  0.001245896    1.948    0.487
        22 -10.2666    133.6410     40.9141   1.8846994512e+01   4.6357459126e+01     1.099568    0.5909085 -48.46  0.004623914    2.005    0.501
        23 -13.8239    200.1515     45.5644   9.8336508199e+00   2.9140441614e+01     2.084671     1.249128  78.41   0.01030758    1.770    0.435
        24 -12.4949    202.3518     34.0672   6.6436607422e+00   3.0150798651e+01    0.7071725    0.3767442  53.74 0.0004159243    2.143    0.533
        25 -12.8351    233.1482     48.5698   7.1013992091e+00   2.1537747146e+01     2.367595     1.113293 -33.82  0.008898264    1.891    0.471
        26 -13.6242    217.7254     55.6229   1.0323840190e+01   2.3806705287e+01     1.620024     1.161265  12.51  0.007194128    2.358    0.576
        27 -12.3933     25.2450     40.9859   5.9654385523e+01   6.8092684800e+01     1.469299    0.7281759 -45.24  0.005303102    1.784    0.440
        28 -12.5445    176.2527     23.4148   6.6224032782e+00   3.7741986868e+01    0.3113356    0.2626967 -35.05 0.0002880261    1.271    0.213
        29 -10.8587    148.0734     24.6865   1.0777636996e+01   4.4766608050e+01     0.378237    0.2460946  39.98  0.001801661    1.842    0.457
        30 -10.6109    118.1754     20.7742   1.4714468623e+01   5.2946694459e+01    0.6621965    0.3348831 -69.44  0.002284787    3.613    0.723
        31 -11.2390     94.2306     15.9476   1.8288569062e+01   5.9468871310e+01    0.3256864    0.1942569  49.52  0.001584282    1.512    0.338
        32 -12.6965    221.4868      8.3099   3.5881610888e+02   2.8846333559e+01     0.582462    0.1967409 -48.90  0.001054274    2.339    0.573
        33 -11.3924    232.8371      4.3787   3.5726420107e+02   2.6853244352e+01    0.9283342    0.1615019 -37.26  0.003678638    3.308    0.698
        34 -14.0837    244.5235      8.0274   3.5740887420e+02   2.4100483046e+01    0.9450729    0.3871552 -73.66  0.002907332    2.599    0.615
        35 -11.3095    228.2392     10.0208   3.5877794075e+02   2.7218597174e+01    0.6570753    0.2427503 -50.21 0.0008412923    2.150    0.535
        36 -10.3769    160.1606     14.4333   5.8644003276e+00   4.2808021149e+01     0.222061    0.1820007 -35.18  0.000553673    1.307    0.235
        37 -10.8858    125.0775     10.6184   9.5745659629e+00   5.2254605582e+01    0.4846477    0.3026264 -14.15  0.001892878    1.963    0.491
        38 -10.1786    187.1012     13.2630   2.6881824853e+00   3.6217937712e+01    0.2435854    0.1371862 -49.02 0.0008094114    1.600    0.375
        39 -10.1660    167.2638     13.6474   4.8036624876e+00   4.1087389285e+01    0.3055359     0.214883 -32.96  0.001662147    1.488    0.328
        40  -9.8268    134.0316     13.2998   9.0910950918e+00   4.9669112672e+01    0.3102942    0.1837604 -38.63  0.001506879    1.742    0.426
        41 -10.0232    130.9813      8.5418   7.8665215366e+00   5.0929229347e+01    0.2093743    0.2034881 -50.96 0.0005593203    1.148    0.129
        42 -11.8185    115.2851     10.9919   1.1472332617e+01   5.4733015138e+01    0.5597167    0.3303077  -7.94  0.001759673    2.234    0.552
        43 -10.5335    111.8986      4.8351   9.6451868097e+00   5.6172934239e+01    0.2649746    0.2186423  76.79 0.0006916639    1.116    0.104
        44 -10.7786    150.1900     12.8634   6.6233581767e+00   4.5531207612e+01    0.2202104    0.1664436 -52.63 0.0009117104    1.311    0.237
        45  -9.6270    142.3958     11.8788   7.3560404927e+00   4.7645985923e+01    0.1689261    0.1336891   3.06 0.0006497214    1.622    0.383
        46 -10.4647     88.6680     11.4771   1.7743265865e+01   6.1290389326e+01    0.2547187    0.2167071 -16.68  0.001500751    1.283    0.221
        47 -11.0870    100.8975      7.2353   1.2853697182e+01   5.8724741908e+01    0.3840004     0.238254 -30.51  0.001316776    1.751    0.429
        48 -10.5821    104.6435      6.0830   1.1567422471e+01   5.7894815789e+01    0.2340777    0.1778841  71.74 0.0004013262    1.214    0.176
        49 -10.3511     26.6991      9.5003   4.3599140087e+01   7.3734822521e+01     0.274864     0.177017  10.28  0.001166859    1.657    0.397
        50 -11.5928    193.9510      7.6681   6.2547541266e-01   3.5165219362e+01    0.3313129    0.2394838  62.20  0.001608482    1.489    0.329
        51 -12.7068    173.0314      6.6723   2.1784513598e+00   4.0352800810e+01    0.3044099    0.2928203  71.18   0.00048214    1.222    0.181
        52 -12.3252    173.6065      2.4861   9.3421213469e-01   4.0612834668e+01    0.2362078    0.1996849 -38.00 0.0007184288    1.277    0.217
        53 -10.1705    108.7055      8.9904   1.1955260229e+01   5.6599855448e+01    0.1959586    0.1750278 -69.18 0.0006428458    1.196    0.164
        54 -10.3802     47.7316      8.4613   3.1059210711e+01   7.0441562290e+01    0.2549023     0.176593  15.83  0.000759938    1.500    0.333
        55  -8.9636     47.4392      5.5119   2.9427714399e+01   7.0854958928e+01    0.1809845    0.1145842 -14.16 4.437446e-05    1.705    0.414
        56 -11.1800      2.7395      5.9018   5.9623392618e+01   7.6926113670e+01    0.2478976    0.2065431  -3.52  0.001160876    1.152    0.132
        57  -8.6350     92.4278      4.9341   1.3760320486e+01   6.1022567815e+01    0.3839036    0.1882825  25.36 0.0009479452    2.981    0.665
        58 -11.8275     57.3185      4.2726   2.4355208250e+01   6.9046500019e+01    0.4731817    0.3090698  57.90  0.001722681    1.571    0.364
        59  -9.5376    146.2436      5.5155   4.7273706148e+00   4.7267097801e+01    0.1918573    0.1035084  57.28 0.0009019422    1.743    0.426
        60  -9.8940    184.7252      2.9544   1.2308747476e-01   3.7844563397e+01    0.4523819    0.2024417  55.78  0.001992669    2.429    0.588
        61  -9.3541    217.8795      1.7044   3.5751958779e+02   3.0314714356e+01    0.2651365    0.1541384  71.00 0.0009355772    1.738    0.425
        62 -10.0350    213.0173      2.2875   3.5795086575e+02   3.1329171687e+01    0.2544294    0.1707447  66.78 0.0009666271    1.597    0.374
        63  -9.8029    207.0145      3.1031   3.5853151628e+02   3.2597023423e+01    0.1422894    0.1125467 -53.71 0.0007654202    1.125    0.111
        64 -11.8360     85.2861      1.4585   1.3872365708e+01   6.3051711614e+01    0.3602511     0.138016  58.38   0.00102981    2.129    0.530
        65 -10.8557     47.5205      1.6354   2.6996898738e+01   7.1278648242e+01    0.3574634    0.1323995  44.60  0.001549783    2.351    0.575
        66  -9.5582    250.4288      1.5038   3.5577444120e+02   2.3630635547e+01    0.1169957   0.08449726 -57.89 7.823025e-05    1.022    0.021
        67 -14.0259     63.8512     85.3062   5.5617209216e+01   5.2925071353e+01     1.520359     1.119011 -20.63  0.006282894    1.692    0.409
        68 -10.8959     36.5651    248.7494   8.4425964045e+01   1.7989691673e+01    0.1922173    0.1000878 -73.51  0.001155618    2.158    0.537
        69 -11.2114    113.6453    246.2879   6.8445127830e+01   8.7770689276e+00    0.2672988    0.2111452 -26.55  0.001209106    1.664    0.399
        70 -10.6335    180.7773    243.8686   5.4785263937e+01  -5.9313928062e-03    0.1766884    0.1727395  83.72  0.001342102    1.601    0.375
        71  -9.6823    218.5225    239.5310   4.7349474064e+01  -4.2066723492e+00    0.1121071   0.08488498   7.86 0.0001557874    1.037    0.036
        72 -12.9538     38.0839     81.7539   6.5322141026e+01   5.7276644399e+01    0.8330938     0.498387 -48.29  0.002097138    1.556    0.357
        73 -13.2105     87.2027     63.2975   3.9807542608e+01   5.3553334076e+01    0.9887299    0.8113732  19.80  0.002906472    1.359    0.264
        74 -10.6158     88.4854    238.9836   7.3004095720e+01   1.3434242057e+01    0.1563246    0.1210961 -72.03 0.0004543857    1.552    0.356
        75 -14.2381     38.5838     69.7872   6.2014823604e+01   6.0138057945e+01     2.212934    0.9656042  40.60  0.009039038    2.539    0.606
        76  -9.9733     15.9830    238.5065   8.8059242651e+01   2.2033410320e+01    0.1258274   0.09514419  -5.30 0.0008041168    2.251    0.556
        77  -9.9776    157.5472    222.5414   5.6376858209e+01   6.3965693220e+00    0.1265952    0.1057291  25.35 6.143322e-05    1.037    0.035
        78  -9.8094    236.6996    145.9982   2.7885899975e+01   6.3369996397e+00    0.1770952    0.1386491 -25.92 0.0003432537    1.078    0.072
        79  -9.6766    229.0046    138.4300   2.7523173958e+01   8.7610805970e+00    0.1662129    0.1275493  43.18 3.551973e-05    1.487    0.327
        80  -9.6120    184.5279    134.9987   3.4584444567e+01   1.7496707274e+01    0.2180375     0.135644 -38.60  0.000555672    1.541    0.351
        81  -9.0735    152.6951    124.2617   3.8919607597e+01   2.6191207113e+01    0.1472834    0.1207332  85.69 0.0001499302    1.521    0.343
        82 -10.2859    160.6793    123.6652   3.6955304974e+01   2.4612794438e+01    0.1555683    0.1201452   0.32 -7.329782e-05    1.704    0.413
        83 -10.7677    115.7371    121.0083   4.7658373886e+01   3.4693202321e+01    0.2695865    0.2223908  42.97  0.000431665    1.203    0.169
        84 -13.1125     78.8412     50.0933   3.7893512658e+01   5.7844361375e+01     1.259559    0.6773608  33.05  0.001478966    2.152    0.535
        85 -12.5246     80.7241     40.6796   3.3364255982e+01   5.9115149355e+01    0.5486566    0.3569601  37.16  0.001666638    1.550    0.355
        86 -11.9876     75.3137     42.0284   3.5939576917e+01   6.0018238478e+01    0.3885355     0.338493  18.79 0.0008969025    1.150    0.130
        87 -13.3117     79.5936     59.8773   4.1327884809e+01   5.5795535571e+01    0.4825802    0.4044213 -13.64  0.001250064    1.324    0.245
        88 -11.7651     49.4335     95.2165   6.3777276121e+01   5.2524540829e+01    0.2925121    0.1994248  35.02 0.0007020613    1.529    0.346
        89 -14.0718      9.6589     68.6715   7.5509961625e+01   6.2921914759e+01     1.416526       1.2261   1.74   0.00906517    1.291    0.225
        90 -11.8988     72.9025    118.9663   6.0468757407e+01   4.3053452561e+01    0.2727346    0.2579958  73.07 0.0003023077    1.037    0.036
        91 -11.9785    185.2404     91.9082   2.4066649258e+01   2.5264161581e+01    0.3956224     0.265039 -57.39   0.00185091    1.616    0.381
        92  -9.4849     89.4943     93.4630   4.8585167347e+01   4.6447814518e+01     0.152258    0.1507094 -36.69 0.0008092851    1.032    0.031
        93 -11.8071    216.0399     91.0578   1.8981837750e+01   1.8799786316e+01    0.2910674     0.172311 -37.80 0.0009951276    1.490    0.329
        94 -12.1471    167.4963     65.0291   1.9926517647e+01   3.4053332717e+01     1.763844      0.93353  84.92  0.006018963    3.335    0.700
        95 -12.1612    173.5733     56.5746   1.6483046076e+01   3.3904547099e+01    0.4056384    0.2835968  68.95 0.0008486526    1.439    0.305
        96 -11.5168    165.1533     54.6346   1.7310044672e+01   3.6288645834e+01     1.039354    0.5917178  24.38  0.003475052    3.969    0.748
        97 -14.2036    195.2532     84.7208   2.0559055590e+01   2.4262776866e+01     3.546028      1.39853  56.46   0.01361144    2.690    0.628
        98 -10.9564    181.1233    118.8540   3.1518254091e+01   2.1224192636e+01    0.5128427    0.3237919  27.91  0.001738734    2.095    0.523
        99 -10.4969    181.5085    115.5029   3.0638727997e+01   2.1772913700e+01    0.3243253     0.200171  58.67  0.001441468    1.880    0.468
       100 -11.0681    234.1362     36.7067   4.3378536949e+00   2.2869129166e+01    0.5367219    0.3014693 -69.61  0.001950126    1.842    0.457
       101 -10.3292    203.3410    115.8846   2.6760076295e+01   1.7210574585e+01    0.4177582    0.2362966  70.11  0.001654428    3.052    0.672
       102 -13.3756    193.4993     67.4657   1.6397859175e+01   2.7459302738e+01     1.543948    0.7665955  61.39  0.005200802    2.106    0.525
       103 -10.2069    127.0315    114.7501   4.2991604049e+01   3.3770030894e+01     0.217865    0.1981942  48.23 0.0003245414    1.094    0.086
       104 -10.3534    173.2083    112.5931   3.1578446356e+01   2.4107007746e+01    0.3383562    0.2287484  20.09 0.0009418846    2.157    0.536
       105 -11.2568    137.7646    112.4574   3.9607716178e+01   3.1945345043e+01    0.5106192    0.2532108  38.12   0.00187971    2.248    0.555
       106 -10.4036     95.5394    112.9464   5.1725703404e+01   4.0607407854e+01    0.2407129    0.1518414 -53.60 0.0007453656    1.577    0.366
       107 -10.9970    211.6982    112.0437   2.4503432384e+01   1.6217505045e+01     0.220547    0.1994544  53.30 0.0002603004    1.239    0.193
       108 -12.6009    160.9492     37.7693   1.2926414172e+01   3.9792720923e+01    0.8039287    0.6232677  57.99  0.002488238    1.299    0.230
       109 -10.3932     38.4886    110.9781   7.1043169009e+01   4.9740987784e+01    0.2073867    0.1128908  80.78 0.0008100083    2.510    0.602
       110 -11.6743    195.1324    106.7998   2.6029860493e+01   2.0481401868e+01    0.8285121    0.4797646 -72.73  0.002846143    3.844    0.740
       111 -10.2837    233.7044    108.9740   2.0566508011e+01   1.2576710096e+01    0.1960059    0.1832641  41.33 0.0007843433    1.247    0.198
       112 -11.8799    161.6959    106.6414   3.2491946079e+01   2.7813036438e+01    0.3733395    0.2335791 -48.81  0.001629767    1.608    0.378
       113 -12.2612    143.7991     45.2596   1.8271200168e+01   4.3119522624e+01     0.556946     0.337646  31.26  0.001232486    2.419    0.587
       114 -12.0767    148.9214     40.8813   1.5899998998e+01   4.2440074426e+01    0.7823009     0.496515 -68.84  0.002269525    1.887    0.470
       115 -13.6867    203.6183     77.1955   1.7406633721e+01   2.3644045719e+01     1.562828    0.7691985  74.85  0.006050854    3.033    0.670
       116 -11.9631     51.6956     87.0026   6.0911734587e+01   5.4291567568e+01     0.422038       0.2235 -39.94 0.0007353367    2.097    0.523
       117 -11.5409     48.1851     85.1884   6.1893024199e+01   5.5206668344e+01    0.2866952    0.2562352  28.76 0.0008356256    1.186    0.157
       118 -11.3128      5.4941     87.0039   8.0307812975e+01   5.8586713458e+01    0.2243962     0.173132 -27.29  0.001041814    1.427    0.299
       119 -13.1194    114.6096     81.0602   3.6998300457e+01   4.3887560938e+01    0.9559118    0.5612428 -40.99  0.003966194    1.741    0.426
       120 -11.9178    110.1544     86.8500   4.0073682195e+01   4.3655409277e+01    0.3552416    0.3336754  72.21  0.001854086    1.081    0.075
       121 -11.5550    237.5741     86.2489   1.5083135441e+01   1.5327267417e+01    0.3234905    0.2535304  81.00   0.00105658    1.534    0.348
       122 -11.6666    231.5972     84.3246   1.5377466548e+01   1.6754780108e+01    0.3597398    0.2560117 -77.82  0.001240617    1.745    0.427
       123 -11.6452    161.7958     84.1167   2.6424735989e+01   3.2105767858e+01    0.7373716    0.4461192  46.25  0.003199468    1.750    0.429
       124 -12.2298    168.9864     79.4914   2.3730183618e+01   3.1225545683e+01     0.599304    0.5118771 -47.34  0.001613886    1.124    0.110
       125 -10.3441     30.9937     85.6029   6.9228739592e+01   5.7049572590e+01     0.304521    0.1944149 -65.18  0.001523622    1.424    0.298
       126 -11.3871    103.2061     67.2227   3.5901739985e+01   4.9288557504e+01    0.6820514    0.4389643   1.51  0.002390327    3.236    0.691
       127 -13.6364    116.0061     62.4803   3.0548516555e+01   4.7211583633e+01     1.058769      0.81813  39.78   0.00221342    1.346    0.257
       128 -11.6659    136.6987     72.2537   2.8449692263e+01   4.0382926775e+01    0.9796998    0.3439177  54.85  0.003175999    2.868    0.651
       129 -11.3595    126.6127     69.7539   3.0147208894e+01   4.3303863677e+01     1.121437      0.44916  45.09  0.003821707    2.629    0.620
       130 -12.1864    145.3706     66.7713   2.4787435184e+01   3.9234724491e+01     1.089611    0.7027503  31.70  0.002332016    2.112    0.527
       131 -10.8841    155.2136     64.9968   2.2216300622e+01   3.7093719061e+01     1.276955    0.4117657 -33.83  0.004015069    3.321    0.699
       132 -12.5211     98.2866     77.9296   4.0998906636e+01   4.8160907030e+01      1.04918    0.6403401 -72.76  0.002767607    2.901    0.655
       133 -10.9945     96.9359     69.1128   3.8535668762e+01   5.0298588671e+01    0.4285225    0.2438353 -41.35   0.00137252    1.791    0.442
       134 -10.4983    238.0056     81.0145   1.3875152669e+01   1.6019250599e+01    0.1866277    0.1568096 -43.12            0    1.023    0.023
       135 -12.3462    220.7646     69.7631   1.3339290326e+01   2.1114544862e+01    0.4597982    0.3416426 -30.18  0.002251747    1.339    0.253
       136 -11.8677    220.7779     79.5884   1.5649774676e+01   1.9629553542e+01    0.2951601     0.251896 -32.76 0.0004249834    1.151    0.131
       137 -13.1355    217.7807     75.3731   1.5040206100e+01   2.0893683573e+01     0.570099    0.4015675 -23.28  0.003032363    1.573    0.364
       138 -10.2603    232.3922     78.5422   1.3977171559e+01   1.7463782708e+01    0.3003882    0.1822376 -66.79  0.001488645    2.050    0.512
       139 -10.6087     86.8256     74.2803   4.3684424902e+01   5.1327942192e+01    0.4483384    0.2320453 -43.63  0.001791387    1.946    0.486
       140 -11.6399     82.4143     78.1072   4.6482065463e+01   5.1350670701e+01    0.4674742     0.348241 -59.49  0.001330296    1.434    0.303
       141 -12.1994    223.6203     87.6029   1.7141055590e+01   1.7819261991e+01    0.4646518    0.2813544  34.34  0.002196227    2.413    0.586
       142 -10.0995    156.1480     77.0430   2.5575006717e+01   3.4755228646e+01      0.35673    0.2053467  69.53  0.001415948    2.130    0.530
       143 -11.0330    248.7365     82.6253   1.3025816580e+01   1.3805570942e+01    0.3616607    0.2855258  22.39  0.002014119    1.763    0.433
       144 -10.2781    103.9946     75.5346   3.8419776378e+01   4.7424836679e+01    0.2560837    0.2151618 -28.64  0.000461885    1.287    0.223
       145 -10.6214    106.0979     71.5345   3.6464235855e+01   4.7774255462e+01    0.2699917    0.2035832 -52.87 0.0005700329    1.390    0.280
       146 -12.3601    208.8594     58.2146   1.1989321908e+01   2.5375529620e+01    0.6045564    0.3861424  62.81  0.002314278    1.667    0.400
       147 -11.1670    226.0379     74.4407   1.3796564542e+01   1.9336077601e+01    0.2436526    0.1743162 -22.55 0.0007503224    1.550    0.355
       148 -10.9801     82.8743     72.8535   4.4624023357e+01   5.2423075519e+01    0.3769656     0.299876  22.82  0.001287794    1.396    0.284
       149 -10.7630    151.9497     59.1281   2.1077142070e+01   3.8885294344e+01    0.3522176    0.2699071 -17.70  0.001221302    1.592    0.372
       150 -12.1788     75.1270     58.6004   4.2555427587e+01   5.6930211726e+01    0.2848379      0.23373 -43.22 0.0005654455    1.222    0.182
       151 -10.3250    137.0183     62.2983   2.5232819282e+01   4.2092790850e+01    0.7643945    0.2236446 -39.21  0.002356224    3.308    0.698
       152 -10.8778    141.5432     61.5461   2.3985285140e+01   4.1092262989e+01    0.4548446    0.2301375  53.90  0.001303597    1.916    0.478
       153 -10.8898    127.8386     58.5645   2.6166570035e+01   4.5021554592e+01    0.5720329    0.2752028  42.52  0.001861598    2.359    0.576
       154 -11.2471     98.3816     55.2495   3.3158719429e+01   5.2659526377e+01    0.7206579    0.4196374 -62.22  0.002737491    2.651    0.623
       155 -10.8351    101.6839     53.1250   3.1352160612e+01   5.2282496321e+01    0.8832549    0.5169175  68.71  0.001862952    2.350    0.574
       156 -10.8112    248.7451     55.5458   7.2173434428e+00   1.7550238746e+01       0.3414    0.2120981  48.93  0.001500709    2.143    0.533
       157  -9.8093    143.0000     54.9910   2.1584272830e+01   4.1814585364e+01    0.3159636     0.204876 -27.92  0.001411229    1.732    0.423
       158 -10.9457    146.1466     52.1381   2.0032649913e+01   4.1471427017e+01    0.3078663    0.2361942  38.44 0.0004631526    1.491    0.329
       159 -10.8905    135.9210     52.9568   2.2430599139e+01   4.3932978982e+01    0.5718144    0.2202763  59.83  0.001992699    2.574    0.611
       160 -10.1601    245.1776     50.4293   6.4277909703e+00   1.8906215824e+01    0.2383211    0.1317655 -33.00 0.0005741214    1.628    0.386
       161 -11.0992     90.4442     51.0659   3.4161701212e+01   5.5196235792e+01    0.2470368    0.2015994  44.90 0.0003344496    1.189    0.159
       162 -10.2676    161.3065     48.2302   1.6049055294e+01   3.8221649834e+01    0.4197268    0.3188788 -26.14  0.002129825    1.468    0.319
       163 -11.4144    248.4225     43.1835   4.5971980408e+00   1.9217787179e+01    0.5636824     0.239242 -56.26  0.002678365    2.280    0.561
       164 -10.4410     99.1210     47.4163   2.9976946752e+01   5.3865683205e+01    0.2682496    0.2424458  -6.67  0.001181357    1.198    0.165
       165  -9.7861    250.4140     48.7585   5.6241135098e+00   1.8125134183e+01    0.1931882    0.1020647 -35.35   0.00104363    1.599    0.374
       166 -10.4166    122.5199     43.8630   2.2347023956e+01   4.8744132247e+01    0.4501948    0.3024399  22.37  0.001942195    2.134    0.531
       167 -10.1552    105.3544     44.0517   2.6855601549e+01   5.2944510233e+01    0.3114783    0.2169959 -59.38  0.001439142    1.750    0.429
       168 -10.4096     99.7576     41.6537   2.7540426109e+01   5.4659567557e+01    0.3079846    0.2440347 -31.65  0.001593219    1.330    0.248
       169  -9.9589     93.9168     41.8230   2.9390059933e+01   5.5994409283e+01    0.2244713    0.1919614  23.84 0.0006314702    1.232    0.189
       170 -10.2963    240.9848     39.7937   4.4614883398e+00   2.1097952344e+01     0.208883    0.1437545 -42.26 0.0006115298    1.213    0.176
       171  -8.3908    113.9884     38.2321   2.2346243325e+01   5.1721584416e+01    0.4034541    0.1935224 -64.56  0.001048568    5.893    0.830
       172  -9.6371    107.1648     31.2149   2.1348676682e+01   5.4406112880e+01    0.3579599    0.1717217  72.85  0.001274457    2.915    0.657
       173  -9.9176    104.6735     28.0042   2.0695826383e+01   5.5450336346e+01    0.1994388    0.1873127  10.92  0.001151412    1.140    0.123
       174  -9.3757    110.0063     36.2590   2.2599555303e+01   5.2996014367e+01    0.1966657    0.1675994  33.45 0.0004456551    1.232    0.188
       175 -10.5803    112.6750     32.7787   2.0586363367e+01   5.2822922300e+01      0.35108    0.2329642  45.87 0.0004179502    1.481    0.325
       176 -10.3430    122.4346     33.3540   1.8545796480e+01   5.0280560324e+01    0.5206343    0.2178296 -47.12 0.0005390627    2.767    0.639
       177  -9.8877    124.0873     29.0106   1.6592130700e+01   5.0431055997e+01    0.2218484    0.1837764  42.40 0.0005281148    1.254    0.203
       178  -9.5259     96.4619     36.6786   2.6522608924e+01   5.6206426173e+01    0.1773856    0.1364058 -49.26 0.0008967938    1.435    0.303
       179 -11.3100     91.6663     34.0666   2.6900871318e+01   5.7717544462e+01    0.5432105    0.3080828  40.64  0.002410181    1.795    0.443
       180  -9.4713    249.0024     35.0669   2.8253646318e+00   2.0118532463e+01    0.1451844    0.1036148 -45.60 0.0003564616    1.130    0.115
       181 -10.4008     74.5594     33.7370   3.2625131824e+01   6.1552000872e+01    0.3770243      0.20723  44.56  0.001714344    1.728    0.421
       182  -9.2350    152.2993     33.6974   1.3022845681e+01   4.2549304574e+01     0.149361    0.1018257 -67.72 0.0006544587    1.585    0.369
       183 -10.1802    169.7594     32.5213   1.0075735026e+01   3.8251209687e+01    0.2595494    0.1334223  76.73 0.0009336098    2.008    0.502
       184 -10.2335    163.8855     30.8685   1.0393380520e+01   3.9947811597e+01    0.4583192    0.2022253 -62.56  0.001596683    3.244    0.692
       185  -9.3517    237.9545     30.7705   2.7161044325e+00   2.2823781075e+01    0.2840654    0.1839245  82.13  0.001701412    1.609    0.379
       186 -10.0781    241.6647     29.7139   2.2109577735e+00   2.2205980036e+01    0.2268324    0.1401574 -58.89 0.0007890972    1.367    0.269
       187 -10.0727    152.3938     29.7237   1.1738129011e+01   4.3034945219e+01    0.2412798    0.1751042  71.98 0.0003819325    1.288    0.224
       188  -9.8211    209.6639    105.5673   2.3331473264e+01   1.7708386271e+01    0.2543451    0.1479875 -52.19  0.001169376    1.832    0.454
       189 -11.2052     86.1521     28.9856   2.6455650259e+01   5.9722051724e+01    0.4347713    0.2293991  53.46 0.0009235254    1.777    0.437
       190  -9.0360    114.2994     28.3081   1.8471309779e+01   5.3010620797e+01    0.1462579    0.1052147  31.83 0.0007009391    1.596    0.374
       191  -9.9629    168.8748     27.0234   8.5709083384e+00   3.9160288968e+01    0.2152025    0.1647745 -63.78   0.00049765    1.236    0.191
       192 -10.6762     20.7755     25.7006   5.6117811548e+01   7.1642084780e+01    0.3709721    0.3122969  27.59  0.002411672    1.327    0.246
       193  -9.8173     19.8393     20.0498   5.4046691178e+01   7.2801419485e+01     0.278666    0.1853252 -53.30 0.0008942442    1.632    0.387
       194 -10.7840    234.1857     23.9719   1.4895353223e+00   2.4405497887e+01    0.2603287     0.196221 -25.48  0.001632694    1.520    0.342
       195 -10.1488     15.4878    106.4746   7.8900912985e+01   5.2980886933e+01    0.1348659    0.1178188 -78.33 0.0002230473    1.002    0.002
       196 -11.5948    156.0027    104.8697   3.3285055926e+01   2.9450008875e+01    0.2898258    0.2259902 -42.74  0.001404544    1.260    0.206
       197 -10.5310    112.7767     24.0081   1.7138743300e+01   5.3934549872e+01    0.3948019    0.3026034  25.00  0.001745418    1.524    0.344
       198 -13.4855    241.5745     59.8917   8.8275454797e+00   1.8334127715e+01      1.96526     0.672126 -45.02  0.003137419    2.364    0.577
       199  -9.5674    153.4748     25.1365   1.0110000060e+01   4.3318732265e+01    0.1925133     0.137911 -32.87 0.0003947562    1.470    0.320
       200 -11.0724    126.3117     24.7594   1.4581530816e+01   5.0388710542e+01    0.4039234    0.2148975  74.54 0.0007223939    1.984    0.496
       201 -12.2345    145.5470    103.2457   3.5274474355e+01   3.2155898422e+01    0.6366137    0.4572552  55.74  0.002118411    1.441    0.306
       202  -9.4777    102.7435     23.1058   1.9171684221e+01   5.6548786345e+01    0.2360064    0.1845679  73.60  0.000527582    1.304    0.233
       203  -9.6279     98.0729     21.7414   1.9802907375e+01   5.7859263319e+01     0.313852    0.2697231  -8.45  0.001783486    1.286    0.222
       204 -10.7622    244.1148     18.6553   3.5967189092e+02   2.3011145095e+01    0.2508604     0.166658 -62.93  0.000755403    1.239    0.193
       205 -10.8335    247.1278     22.8352   3.6632710924e-01   2.1939539499e+01    0.2299916    0.1622061 -52.90  0.000779987    1.094    0.086
       206 -11.6383    242.1140     22.8188   6.9037054764e-01   2.2931316506e+01    0.3667721    0.2133034  88.43  0.001071984    1.770    0.435
       207  -9.6154    156.8394     22.3577   8.7534891636e+00   4.2780310638e+01     0.214847    0.1098007  59.07  0.000951059    1.837    0.456
       208  -9.0664    138.3406     22.3252   1.1545251750e+01   4.7565482713e+01    0.1486729    0.1009422  38.16 0.0007051216    1.730    0.422
       209  -8.8886    163.2961     20.6677   7.3803607098e+00   4.1323284147e+01    0.1482924   0.09236751 -63.23 0.0006173105    1.641    0.391
       210 -10.4641    134.5342     25.2228   1.3211004590e+01   4.8209015121e+01    0.3925182     0.262298 -65.68  0.001753461    1.692    0.409
       211 -11.4291    130.5134     19.3055   1.1820877855e+01   4.9937594181e+01    0.3424545    0.2287155  80.91 0.0009579945    1.491    0.329
       212 -10.1710    122.4182     18.7146   1.3088111631e+01   5.2092510799e+01    0.4287057    0.1712121 -54.75  0.001385911    3.949    0.747
       213  -9.0400    136.2512     19.3251   1.0851029666e+01   4.8448661214e+01    0.1354752    0.1035647  33.43 0.0001306595    1.542    0.352
       214  -9.8732    143.8259     18.1132   9.2456647330e+00   4.6618651806e+01     0.169713      0.14289  58.72 0.0002823423    1.181    0.153
       215  -9.7065    139.1422     17.6272   9.7981394165e+00   4.7886144476e+01    0.2501625   0.09113476 -28.93 0.0009437323    2.818    0.645
       216  -9.4393    153.9433     16.7026   7.3599084105e+00   4.4158726267e+01    0.1914262    0.1592152  87.41 0.0003717696    1.079    0.073
       217 -11.3441    140.7958     96.0615   3.4463372975e+01   3.4728584767e+01    0.4266754     0.346283  71.25 0.0007756503    1.356    0.263
       218  -9.5761    143.0184     79.6487   2.9212016924e+01   3.7456270766e+01    0.2071617    0.1953722  48.35  0.001089557    1.096    0.087
       219 -10.5697    131.0694     86.8735   3.4272799822e+01   3.8878130022e+01    0.3660526    0.2979269  65.08 0.0008723947    1.285    0.222
       220 -13.1255    122.5957     99.0890   4.0040153176e+01   3.8223608631e+01    0.7702311    0.5438122 -19.57  0.003226547    1.973    0.493
       221 -13.6859    131.4045     95.4269   3.6652306066e+01   3.7023980834e+01     1.133359    0.8162017  54.67  0.005174603    1.414    0.293
       222 -11.1764    135.8629     87.1377   3.3136805699e+01   3.7698173008e+01    0.4776823     0.286465  46.67  0.001114598    1.681    0.405
       223 -12.3798    136.1206     81.4947   3.1405317230e+01   3.8758380294e+01     1.189385    0.6987103  67.56  0.003885835    2.175    0.540
       224 -11.3782    127.2361     89.5738   3.6067947562e+01   3.9211728003e+01    0.5057631    0.2527902  47.99  0.001044149    1.991    0.498
       225 -12.3499    121.3794     86.9414   3.6877507674e+01   4.1110114262e+01    0.5622959    0.4222766 -53.73  0.001247257    1.375    0.273
       226 -12.1632    125.3477     83.8786   3.4881117403e+01   4.0827863501e+01     0.608411    0.4484603 -35.27  0.001628239    1.437    0.304
       227 -11.8194    148.0687     84.7311   2.9542519760e+01   3.5270171939e+01    0.5037192    0.4135993  81.21  0.001012224    1.349    0.259
       228 -10.8651    147.3726     79.4644   2.8167690795e+01   3.6438017196e+01    0.3185124    0.2831461 -64.58 0.0009829444    1.131    0.116
       229 -10.5665    109.4736    104.1279   4.5186222700e+01   3.9921061690e+01    0.2412343    0.1541578 -47.67  0.001021552    1.567    0.362
       230 -10.2040    227.6818    102.6772   2.0009263119e+01   1.4671931698e+01    0.2407363    0.1758127 -28.16  0.001354767    1.294    0.227
       231 -10.9955    222.6684    100.3029   2.0176869604e+01   1.6005464030e+01    0.2434693     0.194251 -82.79 0.0009914479    1.555    0.357
       232 -11.5322    225.6014     98.3360   1.9322063654e+01   1.5751799590e+01    0.4232717    0.2281017 -37.99   0.00206906    1.594    0.372
       233 -10.1761    214.1741    103.0066   2.2040491086e+01   1.7233366842e+01    0.2339347    0.1598091  -5.37  0.001096597    2.146    0.534
       234 -10.2225    165.8221    101.8429   3.0372181197e+01   2.7820136867e+01    0.2294698    0.2111934   5.79 0.0008335106    1.217    0.178
       235 -11.6642    154.1940     97.1791   3.1641465173e+01   3.1397726779e+01    0.6842387    0.2351625 -36.63    0.0021025    3.243    0.692
       236 -10.8408    151.1895     96.1994   3.2051693689e+01   3.2288956050e+01    0.4546963    0.3470574 -55.13  0.002163389    1.350    0.259
       237 -10.9050    159.3985     99.1985   3.1040052334e+01   2.9799967295e+01    0.3034612    0.2487248 -65.19 0.0005436075    1.316    0.240
       238  -9.8852    157.5179     95.5861   3.0478100779e+01   3.0939441301e+01    0.2793076    0.2443543  49.78 0.0004833855    1.170    0.145
       239 -10.8554     95.9593    101.1983   4.8582403270e+01   4.3355709797e+01    0.2947652    0.2293414  17.62  0.001357684    1.571    0.364
       240 -12.6888     85.3811     98.7396   5.1423667670e+01   4.5966455658e+01    0.7436079    0.4272099  28.94  0.002982263    2.041    0.510
       241 -12.0939     73.4851     96.6498   5.5044126129e+01   4.8580780822e+01    0.4538002    0.4182752  72.76  0.002440162    1.132    0.117
       242 -12.0316     95.9416     90.4123   4.5572484088e+01   4.5877486018e+01    0.8998354    0.4781388  47.56  0.001465495    1.928    0.481
       243 -12.1445    102.3293     96.2394   4.5200139492e+01   4.3228357737e+01    0.5875675    0.3564794 -53.92 0.0005058118    1.700    0.412
       244 -12.6098    106.9225     95.9625   4.3706110728e+01   4.2329604290e+01    0.6100183    0.3543584 -38.32 0.0004486302    1.897    0.473
       245 -11.7102     57.4603    100.0014   6.1782120111e+01   5.0223638388e+01    0.2978036    0.1983969  50.36   0.00138377    1.635    0.388
       246 -10.7068    199.5824     96.5659   2.2800999329e+01   2.1318187080e+01    0.3978703     0.283063 -38.28  0.001573602    1.291    0.226
       247 -10.6094    170.3961     97.9950   2.8434447877e+01   2.7514429584e+01    0.3913377    0.2602511 -52.00  0.001783395    1.541    0.351
       248 -10.4035     46.4540     98.9821   6.5761518610e+01   5.1936405914e+01    0.2193766    0.1333296 -63.10  0.001008068    1.530    0.346
       249  -9.5649    244.6568     98.1518   1.6816440523e+01   1.2267411256e+01    0.1869704    0.1036545 -27.45 0.0005785632    1.770    0.435
       250 -11.8210     11.9137     97.2450   7.9069145391e+01   5.5603492712e+01    0.3073347    0.2970218  30.99  0.001374212    1.183    0.155
       251 -12.4336     72.5971     74.2073   4.8902291359e+01   5.4051980473e+01    0.7175911    0.6037506  64.92  0.002605233    1.368    0.269
