#   1 NUMBER                 Running object number                                     
#   2 MAG_AUTO               Kron-like elliptical aperture magnitude                    [mag]
#   3 X_IMAGE                Object position along x                                    [pixel]
#   4 Y_IMAGE                Object position along y                                    [pixel]
#   5 X_WORLD                Barycenter position along world x axis                     [deg]
#   6 Y_WORLD                Barycenter position along world y axis                     [deg]
#   7 A_WORLD                Profile RMS along major axis (world units)                 [deg]
#   8 B_WORLD                Profile RMS along minor axis (world units)                 [deg]
#   9 THETA_WORLD            Position angle (CCW/world-x)                               [deg]
#  10 FWHM_WORLD             FWHM assuming a gaussian core                              [deg]
#  11 ELONGATION             A_IMAGE/B_IMAGE                                           
#  12 ELLIPTICITY            1 - B_IMAGE/A_IMAGE                                       
         1 -13.4085    247.0225     41.4881   3.5927076736e+02   1.9858121337e+01     1.068861    0.2873603 -38.11  0.004686597    2.517    0.603
         2 -11.8119    230.5441      1.4681   3.5143886115e+02   2.7372638957e+01     0.387936    0.3148631  72.38  0.002004082    1.463    0.316
         3 -13.5395    235.4300      7.9725   3.5265630240e+02   2.5749641012e+01    0.9125053     0.460105 -40.26  0.005269834    1.525    0.344
         4 -12.3221    249.2294      9.2925   3.5230893272e+02   2.2952490268e+01    0.6423384    0.3437117 -27.04  0.003794675    1.804    0.446
         5 -12.0802    241.6720      9.0399   3.5259557519e+02   2.4415834113e+01    0.5257325    0.2147642 -36.36  0.001751894    1.846    0.458
         6 -12.3762    243.6042      3.6455   3.5136118667e+02   2.4577247583e+01    0.5643499    0.3905338  83.78  0.003052806    1.535    0.349
         7 -10.9575     20.0491      2.7365   4.0761776358e+01   7.8002749810e+01    0.5821183    0.3246182 -17.83  0.002759031    2.317    0.568
         8 -11.8373      3.6368     21.8040   6.7674174693e+01   7.5679893598e+01    0.9671158    0.3303296 -34.36  0.003910081    2.839    0.648
         9 -11.1347      4.7478      2.9505   5.7432293393e+01   7.9615476928e+01    0.5783104    0.2646354 -20.50  0.002603237    2.599    0.615
        10 -11.9115     14.5966     18.2829   5.6074910821e+01   7.5706869118e+01    0.3728524    0.2884662 -11.12  0.002251771    1.205    0.170
        11 -12.7682     10.9875     11.1373   5.5620821674e+01   7.7489871268e+01    0.5975466    0.4905556 -13.43  0.001839488    1.067    0.063
        12 -12.0057      3.4148     10.8443   6.3382551895e+01   7.8090281745e+01    0.5305266    0.2520459 -42.74  0.002309656    1.776    0.437
        13 -12.9587     28.6099     19.9677   4.5248525815e+01   7.3761678280e+01    0.3126041    0.2643604   8.70 0.0005044104    1.093    0.085
        14 -13.2440    249.2680     20.0644   3.5456522838e+02   2.1833077058e+01    0.8168815    0.4193115 -60.61  0.003429488    1.710    0.415
        15 -10.6899    193.0633     20.9427   3.5855119639e+02   3.3647794290e+01    0.1978593    0.1671392 -65.48 0.0003143986    1.005    0.005
        16 -12.1847    216.8208     15.9812   3.5552856219e+02   2.8792014275e+01    0.5100842    0.2229747  62.05  0.002232824    2.508    0.601
        17 -11.6685    170.9132     14.7536   3.5881199120e+02   3.9778744833e+01     0.440426    0.2188241  79.48  0.001985792    1.914    0.478
        18 -10.6403    137.1481     14.8374   2.8047042594e+00   4.8704442071e+01    0.3640457    0.1867399 -58.15  0.001421262    2.152    0.535
        19 -10.6665    139.8222     10.9225   1.0320709843e+00   4.8374131502e+01    0.2899831    0.1917705  48.24 0.0005583118    1.637    0.389
        20 -11.0566     26.7938     13.1868   4.2467239477e+01   7.5268344881e+01     0.259422    0.1784182 -28.29 0.0007287455    1.439    0.305
        21 -12.8968     65.3200     11.6459   1.8688997272e+01   6.7973215741e+01    0.2852653    0.2575027  39.10 0.0004606862    1.014    0.014
        22 -10.8344    178.0179     12.0159   3.5735990450e+02   3.8268406777e+01    0.2057131    0.1789476 -75.40 0.0003203494    1.043    0.041
        23  -9.8212    145.6140     11.7851   6.0752879271e-01   4.6725507044e+01    0.2008162    0.1182222 -40.89 0.0007185373    1.665    0.399
        24 -12.0491     76.0215     10.2235   1.3957512271e+01   6.5535363830e+01    0.3677917    0.2996994  32.33  0.001023526    1.225    0.184
        25 -10.1673     90.2130      9.4986   9.4574895915e+00   6.1962477838e+01     0.224907    0.1944816 -28.25 0.0003391738    1.287    0.223
        26 -11.1047    154.3521      8.6068   3.5855222594e+02   4.4704001061e+01    0.2885032    0.2319972 -88.98 0.0009430627    1.093    0.085
        27  -9.2757    202.5491      8.4493   3.5457832521e+02   3.2749077550e+01     0.127581    0.1055055 -64.12 0.0001343087    1.027    0.026
        28 -11.5669     82.1615      6.8826   1.0251552284e+01   6.4319536960e+01    0.2310604    0.1944029  52.25 0.0002796443    1.064    0.060
        29 -10.7391     58.5428      5.0245   1.7347792786e+01   7.0314367357e+01    0.3157424     0.253072 -74.49  0.001296707    1.676    0.403
        30 -11.0987    223.2941      4.6724   3.5250053171e+02   2.8563095104e+01    0.3058205    0.2097242 -15.13  0.000723236    1.830    0.454
        31  -9.8851     68.0766      5.6205   1.3995651728e+01   6.7984876391e+01    0.1995543    0.1561022  53.98 0.0003970138    1.130    0.115
        32  -9.7716     35.9876      6.1704   3.0525230116e+01   7.4891567890e+01    0.2314777    0.1330813  22.95  0.001080554    2.036    0.509
        33 -11.7953    179.1816      3.6441   3.5487231975e+02   3.8795918858e+01    0.3420055    0.2391492  72.50 0.0004609489    1.395    0.283
        34 -10.8738    164.3706      4.6052   3.5632891367e+02   4.2458980358e+01     0.224727    0.1645891 -26.14 0.0002853775    1.502    0.334
        35 -11.2550     28.4439      3.8514   3.4333307101e+01   7.6545629638e+01    0.2657215    0.2321804 -68.85  0.001614575    1.735    0.424
        36 -10.4320    159.5512      3.9269   3.5654177611e+02   4.3773216722e+01    0.1871184    0.1296071 -31.51 0.0003636362    1.504    0.335
        37  -9.9214     97.2281      3.1264   4.7045261309e+00   6.0684544979e+01    0.2155015    0.1730412  47.10 0.0006702318    1.214    0.176
        38 -10.0113    168.5250      2.0480   3.5520904549e+02   4.1624727211e+01    0.1854522     0.125712 -32.32  0.000385187    1.505    0.335
        39  -9.6299     91.2720      2.0069   5.4190034655e+00   6.2370887099e+01    0.1852513    0.1695066  54.34 0.0003774455    1.075    0.070
        40 -10.5751     32.6368      1.6463   2.9356940187e+01   7.6128966539e+01    0.2331015     0.157002  38.94 0.0006547075    1.351    0.260
        41  -9.7577    121.9108      1.4239   3.5981817771e+02   5.4110811101e+01    0.2109563    0.1226193  74.76 4.916313e-05    1.498    0.333
        42  -9.9249     73.2643      1.3862   9.7442646538e+00   6.7100297656e+01    0.3238554    0.1254551  67.30  0.001237917    2.445    0.591
        43  -9.2439    104.6700    223.6832   6.2081806662e+01   1.4871400073e+01    0.1256997   0.09158279  -0.20 0.0007046505    1.683    0.406
        44 -11.9849    231.6102    235.2518   3.8442684529e+01  -2.9155345482e+00    0.3600158    0.1637006  30.50  0.002226086    1.970    0.492
        45 -12.7230    247.5346    247.1382   3.7638552853e+01  -5.7241091146e+00    0.7164153    0.4431133  13.73  0.005639622    1.222    0.182
        46 -10.7134    249.1402    239.0289   3.6246979048e+01  -5.0764270338e+00    0.2758238    0.1556425  -1.10   0.00198056    1.421    0.296
        47 -12.3969    244.6038    236.3521   3.6553454466e+01  -4.3606013398e+00     1.216321    0.4737814   7.87  0.004620759    5.662    0.823
        48 -12.2160    237.1038    236.2221   3.7705328460e+01  -3.5900599896e+00    0.6834344    0.2834122  -0.33  0.002630256    5.391    0.815
        49 -11.7519    226.9414    238.6614   3.9693369446e+01  -2.7926878302e+00    0.3050147    0.1891291 -20.56  0.002013524    1.457    0.314
        50 -13.6705    225.9885    244.6758   4.0698841881e+01  -3.3386468877e+00     1.023922    0.4901924  13.68  0.006265563    1.883    0.469
        51 -11.1814    204.5727    250.3842   4.5103814504e+01  -1.6732436838e+00    0.3607818   0.09754641  30.02  0.001677363    2.960    0.662
        52 -11.8686    197.4583    244.3404   4.5551431034e+01  -1.8092932863e-01    0.5428399    0.2540567  -1.86  0.002445899    3.584    0.721
        53 -11.3998    188.6629    245.4455   4.7297044518e+01   7.0585448338e-01    0.3211518    0.1730606   6.60  0.001501145    1.935    0.483
        54 -10.6097    149.7504    250.4013   5.5399929784e+01   4.7766320825e+00    0.1717014   0.08638445  22.38 0.0009497334    1.650    0.394
        55 -10.3847    121.5178    250.3331   6.1175431414e+01   8.3155284636e+00    0.2177572   0.08481253  30.34 0.0008419325    1.912    0.477
        56 -11.3013     73.7679    249.8710   7.1330894100e+01   1.4228774279e+01     0.448716    0.1452608  26.42   0.00191871    2.734    0.634
        57 -11.4249      4.2895    243.6653   8.5843425933e+01   2.2457345104e+01    0.2143071    0.1549999  33.46 0.0008156857    1.255    0.203
        58 -12.9452     21.7024    248.7307   8.2368242439e+01   1.9980698531e+01     1.116691    0.2091785  30.17  0.004679326    3.191    0.687
        59 -11.3948     11.9086    249.3803   8.4405253918e+01   2.0772238037e+01    0.4218928   0.07673202  43.20  0.001973257    2.567    0.610
        60 -11.2358     18.6659    241.7041   8.2788901925e+01   2.1523512253e+01    0.3104274    0.1356739  31.35  0.001590222    1.726    0.420
        61 -12.8360     11.2356    237.5572   8.4253074124e+01   2.2963224377e+01    0.7090062    0.3181481  41.22  0.004191082    1.513    0.339
        62 -11.2440      3.8193    238.1906   8.5834619322e+01   2.3493058354e+01    0.2480434    0.1402222  77.98 0.0009586632    1.688    0.408
        63 -11.0882     20.3388    237.5070   8.2297440959e+01   2.2136889053e+01    0.4940174    0.1122752  38.75  0.002272789    2.414    0.586
        64 -12.6348     26.4589    242.4892   8.1152964981e+01   2.0636854391e+01     1.002543          nan  43.25  0.003587517    4.109    0.757
        65 -13.4357     32.1096    235.8393   7.9659499871e+01   2.1298206209e+01     1.368657    0.4296971  52.80  0.006368466    2.528    0.604
        66  -9.3915     15.6484    222.2831   8.2839910462e+01   2.5491244631e+01    0.1319488   0.05856227  49.99  0.000522922    1.656    0.396
        67  -9.2589    140.6823    221.6693   5.3739623516e+01   1.0240253672e+01    0.1285607   0.08716463   0.67 0.0005394805    1.686    0.407
        68  -9.7584    154.5002    228.4793   5.1709051542e+01   7.2926353889e+00    0.1247474   0.09644886  19.80 7.683675e-05    1.003    0.003
        69 -10.2680     41.8459    220.6348   7.6673949212e+01   2.3216787158e+01     0.187546   0.08121163  38.26 0.0005478935    1.683    0.406
        70  -9.2228    183.6701    219.6691   4.4614004293e+01   4.6786826122e+00     0.126926   0.07794204   1.36 0.0007051794    1.717    0.418
        71 -10.2058     51.3781    217.7737   7.4218520390e+01   2.2733728004e+01    0.1541186      0.11403 -64.78 0.0009478061    1.639    0.390
        72  -9.3829     56.0142    216.9661   7.3042280218e+01   2.2361303166e+01    0.1479573    0.1174149  45.58 -0.003769674    1.017    0.017
        73  -9.3466     38.5290    217.5027   7.7286659327e+01   2.4200033987e+01     0.126574   0.09735496  47.41 5.165582e-05    1.004    0.004
        74 -10.0063     10.0068    217.1854   8.3974354803e+01   2.7012824405e+01    0.2187014   0.07509545  46.61   0.00107844    1.986    0.497
        75  -9.4656    204.5343    216.5447   4.0250546512e+01   2.4182948985e+00    0.1200497   0.08781232   4.76 0.0003086982    1.073    0.068
        76 -10.1600     23.9258    216.0290   8.0687473856e+01   2.5974724588e+01    0.1854084    0.1338672  50.45  0.000325337    1.060    0.057
        77  -9.5497    106.5403    211.0319   6.0199102762e+01   1.6933296653e+01    0.1735743    0.1340146 -58.82  0.001026918    1.582    0.368
        78 -10.1567      4.9238    210.6331   8.4976092561e+01   2.8781927927e+01    0.1908913     0.144993 -85.51 0.0007505334    1.428    0.299
        79 -11.5313    218.9201    207.4760   3.6297509171e+01   1.7939558406e+00    0.4571592    0.2449801  -0.52  0.002441568    2.208    0.547
        80  -9.0463    123.9735    206.0111   5.5417085342e+01   1.5340643683e+01    0.1571828    0.1267266  28.76            0    1.027    0.026
        81 -10.9744    238.3367    200.9334   3.2057128384e+01   2.6928244138e-01    0.2346158    0.1288579 -28.73 0.0009563378    1.606    0.377
        82  -9.3402    206.3199    205.3167   3.8150409384e+01   3.6741577129e+00    0.1246146   0.07624657   0.33 0.0007040999    1.659    0.397
        83 -10.3194    229.9509    204.0000   3.3897245716e+01   8.8794323526e-01    0.1706795   0.05613134  34.27 0.0007991442    2.920    0.657
        84  -8.8853    120.3624    200.2940   5.5489755361e+01   1.6945993279e+01    0.1381433   0.09822766   1.68 0.0007030292    1.706    0.414
        85 -10.4174     11.2003    209.0222   8.3449107445e+01   2.8586305471e+01     0.264239    0.1756468  67.90  0.001042219    1.296    0.228
        86  -9.6854    177.5048    198.0571   4.2447531513e+01   8.7139691112e+00    0.1793062    0.1209848 -37.25  0.001031753    1.596    0.373
        87  -9.3727     50.7782    197.5726   7.2898974870e+01   2.7047248307e+01    0.2050033   0.09330203  39.76 0.0009535758    1.724    0.420
        88 -10.4751      4.5153    204.4992   8.4915309302e+01   3.0098098856e+01    0.2673018    0.1671917  11.13  0.001456767    1.944    0.486
        89  -9.3648    134.8269    196.5509   5.1514903344e+01   1.5438318054e+01    0.1802274    0.1115741  40.82 0.0003582487    1.481    0.325
        90  -9.5860    209.7087    193.0421   3.5500084512e+01   4.9008064210e+00    0.1625234    0.1243526  -8.00 0.0002797151    1.098    0.089
        91 -11.2469     15.5602    192.2294   8.1757924937e+01   3.1838720570e+01    0.3152728    0.2611506  30.26  0.001207483    1.248    0.199
        92  -8.9515     62.0000    191.9580   6.9443733538e+01   2.6929393945e+01    0.2053108   0.07720763 -70.42 0.0008095262    2.992    0.666
        93 -10.2722     62.0160    184.8450   6.8744623162e+01   2.8531994620e+01    0.2237679    0.1966486  85.77 0.0007296497    1.196    0.164
        94 -10.6270     15.4930    181.8653   8.1326852694e+01   3.4205942621e+01    0.3582392    0.1807256  58.29  0.001813261    1.694    0.410
        95  -9.4786     23.7538    180.6622   7.9010958229e+01   3.3747755621e+01     0.181537   0.09631965  37.48 0.0003177805    1.562    0.360
        96  -9.1597     17.6844    173.2921   8.0304876218e+01   3.6037279208e+01      0.14256   0.07594648  54.07 0.0007007261    1.597    0.374
        97  -9.1061      7.5030    163.4810   8.2763162597e+01   3.9220060272e+01    0.1313398    0.1089793  62.82 0.0001014141    1.002    0.002
        98 -10.8832    117.7290    159.5156   4.9660984673e+01   2.5768664638e+01    0.4574079    0.2368103 -46.43  0.001902876    2.103    0.525
        99  -9.3895     56.3408    162.6905   6.8009367917e+01   3.4538409475e+01    0.1578722   0.09279986  56.81 0.0007044467    1.691    0.409
       100 -11.7690     17.4026    159.9411   7.9650046556e+01   3.9318200611e+01     0.313585    0.2801245 -86.95  0.001155179    1.159    0.137
       101  -9.1834      2.3726    157.2531   8.4026022435e+01   4.1102084884e+01    0.1208153   0.09356616 -37.25 0.0003047232    1.641    0.391
       102 -10.0167    235.3213    151.3054   2.3660690788e+01   7.1192997322e+00    0.1232669   0.08135162  -1.82 0.0003147978    1.637    0.389
       103 -10.7687     13.8163    148.0131   8.0055740114e+01   4.2609293780e+01    0.2032381    0.1724875  51.56 0.0002945165    1.087    0.080
       104 -10.2358    233.8996    146.8713   2.3011410571e+01   7.9443562669e+00    0.1887667    0.1379435 -11.37 0.0005040067    1.248    0.199
       105  -8.8883      6.6703    145.3085   8.2192488449e+01   4.3806573540e+01    0.1468361   0.07846854  55.00 0.0007040031    1.663    0.399
       106  -9.5101     17.3831    143.1821   7.8584172080e+01   4.3574760085e+01     0.202344    0.1101045  78.70 0.0009331145    1.792    0.442
       107 -10.8607    239.5664    140.6004   2.0962875280e+01   7.9790544539e+00    0.2089943    0.1653349 -18.56 0.0002152312    1.030    0.029
       108  -9.3443    189.4664    140.4357   2.9152401056e+01   1.6265709137e+01    0.1357115    0.1239343  -8.29 0.0001871858    1.021    0.021
       109  -9.4491    207.8146    136.1532   2.4954970461e+01   1.3718566135e+01    0.1781125    0.1396684  -4.27 0.0002613689    1.293    0.227
       110 -11.8167     37.6323    135.3241   7.0951103644e+01   4.3777529243e+01    0.2579393    0.2345182  75.41 0.0003124081    1.021    0.021
       111 -10.2739     36.4688    131.0280   7.0858576294e+01   4.5042790779e+01    0.2974086    0.2140089 -85.49 0.0009688286    1.359    0.264
       112 -11.3049    241.5477    134.4430   1.9471599900e+01   8.5336901867e+00    0.2203444    0.1725596 -23.87 0.0006720246    1.039    0.038
       113  -9.7881     47.0369    133.6526   6.7433141663e+01   4.3163387479e+01    0.1990996    0.1763512  39.91 0.0003766921    1.109    0.099
       114  -9.2553     15.5750    134.6037   7.8582676189e+01   4.5949262715e+01    0.1352266     0.119502  70.27 2.075262e-05    1.011    0.011
       115  -9.9337     53.3310    132.8735   6.5106114554e+01   4.2589222554e+01    0.2083052    0.1255716 -57.97 0.0004348228    1.675    0.403
       116  -9.3509    128.5017    132.4869   4.1239341228e+01   2.9721856204e+01    0.1538789     0.147157  36.76 0.0008105247    1.011    0.011
       117 -11.8763      4.8996    130.0779   8.1995467347e+01   4.7842090433e+01    0.2324962    0.2065135  85.51 0.0002957656    1.054    0.051
       118 -10.2131     73.7415    129.2748   5.7394122135e+01   4.0601374615e+01    0.2712971    0.2474445 -62.55  0.000713583    1.137    0.120
       119 -10.1735    216.9716    129.3193   2.2018102230e+01   1.3207718521e+01    0.1741612    0.1556594  -6.67 0.0003663896    1.072    0.067
       120 -10.4252     55.9032    126.7997   6.3244214121e+01   4.3863422494e+01    0.2220332    0.1981196 -30.39 0.0005925489    1.278    0.218
       121  -9.2010     43.2904    127.6822   6.7959566982e+01   4.5193698462e+01    0.1556495     0.101122  61.86 0.0002445315    1.598    0.374
       122  -9.9760     82.5250    124.5527   5.3466724854e+01   4.0364574356e+01    0.2954772    0.1547284 -59.11 0.0007703435    1.976    0.494
       123  -9.5878      1.3079    124.8275   8.2983481853e+01   4.9409318615e+01    0.2849141    0.1030784  85.60  0.001094368    2.660    0.624
       124  -9.4304    229.4946    124.4872   1.9128501016e+01   1.1830837100e+01    0.1265239    0.1058978 -22.13 0.0004402398    1.012    0.012
       125 -10.0289     68.2987    121.9251   5.7906569028e+01   4.3367654208e+01     0.215004    0.1949076 -73.77 0.0005613608    1.113    0.101
       126  -9.5812     10.8317    122.6019   7.9397631707e+01   4.9446465521e+01    0.1994069    0.1068875  36.45  0.000939637    1.776    0.437
       127  -9.8026     61.2040    121.2169   6.0349299628e+01   4.4611156657e+01    0.2166661    0.2059485 -24.41 0.0005585243    1.166    0.142
       128  -9.9668     56.4340    120.5523   6.1993050819e+01   4.5456182362e+01    0.3387613    0.1716472  53.88  0.001255666    2.243    0.554
       129 -10.1555    249.3387    118.3125   1.5233013215e+01   9.5565770338e+00    0.1193495    0.0829357  -1.32 0.0007046178    1.693    0.409
       130  -9.8519     73.6409    116.9917   5.4988325759e+01   4.3806309539e+01    0.2126892    0.1888554 -71.24 0.0003462288    1.144    0.126
       131  -9.9760     16.0240    115.3673   7.6832293565e+01   5.1031891916e+01    0.1853676    0.1697908  39.89 0.0003873068    1.138    0.122
       132 -11.4509    248.6925    111.7869   1.3990060053e+01   1.0535384599e+01    0.2100506    0.1774366  75.15  0.001442523    1.648    0.393
       133  -9.1650     55.4698    110.5860   6.0522574887e+01   4.8252075846e+01    0.1471194    0.1462392 -84.51 8.387894e-05    1.059    0.055
       134 -11.1019     12.0194    109.3705   7.7869150517e+01   5.2906159419e+01    0.3490506     0.237786 -66.69 0.0009421336    1.366    0.268
       135 -10.5064     31.6858    109.3642   6.9872362424e+01   5.1364802472e+01    0.2478508    0.1723329  81.53 0.0007848719    1.491    0.329
       136  -9.8835     30.4752    106.5005   6.9961794966e+01   5.2256602253e+01    0.3205803    0.1839142  25.93  0.001453155    1.768    0.434
       137 -10.8805     61.9187    107.9691   5.7468826589e+01   4.8019464651e+01    0.2371038    0.2325743 -52.09  0.001203303    1.067    0.063
       138  -9.1685     44.5549    108.4807   6.4488452075e+01   5.0222269692e+01    0.1471807    0.1407014 -89.18 0.0001543254    1.015    0.015
       139  -9.8043     20.4535    108.3204   7.4336312015e+01   5.2610298335e+01     0.247971    0.1291521  19.03  0.001092803    2.037    0.509
       140 -10.9906     75.4436    104.6030   5.1524867375e+01   4.6704432162e+01    0.3602173    0.2720032  80.48 0.0006227024    1.611    0.379
       141  -9.5939    110.7057    106.0000   3.9858497854e+01   3.9441513378e+01    0.3795712   0.08918701  42.31 0.0009584031    4.128    0.758
       142  -9.6152      3.7658    104.6339   8.0834178993e+01   5.4620372191e+01    0.1900847    0.1137372  30.87 0.0009519375    1.710    0.415
       143  -9.2910     36.4483    102.4779   6.6823093822e+01   5.2755545930e+01    0.1456672    0.1369645  86.37 5.052921e-05    1.018    0.018
       144 -10.5079     92.0656    101.1116   4.4628592011e+01   4.4468768794e+01    0.3023865    0.2368507  52.81  0.001161805    1.285    0.222
       145 -11.7495    249.2011     98.4978   1.1198495211e+01   1.2239596498e+01    0.2987566    0.1589301 -38.11 0.0009242529    1.509    0.337
       146  -9.9448     62.4099     98.7966   5.5219106474e+01   5.0359005878e+01    0.2251887    0.1369072 -49.41 0.0009488635    1.670    0.401
       147  -9.8639     33.5371     98.4603   6.7401209520e+01   5.4141249020e+01    0.3052772    0.1348841 -69.00  0.001193785    2.125    0.529
       148 -10.1403     10.1036     99.0515   7.7704991185e+01   5.5790171151e+01    0.1991784    0.1775778  82.23 0.0003206893    1.050    0.047
       149  -9.7929     76.6894     97.9460   4.9383190801e+01   4.8179905565e+01      0.22074    0.1980542 -54.48  0.000405037    1.133    0.117
       150 -10.5170     14.6920     97.8392   7.5584498740e+01   5.5843459744e+01    0.2304972    0.1528774 -57.92 0.0004571853    1.423    0.297
       151  -9.5009     52.1990     96.8868   5.9023853609e+01   5.2355721922e+01    0.2012527    0.1659963 -40.21 0.0002328887    1.282    0.220
       152 -10.0944      2.3260     96.0639   8.0806719686e+01   5.6964079401e+01    0.1927898    0.1552907 -85.90 0.0004299324    1.109    0.098
       153  -9.7031     93.6240     94.1599   4.2166983641e+01   4.5827804704e+01    0.2204621    0.1484629 -39.90 0.0002269676    1.622    0.384
       154 -11.8059     57.1657     90.9681   5.5514148277e+01   5.3202790775e+01    0.3338897     0.297192 -56.42 0.0005437086    1.115    0.103
       155  -9.3739     31.5204     92.5850   6.7286362187e+01   5.5925731675e+01    0.1429766    0.1347314  77.51 5.367453e-05    1.053    0.050
       156  -9.9837     35.0308     90.4809   6.5291744277e+01   5.6140401531e+01    0.2121199    0.1867413 -72.59  9.96101e-05    1.090    0.082
       157 -12.1180    249.4645     85.9103   8.5419043551e+00   1.3865138653e+01    0.3863697    0.2240415 -50.87  0.002198511    1.706    0.414
       158  -9.8557     22.5938     88.7703   7.0780425217e+01   5.7731344739e+01    0.2005999    0.1286764 -89.10 0.0008643653    1.613    0.380
       159 -11.0709    184.8567     85.2519   1.6881548339e+01   2.6607932901e+01    0.2305662    0.1995228 -37.28 0.0002835224    1.096    0.087
       160  -9.7064    109.3355     85.9734   3.4548285899e+01   4.4269507257e+01     0.214605    0.2015275 -52.08 0.0002827297    1.093    0.085
       161  -9.9475      8.3079     85.3993   7.7096905987e+01   5.9538663446e+01    0.2348016    0.1487942  69.60  0.001161695    1.652    0.395
       162 -11.3225    239.9555     84.9359   9.3451086856e+00   1.5627067862e+01     0.199194    0.1618299 -39.68   0.00114421    1.032    0.031
       163  -9.7323      4.1739     85.1689   7.9035096927e+01   5.9784592454e+01    0.1949584      0.14562  66.75  0.001054833    1.350    0.259
       164 -10.2197     65.2109     82.7846   4.9860016374e+01   5.4010794629e+01    0.3660111    0.2498161 -87.02  0.001481436    2.064    0.516
       165  -9.2288    173.7089     82.7181   1.8138111532e+01   2.9565991077e+01    0.1402891    0.1149544  15.42 0.0003746448    1.530    0.347
       166 -10.4626     17.2446     81.2297   7.2189764485e+01   6.0138035230e+01    0.2377117    0.1836082 -76.34 0.0006604748    1.210    0.174
       167 -10.3067    120.0866     79.9016   2.9461605497e+01   4.3025986185e+01    0.2429681    0.2313289  33.71 0.0008176595    1.096    0.088
       168 -10.3429     39.7652     79.7171   6.0729318602e+01   5.8473840942e+01    0.2459722    0.1746383  82.66  0.001144557    1.705    0.414
       169 -11.7593     88.1754     77.2140   3.8936015061e+01   5.0923395637e+01    0.2880902    0.2664496 -59.11            0    1.115    0.103
       170 -10.1232    100.0306     76.6829   3.4589536597e+01   4.8423846491e+01    0.2243608    0.2064963  46.69  0.001129952    1.058    0.054
       171  -9.5034    211.9907     76.0363   1.0610183360e+01   2.2207248754e+01    0.1625857    0.1344804 -40.51 0.0004279788    1.062    0.058
       172  -9.9844    168.3441     74.3201   1.6782322144e+01   3.2244713880e+01    0.3240747    0.2070172 -54.76  0.001218758    1.667    0.400
       173  -9.2897     76.5713     74.5390   4.2550789592e+01   5.3921165923e+01    0.1547142    0.1498282  68.54  3.38588e-05    1.050    0.048
       174 -11.2314      6.7261     73.4156   7.6451756372e+01   6.2785192630e+01     0.325869    0.1898099 -24.42  0.001018697    1.900    0.474
       175  -9.2525    206.9937     73.2570   1.0574912154e+01   2.3652548532e+01    0.1540493    0.1169498  66.06 0.0003858533    1.455    0.313
       176 -10.0116    160.0274     71.6771   1.7567472398e+01   3.4709482499e+01    0.2011802    0.1848145  72.93 0.0002992604    1.084    0.078
       177 -11.7527    102.7796     69.5480   3.1266034600e+01   4.9293952907e+01     0.354112    0.2785961 -49.08 0.0003667146    1.320    0.242
       178 -13.2093     16.0465     67.2203   7.0423673706e+01   6.3910479302e+01    0.4155286    0.3439434  73.00  0.001283311    1.306    0.234
       179  -9.7327      1.3756     72.2472   7.9119253093e+01   6.3290945395e+01    0.1830401      0.11479  88.05 0.0002351124    1.540    0.351
       180 -11.6893     92.7412     68.4634   3.4294901634e+01   5.1845082212e+01    0.4702321    0.3158354 -61.70  0.001278338    1.810    0.448
       181 -10.0201     45.0477     70.7716   5.5746731130e+01   6.0111517095e+01    0.2076575    0.1919798  61.69 0.0003479953    1.156    0.135
       182  -9.9487     70.1924     69.1454   4.3404562254e+01   5.6410396187e+01    0.2173758    0.2021432 -17.51 0.0002845167    1.128    0.114
       183 -11.0114     50.3985     68.0315   5.2239118367e+01   6.0038197682e+01    0.3132745    0.2394259 -37.52 0.0008616608    1.349    0.259
       184 -11.0656      6.4515     67.7140   7.5833836658e+01   6.4289201490e+01    0.2495232    0.2089739 -46.95  0.000204183    1.129    0.115
       185 -10.5833    129.3123     66.2248   2.2568206652e+01   4.3388373797e+01    0.3475221    0.2559154  22.57 0.0008753971    1.835    0.455
       186 -11.9644      3.4120     62.0354   7.6756454431e+01   6.5875781254e+01    0.6961579    0.3234695 -49.43 0.0005225502    1.899    0.473
       187 -12.0168     11.0386     59.7020   7.1890943216e+01   6.6146014975e+01    0.5858254    0.2488977 -65.14  0.001863253    1.999    0.500
       188 -11.4544      8.0875     51.5038   7.2122637683e+01   6.8372788888e+01    0.5375597    0.2292196  42.90  0.001793264    2.797    0.643
       189 -12.0785      5.2897     45.8510   7.2828067308e+01   6.9902546011e+01    0.8846622    0.2873555 -46.04  0.003530001    2.582    0.613
       190 -12.9433     12.4789     48.1221   6.8480728611e+01   6.8985668697e+01    0.4217182    0.3183214 -71.30 0.0003748614    1.292    0.226
       191 -11.2143     10.6472     43.7427   6.8630637768e+01   7.0167653390e+01    0.2556326    0.1483847 -36.83 0.0002743233    1.626    0.385
       192 -11.8697     29.3250     65.0133   6.2507458827e+01   6.3403915253e+01     1.072591    0.2125484 -45.69  0.002705184    5.627    0.822
       193 -11.4944     28.6133     61.1063   6.1875363812e+01   6.4464715003e+01     0.656433    0.3267224  24.19   0.00245611    2.042    0.510
       194 -10.2707    159.3494     64.8530   1.5674378523e+01   3.6012732403e+01    0.2472034    0.2213048  51.07 0.0004786991    1.178    0.151
       195  -9.8987    161.8281     61.7867   1.4308139390e+01   3.5887191555e+01    0.2075579    0.2029168  25.05 0.0003547682    1.152    0.132
       196 -12.4841    122.8369     63.6879   2.3366080229e+01   4.5495873732e+01    0.3291105     0.315226 -62.86 0.0003902338    1.063    0.059
       197  -9.8229     81.4028     64.9272   3.7270830726e+01   5.5097009143e+01    0.2137558    0.2031423 -40.97  0.000405183    1.085    0.078
       198 -10.2935    241.6533     64.6646   4.7504088708e+00   1.7999057760e+01    0.1169617   0.09144977   8.41 0.0007048634    1.773    0.436
       199 -10.2964    155.0240     64.0176   1.6237027604e+01   3.7235258683e+01    0.2229029    0.2081535 -79.97 0.0003221759    1.024    0.023
       200 -10.0958    108.6028     64.4159   2.7636287667e+01   4.8917405158e+01     0.390778    0.1527387  55.58  0.001255151    2.700    0.630
       201 -11.8306     46.4762     60.9356   5.1938396203e+01   6.2338508566e+01    0.4529112    0.2964057 -35.62 0.0008807798    1.649    0.393
       202  -9.6004    209.5915     62.7643   7.6641644662e+00   2.4599165387e+01    0.1967306      0.10323 -43.85  0.000935559    1.658    0.397
       203 -11.7671    234.1260     59.2159   4.2438092895e+00   2.0107739730e+01    0.3231357      0.11606 -40.92  0.001447975    2.161    0.537
       204 -10.8032    167.7899     59.4078   1.2583995661e+01   3.4774307399e+01    0.3613937    0.2597161  82.60  0.001757718    1.511    0.338
       205  -9.7091    150.4929     60.5574   1.6045654822e+01   3.8952925569e+01    0.1513696     0.142766 -86.60 3.617596e-05    1.007    0.007
       206 -10.3400    135.0483     58.3110   1.8565265222e+01   4.3305906549e+01    0.2348738    0.2140738 -44.45  0.000497437    1.130    0.115
       207 -11.5637      2.6312     53.0732   7.5892068574e+01   6.8188800567e+01    0.5400429    0.3688646   4.75  0.002999892    1.588    0.370
       208 -10.1996    110.3027     56.8507   2.4391265712e+01   4.9918508402e+01    0.2514293    0.2068742  69.95 0.0003529902    1.239    0.193
       209  -8.7659     71.3326     57.3213   3.8573328940e+01   5.8828172503e+01    0.1575262    0.1206408  -0.54 0.0007049627    1.700    0.412
       210  -9.2015     38.6496     57.7012   5.5128696205e+01   6.4180492357e+01    0.1527904    0.1047789 -22.89 0.0006504639    1.689    0.408
       211 -10.0950    189.0832     59.9700   9.5435405338e+00   2.9568928830e+01    0.2047974    0.1833286 -60.41  0.000341083    1.019    0.018
       212 -11.4385    115.6451     55.0850   2.2240859156e+01   4.8876190337e+01    0.2751561    0.2541974  71.37 0.0004637458    1.039    0.038
       213 -10.1833     88.8246     54.8446   3.0610109042e+01   5.5520807901e+01     0.247139    0.2174093 -81.15  0.001244324    1.295    0.228
       214  -9.8815     88.5197     51.5037   2.9381895214e+01   5.6233607184e+01    0.3044921    0.2283346 -11.69 0.0008136847    1.747    0.428
       215 -10.8642    105.1787     52.5885   2.4301108707e+01   5.1976356602e+01    0.2867993    0.2568014 -56.76 0.0003457199    1.172    0.147
       216 -13.4660    149.6271     51.1426   1.3215407795e+01   4.0664424976e+01     0.370349     0.344384 -82.54  0.000728616    1.006    0.006
       217 -10.0046     97.8607     52.6430   2.6621582835e+01   5.3781269966e+01    0.2373244     0.214222 -21.23 0.0003384433    1.215    0.177
       218 -10.7285     39.2924     52.5492   5.2992179223e+01   6.5329080724e+01    0.3550949    0.2394513 -12.79  0.001075775    1.846    0.458
       219 -10.2806     39.6926     48.3214   5.1186219982e+01   6.6257958478e+01    0.3922143    0.2344794 -18.81  0.001630654    2.350    0.574
       220 -10.0950    160.4827    249.4957   5.3168503931e+01   3.5759386414e+00    0.1182921   0.08541723  17.13 0.0003023558    1.047    0.045
       221 -10.8023    180.1376     47.0060   7.1713094638e+00   3.3538684619e+01    0.2163208    0.1899971 -89.47 0.0002744839    1.102    0.092
       222 -11.7635    121.6068     46.6438   1.7594896810e+01   4.8738532253e+01    0.2864441    0.2603568  81.19 0.0002136055    1.060    0.057
       223 -10.3906     79.6349     47.0788   3.0902349766e+01   5.9115587537e+01      0.41344     0.190874  48.84  0.001564453    2.079    0.519
       224 -10.2546    226.7306     45.9732   1.8796644107e+00   2.3241795032e+01     0.164449   0.09551343 -33.75 0.0008829331    1.495    0.331
       225 -11.1365    143.1569     43.0778   1.1749454152e+01   4.3563352970e+01    0.5340715    0.3524752  28.20  0.002278845    2.175    0.540
       226 -11.6948     52.8671     43.4611   4.1707261476e+01   6.5256068656e+01    0.6638417    0.3276742  29.54  0.002629744    2.260    0.557
       227 -10.1065    127.0088     43.1293   1.5046337027e+01   4.7852238893e+01    0.2260993     0.203194  88.14 0.0003030745    1.075    0.070
       228 -10.6416    108.1265     42.6559   1.9547604386e+01   5.2903670386e+01    0.2580584    0.2327355  29.13 0.0001486682    1.205    0.170
       229 -10.0116     72.9587     43.0221   3.1866007592e+01   6.1359547443e+01    0.2235219    0.2120701  34.56  0.001229096    1.008    0.008
       230 -10.6948     16.4909     42.5411   6.4198369203e+01   7.0081400047e+01    0.2495066    0.1290079 -69.74 0.0005392024    1.979    0.495
       231 -10.4059     15.6416     39.3112   6.3791767501e+01   7.0914722616e+01    0.2576716    0.1804678  71.47  0.001320836    1.931    0.482
       232  -9.9377     89.4982     41.6266   2.4883324228e+01   5.7775556992e+01    0.2899232    0.2169864  81.75 0.0007471661    1.684    0.406
       233 -10.2269    237.2896     44.3344   6.2626903703e-01   2.1355630706e+01    0.1822917     0.147138  81.95 0.0007083049    1.381    0.276
       234  -9.7989    118.7872     40.4767   1.5947803156e+01   5.0438572649e+01    0.2924551    0.1724894 -44.40   0.00124717    1.771    0.435
       235 -11.6872    225.3923     39.3560   4.4800202825e-01   2.4324809207e+01    0.3061599    0.1470867 -25.97  0.001462494    2.130    0.530
       236  -9.5876    203.9570     39.9970   2.5424773111e+00   2.8861963569e+01    0.1604595    0.1356046 -54.92            0    1.020    0.020
       237 -10.4080    148.5775     39.8251   9.6970407806e+00   4.2588074298e+01    0.2723342    0.2159767 -79.81 0.0005904662    1.261    0.207
       238  -9.2562     97.4801     40.5313   2.1794419162e+01   5.5975162595e+01    0.1541874     0.142237  45.74 0.0001115741    1.058    0.055
       239 -10.3174    233.2200     39.4046   3.5983485219e+02   2.2741447566e+01    0.1566402    0.1045222 -78.55 0.0001011226    1.571    0.364
       240  -9.2688    167.7277     38.9738   6.4967875312e+00   3.7721947824e+01     0.172871      0.12265 -33.84 0.0004406298    1.419    0.295
       241 -11.1355     83.6783     38.5298   2.5583123542e+01   5.9703400875e+01    0.3856095    0.3137919 -14.95  0.001251941    1.410    0.291
       242 -11.3906     87.7008     33.8221   2.2011283771e+01   5.9487865970e+01    0.6060379    0.3478414  57.50 0.0007693423    1.663    0.399
       243 -10.8921     23.3606     35.0797   5.6634938349e+01   7.1222168694e+01    0.5271856    0.2748473 -35.36   0.00239097    1.987    0.497
       244  -9.5938     97.7739     36.4864   1.9973235777e+01   5.6540543976e+01    0.2710185     0.179424 -69.53   0.00104209    2.122    0.529
       245 -10.8531     56.6447     35.9033   3.6174670704e+01   6.6060484181e+01    0.4782756    0.3303413   9.41  0.002187989    1.917    0.478
       246 -10.1302    129.5279     35.0627   1.1546365113e+01   4.8339383419e+01    0.2926985     0.238934  18.12  0.001258367    1.541    0.351
       247 -10.8620     54.3446     48.7127   4.3187323637e+01   6.3884337176e+01    0.4064483    0.2660661  40.89  0.001910657    1.519    0.342
       248  -9.6946     63.9676     34.7195   3.1974735013e+01   6.4801717033e+01    0.1998524    0.1771554  37.30 0.0002520753    1.066    0.062
       249  -9.7740    209.6771     33.3064   3.1618505606e-01   2.8404238934e+01    0.1405357   0.08041561 -59.51 0.0003648794    1.643    0.391
       250  -9.8000     79.9908     42.4693   2.8749706731e+01   5.9883039267e+01    0.2124852    0.2023221 -24.67 0.0003127763    1.103    0.093
       251 -11.1644     27.6608     37.5636   5.4598939207e+01   7.0203597871e+01    0.2586756    0.2306127  29.57 0.0001565273    1.197    0.165
       252 -10.0054     34.2079     33.2027   4.8186366059e+01   7.0335501173e+01    0.2120843    0.1736733 -14.29 0.0006739129    1.206    0.171
       253 -11.2104      9.5508     24.9696   6.3565652224e+01   7.4644179786e+01    0.4082119     0.228059  -7.35   0.00165854    1.918    0.479
       254 -11.6181      7.7744     30.5026   6.7008952396e+01   7.3482758966e+01     0.423927    0.2566661 -58.44  0.001276337    1.463    0.316
       255 -10.8167     11.3874     29.3073   6.3647464008e+01   7.3541637306e+01    0.2640374    0.1565898 -29.62  0.001355934    1.633    0.388
       256 -10.7495    196.1902     31.8043   1.1670237020e+00   3.1653856080e+01    0.2276043    0.2012668 -80.67 0.0004016719    1.095    0.087
       257 -10.9596    198.7557     28.4650   4.6513000869e-02   3.1452871643e+01    0.2816252    0.2076934  82.62  0.001624211    1.341    0.254
       258  -9.0499    119.3858     31.3241   1.2248824569e+01   5.1580771286e+01    0.1639172    0.1065468  35.80 1.853568e-05    1.855    0.461
       259 -10.3273     19.0447     30.9692   5.8189978689e+01   7.2560458231e+01    0.2069121    0.1824209 -26.45  0.001169546    1.008    0.008
       260  -9.4658    162.7699     29.9558   4.3916959695e+00   4.0150231133e+01    0.1835461    0.1168585 -30.19 0.0005206621    1.627    0.385
       261 -12.8977    231.9684     26.7748   3.5705827860e+02   2.4450183450e+01    0.3817234    0.2961072 -72.86   0.00106918    1.203    0.169
       262 -12.1242    236.0856     21.5145   3.5561739701e+02   2.4207625767e+01    0.2949926     0.192846  43.52  0.001706977    2.286    0.563
       263  -9.7480    126.4187     28.6568   9.7598201643e+00   5.0027970496e+01    0.2635337    0.1505876  49.16  0.001074562    1.771    0.435
       264 -10.6530    111.8473     27.2385   1.2294673105e+01   5.4148524773e+01    0.2890549    0.2587338  50.77 0.0007667814    1.115    0.103
       265  -9.8283     48.9271     28.3312   3.6473769714e+01   6.8917796825e+01    0.1918494    0.1654208  20.20 0.0005394651    1.094    0.086
       266 -12.0867     44.5885     43.5198   4.6355813267e+01   6.6614899146e+01    0.6068001    0.4084967 -64.18 -0.0001436415    1.824    0.452
       267  -9.4535    118.5200     27.5133   1.0924273574e+01   5.2313809990e+01    0.1505889    0.1368929  65.27 0.0008096959    1.050    0.048
       268 -11.9251    214.6068     26.1177   3.5813813368e+02   2.8159787558e+01    0.3147306    0.1827146  85.06    0.0016909    1.786    0.440
       269 -11.0689    219.0200     25.5225   3.5766620236e+02   2.7275752797e+01    0.2186351    0.1678899 -83.32 0.0005598231    1.261    0.207
       270 -10.6194     83.5364    248.0580   6.9083919951e+01   1.3371122117e+01    0.2453759    0.1169103  41.33 0.0009231314    1.580    0.367
       271 -10.1474    141.4899    247.5051   5.6737177421e+01   6.2121314086e+00    0.1207943   0.08906494  21.13 0.0008101829    1.045    0.043
       272 -11.4657    156.8426    245.4980   5.3401912331e+01   4.5621650762e+00    0.2306807    0.1526609   2.58  0.001207071    1.531    0.347
       273 -11.3731     72.5098    244.5123   7.1224801540e+01   1.5284215699e+01     0.268076      0.19715  47.95  0.001097533    1.165    0.141
       274 -13.3707     74.5215    239.7772   7.0430480480e+01   1.5867260372e+01    0.7987589    0.4420367  38.33  0.003997996    1.333    0.250
       275 -10.2530     70.2932     24.6597   2.3998536871e+01   6.5054218797e+01    0.3020902    0.2865612  71.91 0.0009861042    1.151    0.131
       276 -10.4627     69.7855     21.7496   2.2643666825e+01   6.5596272818e+01    0.4142382    0.2341682  58.72  0.001829865    1.780    0.438
       277  -9.9310     54.9133     24.9027   3.1300751155e+01   6.8357642030e+01     0.201296    0.1729731  13.80  0.001125474    1.147    0.128
       278 -10.5008    148.7079    243.2082   5.4762328119e+01   5.9071025058e+00    0.1922945   0.07600816  23.96 0.0008085818    2.351    0.575
       279 -10.6136    133.1712    241.1377   5.7738542147e+01   8.2081173313e+00    0.3210239    0.1376497  18.06  0.001344271    2.989    0.665
       280 -10.1839    116.0001    241.2439   6.1415900654e+01   1.0415351087e+01    0.1759483    0.1328903  28.57  0.001162677    1.013    0.013
       281 -11.1761     45.2009    244.4050   7.7191949772e+01   1.8377414888e+01    0.2484181   0.08835491  30.01 0.0006496555    2.106    0.525
       282 -12.6312    182.7257    249.9617   4.8982416815e+01   8.5184332367e-01    0.7597499    0.2706312  27.28  0.003826084    2.248    0.555
       283 -10.9196      2.7219     15.5858   6.6204903457e+01   7.7104759641e+01     0.310683    0.1759367  19.27   0.00131615    1.819    0.450
       284  -9.8495    170.7453    239.9708   4.9964414578e+01   3.5695489466e+00    0.2466651     0.118472  11.81  0.001166362    2.621    0.619
       285 -10.2192     22.3713     23.7941   5.2261696633e+01   7.3774395270e+01    0.3078657    0.1452443 -45.88 0.0006656597    1.959    0.490
       286 -10.8937     34.1421     22.6422   4.2717600442e+01   7.2454502539e+01    0.2746636    0.2079906  10.13 0.0006542385    1.335    0.251
       287 -10.7039    215.4392    239.5056   4.1735736739e+01  -1.6443716006e+00    0.2832702   0.08513761  30.44  0.001213184    2.781    0.640
       288 -10.6094    156.4414     21.7570   2.5968080362e+00   4.2775972528e+01    0.2222337    0.1566167  70.14 0.0004521766    1.330    0.248
       289  -9.9183     99.7071     21.6249   1.2820683146e+01   5.8098113698e+01    0.3144895    0.1956262 -43.39  0.001440042    1.744    0.426
       290  -9.2623     51.4860     22.5060   3.1771203413e+01   6.9437749454e+01     0.142239    0.1261434  16.90 0.0002345208    1.051    0.049
       291 -11.5706    221.3839    237.7358   4.0480920804e+01  -2.0955782360e+00    0.3290526    0.1094242  25.54  0.001625193    2.733    0.634
       292 -10.1285    196.3134    238.0926   4.4900806518e+01   7.0231811905e-01     0.156314    0.1193465   4.23 0.0007732443    1.094    0.086
       293  -9.3634     41.3065     19.6898   3.6133042833e+01   7.1812602423e+01    0.2382408    0.1207464  39.95 0.0008895862    1.880    0.468
       294 -11.0088    210.8182     19.1489   3.5670483369e+02   2.9766583654e+01     0.228238     0.173713  75.13 0.0006568934    1.386    0.279
       295 -10.7752     88.9141    240.8549   6.7315356674e+01   1.3921456058e+01     0.184525    0.1458968  14.67  0.001224164    1.322    0.244
       296 -10.1498     44.9661     19.6415   3.3824544762e+01   7.1159089549e+01    0.3835908    0.2502628  66.21  0.001682092    2.616    0.618
       297 -10.0879    187.7158     15.9918   3.5765782542e+02   3.5468543085e+01    0.1840927     0.154548 -54.54 0.0002420696    1.086    0.079
       298  -9.8266    131.8844     16.1461   4.0691208082e+00   5.0000079897e+01    0.2135636    0.1780331 -72.62 0.0002708764    1.156    0.135
       299  -9.9974     52.2989    238.5904   7.5313296581e+01   1.8650294458e+01    0.2479123   0.07890972  33.41  0.001139694    2.155    0.536
       300  -9.8165    135.2975    237.3360   5.6849556084e+01   8.5071875234e+00    0.1207707   0.08229931   1.09 0.0005868321    1.652    0.395
       301 -11.7947    183.4979    234.8269   4.6822805127e+01   2.6617723420e+00    0.4499957    0.1986661  35.43  0.002199619    1.990    0.498
       302  -9.6152     52.8615     14.5040   2.6185578467e+01   7.0383182603e+01    0.2211158    0.1252645  46.69  0.001038274    1.615    0.381
       303 -10.5689    161.0164    234.9544   5.1232951189e+01   5.4942299637e+00    0.1975633    0.1217578   4.75  0.001034671    1.736    0.424
       304 -10.1241    156.3799    234.7944   5.2151000654e+01   6.1194467869e+00    0.1450335    0.1035931 -21.72 0.0002569091    1.551    0.355
       305 -10.1188     92.4387    235.4877   6.6052196001e+01   1.4399181285e+01    0.2259664    0.1044987  20.64 0.0007573764    2.327    0.570
       306  -9.9499     55.2565    232.4082   7.4268270272e+01   1.9457376796e+01    0.2130475     0.119172  61.02  0.001195022    1.759    0.431
       307 -10.7006     11.4884    231.5247   8.4040471175e+01   2.4072019367e+01    0.2758308    0.1313822  31.78  0.001458772    1.632    0.387
       308  -9.7876     70.7964     11.5816   1.6542583498e+01   6.6671052187e+01    0.2728292    0.1327974  68.04 0.0002323872    2.363    0.577
       309 -10.4232    218.8760    230.6776   3.9879634403e+01  -1.0173392387e+00    0.1816293    0.1040864  10.49  0.001161769    1.497    0.332
       310 -10.1995    188.7098    230.4447   4.5225840510e+01   2.5858051138e+00    0.2499447    0.1338107  -4.75 0.0009367001    2.411    0.585
       311 -11.7454    247.4542    228.0889   3.4901704137e+01  -3.7859646511e+00     0.322766    0.2162158   4.23  0.002496419    1.083    0.077
       312  -9.1647    223.3064    230.3386   3.9085693057e+01  -1.4728728656e+00    0.1151621   0.06472912  -0.75  0.000371813    1.678    0.404
       313 -10.6949    193.6661    227.6796   4.3904900244e+01   2.3297134143e+00    0.2973807    0.2157511  49.22  0.001457632    2.265    0.558
       314  -9.2792    100.3153    229.6617   6.3707211610e+01   1.4395205671e+01    0.1305403   0.07952269  52.29 0.0007047748    1.699    0.411
       315 -11.3638    177.4801    243.9183   4.9185735980e+01   2.2276218535e+00    0.3738834    0.1341824  27.22   0.00180998    2.299    0.565
       316 -11.5812     32.5257    242.0145   7.9828879101e+01   2.0121459849e+01    0.3947704    0.1931302  38.03  0.001751076    1.437    0.304
       317 -10.5113    229.3661    226.5190   3.7518275784e+01  -1.7070178893e+00    0.1701232   0.08706989 -29.23   0.00107064    1.836    0.455
       318 -12.6107    219.9319    245.5173   4.1818268932e+01  -2.7936509293e+00    0.4388104     0.292449   3.24  0.002856674    1.103    0.093
       319  -9.2565    207.2958    222.3543   4.0645413019e+01   1.3374913878e+00    0.1204669   0.07092832  -1.60 0.0005883736    1.691    0.409
       320 -10.8629      3.2872    226.2663   8.5706515745e+01   2.5789317475e+01    0.1776967     0.160644  57.05 0.0007621084    1.269    0.212
       321  -9.6631    224.9859    224.5085   3.7936276331e+01  -9.8966141491e-01    0.1615433   0.08690442  23.59   0.00101899    1.571    0.363
       322  -9.2942    197.4385    224.4873   4.2741571891e+01   2.2744922942e+00    0.1182648   0.08772622   7.13 0.0001468334    1.032    0.031
       323 -10.4755     78.7021    223.9295   6.8175776806e+01   1.8235460006e+01     0.241577    0.1606006  16.22  0.001351592    1.614    0.380
       324 -11.6345    237.3830    229.1574   3.6624313457e+01  -2.8613164269e+00    0.2748676    0.1372649 -12.20  0.001384508    1.971    0.493
       325  -9.4463    200.5500    223.5042   4.2027974758e+01   2.0162058287e+00    0.1189373   0.08667643   5.92 0.0001570402    1.065    0.061
