#   1 NUMBER                 Running object number                                     
#   2 MAG_AUTO               Kron-like elliptical aperture magnitude                    [mag]
#   3 X_IMAGE                Object position along x                                    [pixel]
#   4 Y_IMAGE                Object position along y                                    [pixel]
#   5 X_WORLD                Barycenter position along world x axis                     [deg]
#   6 Y_WORLD                Barycenter position along world y axis                     [deg]
#   7 A_WORLD                Profile RMS along major axis (world units)                 [deg]
#   8 B_WORLD                Profile RMS along minor axis (world units)                 [deg]
#   9 THETA_WORLD            Position angle (CCW/world-x)                               [deg]
#  10 FWHM_WORLD             FWHM assuming a gaussian core                              [deg]
#  11 ELONGATION             A_IMAGE/B_IMAGE                                           
#  12 ELLIPTICITY            1 - B_IMAGE/A_IMAGE                                       
         1  -8.7246    119.3799     33.2085   1.8226361086e+01   5.0694855045e+01    0.2008567    0.1309447 -43.54  0.000600178    1.653    0.395
         2 -10.0514     13.0873     21.0984   5.8651322022e+01   7.3292676890e+01    0.2737269    0.2127579  -3.90 0.0007485214    1.169    0.144
         3 -10.2558     30.0221     18.2739   4.5724784880e+01   7.1843565528e+01    0.2878898    0.2523528  22.98  0.001054402    1.228    0.186
         4  -9.5782     97.5839     12.2929   1.4907773297e+01   5.8667233830e+01    0.3196625    0.2086552  -0.35  0.001479401    1.947    0.486
         5 -10.4565     41.1037     13.7740   3.6662314861e+01   7.0803963084e+01    0.2626304    0.1883096  24.33  0.000203979    1.272    0.214
         6  -8.2183     97.9894      4.9859   1.1623558882e+01   5.9240950365e+01    0.1645114    0.1413909  58.68 0.0003412082    1.005    0.005
         7  -8.4786     65.1502      4.8277   2.0753412778e+01   6.7089384703e+01    0.1827061    0.1313692  29.25 0.0002329961    1.311    0.237
         8  -8.2448      2.5199      3.4215   5.7809219062e+01   7.7387076400e+01    0.1201641   0.09048006 -17.45 9.048804e-05    1.063    0.059
         9  -9.5810     67.5465      1.3771   1.8041536757e+01   6.6872906220e+01    0.2362733    0.1113792  58.48 0.0003625154    1.866    0.464
        10  -9.5084    250.4372    241.6863   4.1595510077e+01  -8.0221179053e+00    0.2191256      0.13059 -30.26 0.0006969637    1.733    0.423
        11  -8.7352    214.1978    250.3082   4.8926363838e+01  -4.9194862552e+00    0.1813815    0.1059525  14.13 0.0008636762    1.406    0.289
        12  -8.7620    205.3703    249.8381   5.0429150176e+01  -3.8038590218e+00    0.1868214    0.1026796 -44.04  0.001093735    2.574    0.612
        13 -10.5270    169.7834    225.0162   5.3625980106e+01   4.3299578757e+00    0.5595061     0.480294  25.92  0.003019419    1.176    0.150
        14 -11.4946    167.2949    241.9370   5.6542267448e+01   2.1886192922e+00    0.8565822    0.3405618  27.27  0.002961716    2.280    0.561
        15 -11.4981    166.7168    248.2023   5.7495846657e+01   1.3891265812e+00      0.78223     0.274267  31.44  0.003601614    2.296    0.564
        16 -11.0059    161.8214    231.4812   5.6195463748e+01   4.4985847576e+00     1.215707    0.3307323  40.28  0.004546928    3.334    0.700
        17 -11.2402    162.4008    225.6581   5.5237659725e+01   5.3119818427e+00    0.5374628    0.3137545  21.53   0.00263754    1.605    0.377
        18  -9.7428     36.9721    248.8564   8.4427020044e+01   1.8233982834e+01    0.2367953    0.1477665  69.78 0.0008598241    1.487    0.327
        19 -10.8880      7.9037    241.1305   8.9919906528e+01   2.2616054250e+01    0.3908186    0.2546889  66.73  0.001754675    1.233    0.189
        20 -11.3950     19.0715    247.7199   8.7953851531e+01   2.0319651813e+01    0.6655324    0.2613631  48.90  0.003752482    1.777    0.437
        21 -10.2078     13.2725    250.1949   8.9177798337e+01   2.0445210839e+01    0.2785434    0.1332777  36.73  0.001246156    1.606    0.377
        22  -9.8380      3.9569    249.1840   9.0932871569e+01   2.1509413521e+01    0.2873025    0.1302186  55.87 0.0008865089    1.588    0.370
        23  -9.6001      1.6755    245.0665   9.1252772368e+01   2.2464030086e+01    0.2039582    0.1475771  63.82 0.0009771227    1.098    0.089
        24  -9.5431    248.9368    237.5060   4.1197298347e+01  -7.4119859989e+00    0.2077707    0.1430968   8.65  0.001228246    1.107    0.097
        25  -8.6472    221.0910    240.0902   4.6222068381e+01  -4.5412855741e+00    0.1467852    0.1307439  25.86 0.0006890628    1.653    0.395
        26 -10.3353    107.7474    238.0618   6.8532274564e+01   1.1212414427e+01     0.733292    0.3417674  49.60  0.003506183    2.163    0.538
        27 -11.5354    106.8096    224.2083   6.7179028578e+01   1.3825943395e+01     1.162335    0.6530197 -17.13    0.0041314    4.930    0.797
        28 -10.7992     90.4361    231.3072   7.1642001929e+01   1.4834365627e+01    0.5650897    0.2730098 -59.71  0.002856627    2.470    0.595
        29 -10.9403     87.8665    227.8368   7.1869351952e+01   1.5837877860e+01    0.4976396    0.4413721  34.45  0.003330677    1.136    0.119
        30 -11.8882     98.6086    225.4143   6.9178059470e+01   1.4785282364e+01    0.8337817    0.4386311  41.34   0.00389215    1.544    0.352
        31 -10.3565     99.8920    217.1899   6.7942500467e+01   1.6167420412e+01    0.3737362     0.240328  57.84 0.0008617514    1.672    0.402
        32  -9.1278     16.2035    238.0356   8.8144575271e+01   2.2400653448e+01    0.3866036    0.1028639  48.93   0.00181975    2.486    0.598
        33 -10.7632     54.0605    248.9605   8.0936177236e+01   1.6268808767e+01    0.4024542    0.2935519   7.30  0.001760298    1.954    0.488
        34 -10.0533    231.1781    234.4069   4.3628803316e+01  -5.0652295216e+00    0.2576539    0.1967858  -6.90 0.0007340936    1.166    0.142
        35 -11.1282    239.0125    229.9611   4.1631063827e+01  -5.4566266753e+00    0.5191368    0.2620577  11.17  0.002724641    2.050    0.512
        36  -9.1957    242.8314    223.8245   4.0033146514e+01  -5.1795418721e+00    0.1745669    0.1279873  -1.00 0.0005278774    1.019    0.019
        37 -11.6369     95.8640    218.0020   6.8975134957e+01   1.6595907895e+01    0.6449808    0.3640836  39.39  0.001642574    1.448    0.309
        38  -9.9020    117.9378    227.6608   6.5094554388e+01   1.1570882857e+01     0.363579    0.2247038  48.25  0.001099619    1.553    0.356
        39  -9.8684    181.1823    226.1484   5.1509530771e+01   2.5209303483e+00    0.2349919    0.1967894  25.26 0.0009376999    1.201    0.167
        40  -8.7280    145.0433    227.4002   5.9141173742e+01   7.6005543181e+00    0.1969262    0.1636418  -6.54 0.0005194752    1.290    0.225
        41 -11.6964    126.5256    221.3340   6.2373718718e+01   1.1416813548e+01    0.6617963    0.4725143 -75.72  0.002938059    2.061    0.515
        42  -8.7937     66.7653    223.9914   7.6305131929e+01   1.9403445352e+01    0.1522448    0.1041347 -74.99 0.0008905487    1.664    0.399
        43  -9.1590    157.5768    221.4138   5.5622284118e+01   6.7035069544e+00    0.2473296    0.1817244  18.38 0.0009138041    1.206    0.170
        44 -10.6876    131.1089    214.6790   6.0434795946e+01   1.1912210904e+01    0.3748702    0.2935158 -73.05  0.001532078    1.745    0.427
        45  -9.2695    128.1907    211.8168   6.0694495229e+01   1.2890473029e+01    0.1995491    0.1598109  47.36 0.0003957565    1.237    0.191
        46  -9.9464    114.8558    220.7678   6.4933325775e+01   1.3273752063e+01    0.2514917    0.1805235  37.41  0.000723251    1.150    0.131
        47  -9.4781    219.0726    219.1103   4.3293915868e+01  -1.6757868870e+00    0.2989355    0.2031739  -1.44  0.001926391    1.289    0.224
        48  -8.6768    149.3573    219.8017   5.7139352596e+01   8.2118711753e+00    0.2188546    0.1804346 -37.88 0.0007660197    1.410    0.291
        49  -9.2475    151.5072    216.0326   5.6118936122e+01   8.5168222241e+00    0.3063274     0.165337  20.96  0.001368436    2.001    0.500
        50  -9.8706     75.1323    219.1671   7.3932713698e+01   1.9263163621e+01    0.3350823    0.2052684  57.40  0.001430425    1.577    0.366
        51  -9.8391    190.4084    215.9778   4.8104686302e+01   2.6910564110e+00    0.4478026    0.2958472 -23.27  0.001989272    1.545    0.353
        52  -9.2879    176.0288    216.5378   5.1053066564e+01   4.7133971958e+00     0.292828    0.1754427 -16.25   0.00149052    2.079    0.519
        53  -8.3633    143.5145    216.9930   5.8002178897e+01   9.5842543625e+00    0.1738579    0.1323095 -45.92 0.0008435636    1.554    0.356
        54 -10.1133     84.3771    215.0160   7.1339112902e+01   1.8826212067e+01     0.421295    0.2011865 -55.97  0.001998748    2.408    0.585
        55  -8.9456     25.0403    216.5334   8.5253155198e+01   2.5775263735e+01    0.2525379   0.07045826  38.35  0.001109572    2.471    0.595
        56 -10.2250    170.6660    215.2745   5.1951651715e+01   5.7148976069e+00    0.2715451    0.2162064  19.33 0.0006977696    1.038    0.037
        57  -9.8123    121.7811    222.6315   6.3605957323e+01   1.1898356923e+01    0.3336142     0.222265  42.64  0.001611283    1.314    0.239
        58  -7.8543     73.4669    224.4936   7.4819745659e+01   1.8429569991e+01    0.1283568    0.1049014  45.63  0.000252896    1.021    0.021
        59  -9.4817    113.7602    212.2800   6.4093145702e+01   1.5036820315e+01    0.5660075    0.3389682   3.61    0.0023486    2.999    0.667
        60 -10.5539     77.7515    211.3400   7.2525252238e+01   2.0498663021e+01    0.3871223    0.3202906 -50.54  0.002371852    1.467    0.318
        61  -9.2620    228.8715    212.6552   4.0528091859e+01  -2.0998742393e+00    0.3824243    0.1215287 -28.48  0.001545244    3.650    0.726
        62  -9.5207     63.3523    213.5135   7.6169824765e+01   2.1969387509e+01    0.2738546    0.2092543  52.17 0.0009686037    1.095    0.087
        63 -10.1275     18.1289    213.6350   8.6651487080e+01   2.7068910290e+01    0.2227772    0.1618596 -81.16  0.001459657    1.418    0.295
        64  -9.3120    202.5813    210.8127   4.4928307733e+01   1.7008446925e+00    0.3227164    0.1688667 -26.71  0.001677803    1.998    0.499
        65 -10.5046    211.9426    207.9022   4.2709191831e+01   7.9939363929e-01    0.5512888    0.3751327  -3.70  0.003363156    1.381    0.276
        66  -9.1907    212.0336    203.4661   4.1933870669e+01   1.4134842588e+00    0.3292414    0.1476679  29.49  0.001274064    2.133    0.531
        67  -9.3206    237.6485    210.2739   3.8657340018e+01  -2.9030329910e+00    0.1955108    0.1319461  36.17   0.00126637    1.720    0.419
        68  -7.9727    148.4358    210.7082   5.5984120035e+01   9.9098485608e+00    0.1381398   0.09389161  55.85 0.0002357879    1.907    0.476
        69 -11.4095     11.1267    205.1450   8.7830544179e+01   2.9525545418e+01    0.8962528      0.30144  88.79  0.003813611    3.144    0.682
        70 -11.4914     15.0300    195.7857   8.6452271746e+01   3.1210078229e+01    0.6747515    0.3243738 -44.99  0.001835796    3.315    0.698
        71  -9.7420     11.4287    187.4660   8.6882722299e+01   3.3403058865e+01    0.2594784    0.2053938  44.55 0.0006234437    1.191    0.160
        72 -10.7609     20.6547    181.7577   8.4214643458e+01   3.3877757760e+01     0.589317      0.31714 -83.23  0.003058712    1.765    0.433
        73 -11.9162     12.5055    180.0818   8.6201151914e+01   3.5006361992e+01    0.8104571    0.6658398 -59.91  0.003998223    1.410    0.291
        74 -11.1575      5.1332    176.6981   8.7898858190e+01   3.6404843176e+01    0.4719623    0.3694365 -81.14  0.001972041    1.237    0.192
        75 -11.3285      3.9034    169.3645   8.7836166310e+01   3.8220511654e+01    0.3584809    0.2544779 -80.91 0.0003799452    1.296    0.229
        76  -8.0780    224.4245    205.4696   4.0078304725e+01  -5.6845001861e-01    0.1204217   0.09449574  -0.95 8.031872e-05    1.016    0.015
        77  -9.3305    129.6655    201.0758   5.8778312101e+01   1.4684159063e+01    0.2833148     0.232103  67.79  0.001594781    1.504    0.335
        78 -10.3039    167.1645    198.9822   5.0025131166e+01   8.9504094185e+00    0.4589356    0.3191918  41.50  0.002510747    1.433    0.302
        79 -11.2635    176.1461    185.0505   4.5661134111e+01   9.8766589944e+00    0.6172866    0.5084606 -50.35  0.002055801    1.489    0.328
        80 -11.5929    178.1974    196.7829   4.7332366272e+01   7.5481578320e+00    0.8339375    0.5293128 -16.16  0.002947777    1.864    0.464
        81  -9.6038     60.5228    200.6002   7.5646188919e+01   2.5092554838e+01    0.4538607    0.1717404  37.90  0.001943509    2.128    0.530
        82  -8.4452    212.7615    198.9389   4.1013892109e+01   1.9591180397e+00    0.1701004    0.1352794 -12.44 0.0004064496    1.117    0.105
        83  -8.4492    100.9667    199.7603   6.5494516468e+01   1.9510463169e+01    0.1978942    0.1222076  23.81 0.0004095731    1.701    0.412
        84  -9.4362    105.3415    197.5913   6.4121344987e+01   1.9280682872e+01    0.2842453    0.2353983 -13.48   0.00106823    1.494    0.331
        85  -8.0154    144.3422    198.3182   5.4951784813e+01   1.2803219433e+01    0.1424083    0.1012511   1.34 0.0007049249    1.716    0.417
        86  -9.1288    113.0570    198.2039   6.2319188657e+01   1.7931917486e+01    0.4036432    0.1798357  55.49   0.00140593    3.444    0.710
        87  -8.8083    112.9986    194.2763   6.1759747777e+01   1.8747174190e+01    0.3076369    0.2204592  11.55 0.0003464002    1.678    0.404
        88  -9.6828    126.5314    196.7642   5.8858594599e+01   1.6036609700e+01     0.322298    0.2270055  18.06  0.001252394    1.516    0.340
        89  -9.3807    124.6920    193.6219   5.8811572069e+01   1.6965813224e+01    0.2754876    0.2003422  -4.02  0.001251666    1.816    0.449
        90  -9.2439      1.3276    197.3535   8.9748800289e+01   3.2057022977e+01    0.2861122   0.09314185  89.01  0.001218643    3.010    0.668
        91  -8.2092     38.1666    196.8464   8.0875188971e+01   2.8616674006e+01    0.1569188    0.1510562   7.55 0.0005028025    1.317    0.241
        92  -8.4039    131.6748    194.9631   5.7355139302e+01   1.5541724128e+01    0.1826561    0.1799352  26.67 0.0007823088    1.140    0.123
        93  -9.1582     66.7918    194.7816   7.3472774379e+01   2.5554109746e+01    0.3307639     0.153879  55.97  0.001224502    2.304    0.566
        94  -9.7019    103.8527    189.3394   6.3316118647e+01   2.1261512448e+01     0.292964     0.230991  21.18 0.0008329059    1.316    0.240
        95 -11.6836     98.0506    188.5595   6.4680550286e+01   2.2352547103e+01    0.6623216    0.3784943  55.25  0.001480082    1.928    0.481
        96 -10.8367     94.2011    181.9395   6.4724348325e+01   2.4425819776e+01    0.4381331    0.4014484 -61.89  0.001573874    1.200    0.167
        97  -9.3959     51.5149    197.8669   7.7636564318e+01   2.6828339640e+01    0.2984002    0.1232385  44.90  0.001301561    2.017    0.504
        98 -11.1981    172.8972    195.6394   4.8236783739e+01   8.5929818716e+00    0.6738237    0.2970007 -39.04  0.001908691    2.428    0.588
        99 -10.3027    183.2815    185.4541   4.4259128789e+01   8.6193274539e+00    0.2957041     0.220742 -59.93  0.001329478    1.979    0.495
       100  -8.8441    138.5249    189.4908   5.4843473757e+01   1.5461468857e+01    0.2626153    0.1414739 -49.58 0.0009368554    2.077    0.519
       101  -9.1223     39.8273    192.8049   8.0140075583e+01   2.9341211417e+01    0.1952151    0.1609051 -36.19  0.000781633    1.614    0.380
       102  -9.9396    203.9927    187.8380   4.0641320035e+01   4.9233681760e+00    0.2919164    0.2545806  60.20  0.001796607    1.728    0.421
       103  -8.7221    155.2039    187.4529   5.0649759893e+01   1.3001132499e+01    0.2493542    0.1713961 -25.78   0.00100937    1.660    0.398
       104  -8.7510    128.7258    188.3872   5.6999484770e+01   1.7345555983e+01    0.2203162    0.1590521  60.98   0.00100698    1.692    0.409
       105  -8.4168     56.0008    187.5110   7.5493068388e+01   2.8615879827e+01    0.2111971   0.07830413  49.19 0.0008103041    2.547    0.607
       106  -9.1900    250.4045    185.6952   3.2356008965e+01  -1.3495359880e+00     0.214803   0.09428181 -36.14  0.001123689    2.059    0.514
       107  -7.9523    165.2875    186.6521   4.8274082710e+01   1.1428115027e+01    0.1287231    0.1108861  74.95 0.0007023005    1.657    0.397
       108 -10.0420    109.6344    184.8673   6.1174971228e+01   2.1283035543e+01    0.4601766    0.3227116  31.39  0.002330736    1.326    0.246
       109  -9.0619    228.4693    183.8368   3.5544463002e+01   1.8793049111e+00     0.250762    0.1666703   0.67  0.001462477    1.517    0.341
       110  -9.5611    209.5769    184.2562   3.8945029198e+01   4.6160687096e+00    0.2477971    0.1478776   2.24  0.001195645    2.151    0.535
       111  -8.4041    217.6848    183.0195   3.7255919386e+01   3.5747094847e+00    0.1791282    0.1442614  -9.61 0.0006391426    1.055    0.053
       112  -8.0425     74.3356    183.6843   7.0217577091e+01   2.7023248417e+01    0.1515986   0.09407257  60.09 0.0004043351    1.694    0.410
       113  -9.8111     45.8653    182.1177   7.7630864775e+01   3.1114133927e+01    0.3685479    0.2304867 -69.58  0.001344411    1.622    0.383
       114  -9.3308     46.5401    176.5098   7.6897031556e+01   3.2363654375e+01    0.4942268    0.2062106 -82.96  0.001913758    2.913    0.657
       115 -10.3308     23.7655    173.8045   8.2832139354e+01   3.5458520752e+01    0.8125461    0.3224718  86.23  0.003223977    2.927    0.658
       116 -10.4964     29.0051    175.5550   8.1560886771e+01   3.4523179765e+01     0.741395    0.2257396 -61.95  0.002886048    3.087    0.676
       117  -9.9953     28.9415    169.9983   8.1119281625e+01   3.5865372599e+01    0.2873017     0.207909  54.05 0.0009691626    1.234    0.189
       118  -9.6033    181.8610    179.8249   4.3500681022e+01   9.8181173716e+00    0.2142429     0.174585   0.50 0.0009575124    1.171    0.146
       119  -8.4795    147.4895    179.9828   5.1080913308e+01   1.5768384088e+01    0.1848087    0.1306084 -80.02 0.0008096192    2.468    0.595
       120  -8.8237    139.0010    180.0243   5.3094978587e+01   1.7257579517e+01    0.3165882     0.177656  56.02   0.00127907    2.432    0.589
       121  -9.2622    111.2220    179.7447   5.9956742224e+01   2.2128188424e+01    0.4845702    0.1858906  30.34  0.001684146    2.786    0.641
       122  -9.8437    103.1580    179.0066   6.1930958777e+01   2.3635608803e+01    0.4275129     0.345472  66.07  0.002276973    1.336    0.252
       123  -9.6095    105.2839    174.7276   6.0687828936e+01   2.4238102954e+01      0.36997    0.2426151  82.55  0.001354581    2.338    0.572
       124  -9.3465    158.2583    177.3200   4.8118668631e+01   1.4374833807e+01    0.3846807    0.2167883 -34.03  0.001723491    1.992    0.498
       125  -8.5323    219.0685    178.0107   3.6075345089e+01   4.1157352886e+00    0.1674992    0.1559465 -58.66 0.0004689594    1.582    0.368
       126 -10.5916    152.0358    174.5060   4.9012193660e+01   1.6029485350e+01    0.5301951    0.4705428  21.63  0.002707315    1.029    0.029
       127  -9.6876    148.6886    174.6821   4.9824489617e+01   1.6597503051e+01     0.291159    0.2396691  -7.50 0.0006958423    1.321    0.243
       128  -9.1663     89.0948    177.1753   6.5384218385e+01   2.6312066604e+01    0.3489671     0.212345  62.93  0.001391772    1.982    0.496
       129  -9.7990     90.8063    172.2993   6.4188771250e+01   2.7169250950e+01    0.5751598    0.2786662  26.69  0.002154711    2.291    0.563
       130 -10.9548    207.4790    168.5223   3.6325861357e+01   7.4203539385e+00    0.5847856    0.2893725 -41.53  0.002743609    2.038    0.509
       131  -9.4348     77.4905    175.7447   6.8327291297e+01   2.8410960025e+01    0.3590963    0.1967711  56.28  0.001329553    1.985    0.496
       132  -8.5007    182.6880    175.3598   4.2479540179e+01   1.0451296116e+01    0.1290759    0.1124951  87.88 0.0007042255    1.745    0.427
       133  -8.2415    193.2463    172.5559   3.9816709406e+01   9.1299820463e+00    0.1807075    0.1186234  23.40 0.0005917407    1.550    0.355
       134  -7.9777    179.6625    169.7020   4.2002383745e+01   1.1977347322e+01    0.1907255    0.1369514 -21.57 0.0004714887    1.456    0.313
       135  -9.2456    176.9709    167.7256   4.2174573670e+01   1.2812621486e+01    0.2929621     0.208068 -43.18  0.000816802    1.489    0.328
       136  -8.4326    135.2063    171.3986   5.2450292040e+01   1.9703582723e+01     0.214107    0.1274152  45.86 0.0009453805    1.653    0.395
       137  -9.1589    121.6578    169.7675   5.5562475811e+01   2.2493303231e+01    0.3436975    0.2327874  67.44  0.001107791    2.048    0.512
       138  -8.5584     55.1509    169.3093   7.3717295931e+01   3.3039986930e+01    0.2787398    0.1550912  71.58  0.001065789    2.165    0.538
       139  -9.6665    200.1265    166.9081   3.7378173292e+01   8.9099318816e+00     0.302726    0.2086444  -9.74  0.001303214    1.594    0.373
       140  -9.1900    160.1708    165.7041   4.5442600243e+01   1.6258620469e+01     0.584255    0.2671783 -58.20  0.001926646    3.903    0.744
       141 -10.6397    149.9400    164.0175   4.7472860267e+01   1.8499956815e+01    0.5063562    0.4091041 -15.25  0.002239258    1.368    0.269
       142 -10.5132    204.4583    175.5626   3.8252041653e+01   6.7827770220e+00    0.4780568    0.2947321  22.46  0.002472086    1.698    0.411
       143 -11.2636    217.8574    165.4053   3.3859228660e+01   6.2319101404e+00    0.5500872    0.3862611  27.88  0.002901322    1.430    0.301
       144  -9.8380    220.2332    159.4020   3.2260756429e+01   6.7843734341e+00    0.2358871    0.2016196  75.41  0.001187499    1.853    0.460
       145  -8.0720    111.7000    167.3672   5.7736982160e+01   2.4790584227e+01    0.1541999    0.1127298  71.02  0.000328473    1.733    0.423
       146  -9.2053    139.4066    165.3237   5.0265361621e+01   2.0199855707e+01    0.3911157    0.2569711  74.50  0.001521716    2.851    0.649
       147  -9.6734     98.0943    165.3248   6.1066068257e+01   2.7600444658e+01    0.4289432    0.2676403  66.48  0.001259335    2.149    0.535
       148  -9.8725     99.8826    159.7139   5.9599191182e+01   2.8611336047e+01    0.3351828    0.3225846 -36.79  0.001021538    1.129    0.115
       149  -8.7359     80.6729    164.6228   6.5830861692e+01   3.0577745467e+01    0.3458996    0.1956989  72.25  0.001324019    2.670    0.625
       150  -9.2537     37.1579    164.0887   7.8265059507e+01   3.6450879658e+01    0.2808138    0.2066975  80.07   0.00155071    1.291    0.225
       151 -10.6059    248.6477    159.1238   2.7700103707e+01   2.4966094877e+00     0.866639    0.2679976 -27.88  0.003097573    3.981    0.749
       152  -8.7953    196.8718    181.8317   4.0884249983e+01   6.9983734232e+00    0.1666399    0.1575882  28.56 0.0006083878    1.295    0.228
       153  -9.1853     31.6902    160.3764   7.9474328992e+01   3.7945990756e+01    0.5955327    0.1561652  52.09  0.001787813    4.570    0.781
       154  -9.8836     14.9899    163.4711   8.4473677014e+01   3.8745178847e+01    0.3498843    0.2209842  18.25  0.001890719    1.830    0.454
       155  -9.5800     24.5218    160.4997   8.1550965325e+01   3.8619894117e+01    0.4558737    0.2327922  -1.17  0.001786447    3.623    0.724
       156  -9.7611     21.2150    160.7704   8.2518112546e+01   3.8859237575e+01    0.3802878     0.252468  -7.32  0.001939779    2.202    0.546
       157  -9.7494      9.2275    161.6323   8.5947390789e+01   3.9662337258e+01    0.3651443    0.1345487  89.99  0.001478308    2.739    0.635
       158  -8.2476    177.2760    160.6422   4.0679159772e+01   1.4050267666e+01    0.1340827    0.1149847 -80.12 0.0003168297    1.655    0.396
       159 -10.4073    142.6443    158.4565   4.8109140477e+01   2.1024713144e+01    0.7460997    0.2508952  44.48  0.002446609    2.953    0.661
       160  -8.6634    127.8958    157.6865   5.1665599659e+01   2.3994293085e+01    0.3677263    0.2058496 -66.27  0.001386312    2.667    0.625
       161  -8.6673     60.2300    158.4675   7.0868301774e+01   3.5044862500e+01    0.3763945    0.1811944  67.85  0.001314665    3.205    0.688
       162  -9.4504    225.0740    157.6725   3.1101941324e+01   6.2736117891e+00    0.1797341      0.15276   6.49 0.0006921191    1.119    0.106
       163  -9.2086    167.4479    157.7492   4.2197587116e+01   1.6429631355e+01    0.2958242      0.24494  85.44  0.001504733    1.750    0.429
       164  -9.3686    105.1563    157.6026   5.7749663626e+01   2.8185471270e+01     0.303763    0.2255538  77.67  0.001024517    1.716    0.417
       165  -8.8310     76.5003    158.1499   6.6031324186e+01   3.2790659637e+01    0.3253737    0.1633285  48.55  0.001320068    1.998    0.500
       166  -9.6414    208.1282    156.4939   3.3796886733e+01   9.2663573875e+00    0.2974597    0.2497187  22.03  0.001264443    1.178    0.151
       167 -11.7121    205.9217    150.2817   3.2911809873e+01   1.0678750312e+01    0.6674305    0.5663291 -59.75  0.003582466    1.521    0.343
       168  -9.5067    206.9541    142.0513   3.0985238862e+01   1.1871405100e+01    0.3614434    0.2330572 -11.90  0.001723517    1.931    0.482
       169  -8.2389    188.3848    157.1787   3.7687183020e+01   1.2640657844e+01    0.1961797    0.1269752 -47.87 0.0007351339    1.720    0.419
       170  -9.4771    157.9575    156.0643   4.3982053764e+01   1.8571584777e+01    0.2272787    0.1854678  83.30  0.001105965    1.737    0.424
       171  -8.8864    119.6911    154.7781   5.3247203376e+01   2.6184732592e+01    0.3841223    0.2398982 -78.61  0.001135212    2.711    0.631
       172  -8.9710    120.5919    149.7808   5.1999221725e+01   2.7146600985e+01    0.4146948     0.269283   6.80  0.001592374    2.538    0.606
       173  -9.4784     49.7393    155.1309   7.3556925244e+01   3.7230772953e+01    0.4232619    0.2144429  60.78  0.001734148    2.297    0.565
       174 -10.1381    134.2932    153.5586   4.9189814848e+01   2.3673571183e+01    0.5746219    0.3712478  69.21  0.001774469    2.517    0.603
       175  -9.9898     68.7322    154.1410   6.7710219651e+01   3.4936532929e+01    0.4145443     0.277712  64.65  0.001657682    1.644    0.392
       176  -9.8121     68.3683    146.6502   6.6640137675e+01   3.6869986317e+01    0.5010725    0.1302398 -60.21  0.001539986    3.574    0.720
       177 -11.3656     70.5032    142.0169   6.5199673763e+01   3.7725762189e+01    0.7179406    0.4239964  82.37  0.002799126    2.503    0.601
       178  -8.9161    233.8768    153.8803   2.8925639097e+01   5.4590858313e+00    0.2390004    0.1567475 -35.75  0.001372973    1.379    0.275
       179  -9.9992     81.7542    154.3410   6.3872289189e+01   3.2910240426e+01    0.4450482    0.2812946  85.53  0.001379757    2.199    0.545
       180  -8.9132     99.3119    152.4182   5.8431741805e+01   3.0439723948e+01    0.4049333    0.2399945 -83.50  0.001485514    2.841    0.648
       181 -10.4002    223.4405    148.4432   2.9506831597e+01   7.9702002779e+00    0.4341289    0.3671608  -5.39   0.00180655    1.093    0.085
       182  -8.7395     23.4779    151.9661   8.1098293609e+01   4.0841429900e+01    0.1988405   0.09254752  72.61 0.0006157513    2.467    0.595
       183  -9.4879    190.3947    150.7132   3.5932638919e+01   1.3417121176e+01    0.2829721    0.2284403  60.41  0.001368283    1.578    0.366
       184  -8.8552     89.2395    150.9938   6.1088897288e+01   3.2510147948e+01    0.3266155    0.2079872  39.52  0.001476566    1.479    0.324
       185  -9.3306     28.6320    149.4761   7.9303298124e+01   4.0983035849e+01    0.5163963     0.204888  67.15  0.001774479    3.580    0.721
       186  -9.9710     39.6571    146.8145   7.5608029721e+01   4.0516386774e+01    0.6680875    0.3074974  69.64  0.002440299    3.063    0.674
       187  -8.8173    142.8348    147.4275   4.5752546144e+01   2.3313053145e+01    0.3133987    0.1990982 -28.90  0.001329173    1.924    0.480
       188  -9.6540    157.8961    145.7517   4.1787670143e+01   2.0650108587e+01    0.5695901    0.3304841   0.64  0.001641389    4.911    0.796
       189 -10.2330    148.7792    144.6689   4.3699672392e+01   2.2702815085e+01    0.5526939    0.3639002 -76.78  0.002097222    2.820    0.645
       190  -8.5813    148.3629    137.3248   4.2152126442e+01   2.4322392748e+01    0.3251865    0.2016778  -5.19  0.001097802    3.340    0.701
       191  -9.4099    133.9958    147.0076   4.7889490773e+01   2.5157819572e+01    0.2486235    0.1899071  -4.51  0.001138237    1.694    0.410
       192  -9.7083    107.0884    144.9163   5.4746498784e+01   3.0819460378e+01     0.568764    0.3578528  79.82  0.002072021    2.861    0.650
       193 -10.1122    114.9517    143.7595   5.2292801925e+01   2.9607356967e+01     1.112165     0.375786  53.38  0.002383163    7.024    0.858
       194  -9.0888    106.7545    138.3851   5.3481715993e+01   3.2431042664e+01     0.290741    0.2697812   0.95 0.0008062897    1.175    0.149
       195  -8.8840     92.8045    160.2993   6.1690285704e+01   2.9670834290e+01      0.27677    0.1919985  82.39  0.001149208    1.891    0.471
       196 -10.1841     56.4544    145.2674   7.0137619315e+01   3.8877862966e+01    0.6650215    0.3044303  51.88  0.001845323    2.416    0.586
       197 -10.2611    244.2876    144.6112   2.5507496269e+01   5.2157825625e+00    0.3373694    0.1285114 -36.55  0.001526112    2.224    0.550
       198  -9.0180    195.3792    145.5272   3.3860414811e+01   1.3404221527e+01    0.3318781    0.1228088 -43.29  0.001194187    2.710    0.631
       199  -8.6587     13.0915    146.0355   8.3707195799e+01   4.3209745737e+01    0.2225882    0.1268097  60.47  0.000598818    1.694    0.410
       200  -8.6688    190.4370    145.2388   3.4750850712e+01   1.4382341958e+01     0.190476    0.1301855 -46.24 0.0005773195    1.541    0.351
       201  -8.2601    165.3761    144.1201   3.9733561942e+01   1.9478801299e+01    0.2064827    0.1372277 -53.14 0.0006068248    1.724    0.420
       202  -9.7444    125.1966    142.7742   4.9285239565e+01   2.7837959246e+01    0.4980327     0.323515  89.63  0.001787946    3.031    0.670
       203  -9.1074     88.1889    143.8398   6.0081691758e+01   3.4441232483e+01    0.3200369    0.2113237  66.88  0.001363192    1.909    0.476
       204  -9.0891      3.0205    142.2374   8.6466112772e+01   4.4879611507e+01    0.2235897    0.1058353  52.90  0.001063511    2.017    0.504
       205 -10.1447    192.5018    133.9936   3.1873617860e+01   1.5988616425e+01    0.2209472    0.2051782  88.64 0.0006340659    1.318    0.242
       206 -11.0497    197.2942    136.3366   3.1495792538e+01   1.4648915365e+01    0.5362266    0.3911197  -4.83  0.002042144    1.636    0.389
       207 -10.1183     83.6378    131.8128   5.9125450354e+01   3.8201002236e+01    0.4672659    0.3271801  71.47  0.001527876    1.797    0.444
       208  -9.2229     81.6609    139.3031   6.1220258213e+01   3.6656576190e+01    0.2485431     0.156201 -65.39 0.0006286133    1.684    0.406
       209  -9.2784     81.9918    136.2559   6.0531194285e+01   3.7364720025e+01    0.2212743    0.1970273  40.82 0.0006622675    1.099    0.090
       210 -10.3627     41.0865    135.5618   7.3688719070e+01   4.3250672717e+01    0.4521943    0.4018929  26.77  0.001839276    1.215    0.177
       211  -9.8402     45.8576    134.8804   7.2015506868e+01   4.2877326732e+01    0.3693741    0.2367009 -88.17  0.001187991    1.690    0.408
       212 -10.5446     42.5362    129.6103   7.2347262599e+01   4.4630176692e+01    0.4493408    0.3161882  44.65  0.001360893    1.415    0.293
       213  -9.5347     23.2038    137.8190   7.9794118802e+01   4.4455256597e+01    0.5484129    0.2392415  71.85  0.002066304    2.992    0.666
       214  -9.4814     22.4936    130.9962   7.9287571140e+01   4.6270159693e+01    0.5305847    0.2641124 -25.79  0.002053944    3.350    0.701
       215  -9.6381    246.1762    138.2174   2.3960240530e+01   5.8541334649e+00     0.165245    0.1344376 -46.54 0.0006419328    1.369    0.269
       216 -10.1332    234.2844    136.9032   2.5426015981e+01   7.9533863181e+00    0.3253937    0.2371379 -19.10   0.00129525    1.284    0.221
       217  -8.8170    161.4607    136.6508   3.8930327536e+01   2.1753247626e+01    0.2872123    0.2369145  30.52  0.001470135    1.216    0.177
       218 -10.2724    202.6469    136.1458   3.0475683435e+01   1.3667012711e+01     0.346686    0.2292083  48.49  0.001590022    1.660    0.397
       219  -7.8844     96.0000    134.9567   5.5942487223e+01   3.5251806592e+01     0.248559   0.08855249 -55.12 0.0007946044    2.888    0.654
       220 -10.8968    243.7682    131.0175   2.2842080317e+01   7.2882864160e+00    0.5048973    0.1479502 -39.97  0.001974858    2.933    0.659
       221 -10.3648    246.3260    129.4800   2.2174706705e+01   7.1037965363e+00    0.3515132    0.1743496 -46.56  0.001717974    2.120    0.528
       222  -8.8847    179.4592    133.1651   3.4255706266e+01   1.8739774379e+01    0.3493419    0.1269039 -48.44   0.00113776    3.279    0.695
       223  -8.9539     98.5544    119.9592   5.1793837882e+01   3.8418442947e+01    0.4214515    0.2796262   7.08  0.001608936    2.450    0.592
       224 -11.1506    107.8811    113.8538   4.7424273761e+01   3.8012730368e+01     1.175696    0.7357562 -48.00  0.004991793    1.630    0.387
       225  -9.5110    110.4205    125.5678   4.9537062822e+01   3.4752082984e+01    0.4244367    0.2764979  23.16 0.0008785084    1.904    0.475
       226 -10.3432    109.6940    130.6015   5.0914000473e+01   3.3709804913e+01    0.6721733    0.3906309  34.65   0.00261277    1.749    0.428
       227  -9.7556    105.0674    123.6702   5.0679205010e+01   3.6262255583e+01    0.3098902    0.2617382   0.76 0.0008156996    1.417    0.294
       228  -9.8910    108.9040    120.8506   4.8856503273e+01   3.6165520841e+01    0.3774875     0.293402 -34.23 0.0008812639    1.422    0.297
       229 -10.8330    116.6848    124.9999   4.7591421309e+01   3.3616444203e+01    0.9968041    0.6830837 -33.76  0.004038766    1.685    0.407
       230 -10.1368    117.8122    118.9939   4.5802985283e+01   3.4763429918e+01    0.5914882    0.2860779 -42.93  0.002179126    2.186    0.542
       231 -10.3775    132.2416    131.0363   4.4762822477e+01   2.9030076177e+01    0.5005182    0.2836859 -60.66  0.001321974    2.304    0.566
       232  -9.0618    208.9628    132.0236   2.8460243623e+01   1.3181670398e+01    0.3286971    0.1907161  61.11  0.001459585    2.500    0.600
       233  -9.0803    160.5709    130.7035   3.7750672757e+01   2.3128910933e+01    0.3411941    0.2174053  -9.81  0.001292789    2.644    0.622
       234  -8.5091    143.0078    131.2731   4.2062133150e+01   2.6719786900e+01    0.2199994    0.1734245 -74.87 0.0007060364    1.632    0.387
       235  -9.7326     12.8732    129.1284   8.2291351452e+01   4.7512253342e+01    0.5181831     0.220349  71.04  0.002019769    2.889    0.654
       236  -9.0877    152.8510    128.4361   3.8999482369e+01   2.5226091952e+01    0.4724006    0.2124501 -55.58  0.001541721    3.168    0.684
       237 -10.1536     99.4977    128.2094   5.3411660149e+01   3.6244988648e+01    0.5890977    0.3867472  79.25  0.001788457    2.449    0.592
       238  -9.5020     73.2816    129.1133   6.1929447360e+01   4.0576505447e+01    0.4346471    0.2569108  81.88  0.001585561    2.797    0.643
       239  -8.3359    168.6513    129.3578   3.5644391663e+01   2.1695879097e+01     0.154457    0.1203203 -83.55 0.0007030648    1.846    0.458
       240  -9.5861    233.1823    128.3810   2.3816083752e+01   9.4378786724e+00    0.1648925    0.1255203  62.68 0.0009542299    1.750    0.429
       241 -10.4243     60.0884    124.5635   6.5489350696e+01   4.3709226785e+01    0.7170855    0.3710843  69.65  0.002380957    3.476    0.712
       242 -10.3338     44.5744    123.1196   7.0628066854e+01   4.6082535835e+01    0.8385216    0.3973926  66.48  0.002672755    3.500    0.714
       243  -7.9804    208.5220    125.4866   2.7088513289e+01   1.4358524188e+01    0.1372603    0.1246306 -26.64 0.0003600709    1.019    0.019
       244 -10.3140    181.0545    121.1147   3.1117682332e+01   2.0651192530e+01    0.6582767    0.3693424 -25.32   0.00267422    2.206    0.547
       245 -10.7868    184.9940    114.1368   2.8676192318e+01   2.1092263612e+01    0.4614197    0.3779059  78.68   0.00193656    1.512    0.338
       246  -8.9959     29.2919    115.8772   7.4978748296e+01   4.9580463360e+01    0.3769669    0.1506615 -40.57  0.001335237    3.270    0.694
       247 -10.3624     28.7591    122.8731   7.6149075780e+01   4.7811808411e+01    0.5960578    0.3319395  62.05  0.002266848    2.053    0.513
       248  -9.1092    225.1796    124.3883   2.4166709053e+01   1.1456070561e+01    0.1703879      0.12849  64.79 0.0009485458    1.746    0.427
       249  -8.7832     84.0297    122.4523   5.7009475305e+01   4.0472202259e+01     0.321127    0.1780192 -26.14   0.00103531    3.453    0.710
       250  -9.4078    188.7109    121.4254   2.9707315360e+01   1.8999259886e+01    0.2490095    0.1792724 -11.55   0.00118547    1.709    0.415
       251 -10.5184     30.6702    102.0902   7.2251601499e+01   5.3023739144e+01    0.9237126    0.2665452  45.44  0.002817463    4.439    0.775
       252 -10.7812     23.4575    102.2153   7.5123016118e+01   5.3635398032e+01    0.9088199    0.3801812  63.52  0.002939956    4.269    0.766
       253 -10.0325     21.6614     92.1424   7.4192997828e+01   5.6362874565e+01    0.5956221    0.2325489 -36.39  0.002141554    3.319    0.699
       254 -10.3982     22.6265    110.8657   7.6724952566e+01   5.1468689896e+01    0.6309222    0.2591792 -76.93  0.002501206    2.416    0.586
       255 -10.8771     15.0635    113.6180   7.9874762505e+01   5.1340612693e+01     0.842889    0.3348339 -70.19  0.003555695    2.148    0.534
       256 -10.9464     16.2255    105.3043   7.8390423420e+01   5.3399380505e+01    0.7086659    0.4209478 -21.19  0.003392293    2.150    0.535
       257  -9.2332    172.8923    119.3277   3.2345084422e+01   2.2723836166e+01    0.4691152    0.1893432 -33.23  0.001585342    2.897    0.655
       258  -8.7320    158.3860    120.4392   3.5773700613e+01   2.5656263925e+01    0.3993913    0.2207877 -58.49  0.001483761    2.507    0.601
       259  -9.8105    141.5083    118.5972   3.9348423606e+01   2.9741041161e+01    0.4963461    0.2777369 -60.12  0.001825694    2.458    0.593
       260  -8.6988    141.2107    112.5320   3.7872809643e+01   3.1087381172e+01     0.365382    0.2351161  -6.40  0.001272163    3.020    0.669
       261  -9.9765    131.0622    118.3671   4.1990670896e+01   3.2073604096e+01    0.5400065    0.3455719 -76.55  0.001744481    2.783    0.641
       262  -9.5259     71.1859    119.5905   6.0688281390e+01   4.3328639646e+01    0.3859307    0.2539692  82.25  0.001488271    2.143    0.533
       263 -10.0461      2.2742    115.0606   8.4608544987e+01   5.1774532693e+01    0.7493638    0.2485341 -86.07  0.002790153    3.044    0.671
       264 -10.0939    248.6277    116.7790   1.9268053536e+01   8.5799590827e+00    0.2874154    0.1821728 -13.85  0.001544263    1.877    0.467
       265  -9.7994     93.0130    112.6537   5.1779470079e+01   4.1243751359e+01    0.4643581    0.3247486  76.00  0.001275368    2.034    0.508
       266  -9.9255     79.5077    112.9110   5.6344015928e+01   4.3634539919e+01    0.5276915    0.3584939  82.88  0.001835769    2.154    0.536
       267  -8.8767     78.1901    106.0386   5.5138771182e+01   4.5565760779e+01    0.3387137    0.2278039 -14.75  0.001354905    2.294    0.564
       268  -9.3169    121.9063    112.1851   4.2907093455e+01   3.5429871552e+01    0.3965183    0.2927901  84.24  0.001007209    1.930    0.482
       269  -9.3540    121.5751    108.2207   4.1954105874e+01   3.6383989534e+01     0.373525    0.2822337   7.53  0.001299266    1.811    0.448
       270  -8.6388    159.3811    112.1220   3.3463733268e+01   2.7090613417e+01    0.2244031    0.1387994 -51.94 0.0009410056    1.765    0.433
       271 -10.3066     66.2171    108.9300   6.0099553910e+01   4.6809696025e+01    0.7271953    0.3914138 -71.09  0.002810106    2.293    0.564
       272  -9.4203     59.4687    109.5132   6.2689194115e+01   4.7665727978e+01    0.2311549    0.1801789  73.47 0.0007837014    1.476    0.323
       273  -9.8141     61.5090    105.9124   6.1139617808e+01   4.8285133961e+01    0.3211365    0.2610956  25.13 0.0009850637    1.293    0.227
       274  -9.8123    133.8151    108.3243   3.8659497801e+01   3.3638980911e+01    0.6110321    0.2774757 -45.58  0.002204144    2.247    0.555
       275 -10.2271    249.5814    103.7477   1.6449191960e+01   1.0300666466e+01     0.346849     0.137269 -32.73  0.001561973    2.192    0.544
       276  -9.6640    197.5038    106.3949   2.4549348761e+01   1.9804278199e+01    0.3219008     0.127826  47.07  0.001221428    2.689    0.628
       277 -10.5711     45.9974    102.4332   6.6288700550e+01   5.1268560312e+01    0.8658739    0.4060111  61.78  0.002734327    4.078    0.755
       278  -9.3845    139.9791    103.4220   3.5763397089e+01   3.3264569289e+01    0.7151555    0.2712611 -45.30  0.002364387    2.695    0.629
       279  -9.1510    150.4236    103.5863   3.3281950093e+01   3.0822867739e+01    0.3720503     0.208359 -54.41  0.001295543    2.110    0.526
       280  -8.7830     93.0281    104.0307   4.9560864178e+01   4.3307925292e+01      0.25881    0.1969859  -9.72  0.001137851    1.767    0.434
       281  -9.4846      6.8870    103.1090   8.1706054233e+01   5.4563089525e+01     0.206138    0.1618397  67.12 0.0006270459    1.306    0.234
       282 -10.6083    129.6087    101.0879   3.7805431136e+01   3.6131066945e+01    0.6380696    0.4236797  26.41  0.002603319    1.927    0.481
       283  -8.8524     82.2036     99.6673   5.2086882432e+01   4.6401820959e+01    0.3349463    0.2434058  85.11  0.001438478    1.948    0.487
       284 -10.4231    109.0602     98.4366   4.2928328328e+01   4.1292492277e+01    0.6539103    0.4535354  62.58  0.002265777    1.719    0.418
       285  -9.0115     95.1520     96.7015   4.6852081150e+01   4.4602567986e+01    0.3218316     0.245182 -86.18  0.000914863    1.766    0.434
       286  -8.6218    119.2900     94.3773   3.8751148123e+01   3.9910360386e+01    0.2480283    0.1919755   8.16 0.0009067582    1.721    0.419
       287 -10.3562     64.1261     96.0991   5.7793545919e+01   5.0346104415e+01    0.5519202    0.3444447  74.79  0.001825292    2.727    0.633
       288  -9.9082     44.3180     91.9849   6.4683681663e+01   5.4127725634e+01     0.475249     0.306972  -6.54  0.001915134    2.106    0.525
       289  -8.7295    138.9044     91.8170   3.2794400345e+01   3.5868483316e+01    0.3039937    0.2029369 -68.08  0.001109017    2.075    0.518
       290 -10.0774    124.6618     90.7315   3.6186955392e+01   3.9441671802e+01     0.466101    0.3140295 -77.39  0.001339296    2.369    0.578
       291 -10.1073      4.6575     90.5135   8.1073951001e+01   5.7878695381e+01     0.516373    0.2321433  87.49  0.002163941    2.558    0.609
       292  -9.8984      7.8083     84.1961   7.8854095418e+01   5.9301609684e+01    0.5686324    0.2758167  -7.55  0.002528158    2.673    0.626
       293  -9.0079      8.4799     80.5432   7.7991513132e+01   6.0177493733e+01     0.248957    0.1804823 -29.09  0.000881142    1.435    0.303
       294  -9.9387     34.8688     88.8818   6.7956928632e+01   5.5976827478e+01     0.650405    0.3069944 -79.50  0.002400196    2.938    0.660
       295  -9.5177     36.0404     81.4833   6.5763211044e+01   5.7698542166e+01    0.4850231    0.2539918 -10.29  0.001792354    3.251    0.692
       296  -9.6036     87.1147     86.9682   4.6758362192e+01   4.8442025113e+01    0.4791271    0.3115296  68.85  0.001682816    2.370    0.578
       297  -9.0715     64.9121     86.6671   5.4966143218e+01   5.2517900778e+01     0.319509    0.1919488  18.84  0.001187458    2.087    0.521
       298 -10.1058     48.8007     84.1865   6.0896599412e+01   5.5494849407e+01    0.5417619    0.3061034  63.50  0.002028829    3.021    0.669
       299  -9.0508    108.4541     91.6157   4.1142623530e+01   4.2931370124e+01    0.4349005    0.2445971  28.35    0.0015749    2.414    0.586
       300  -9.3919    117.4051     82.5019   3.5731964471e+01   4.2822119826e+01    0.4837526     0.327988  -3.81 0.0005311577    2.537    0.606
       301  -9.3885    104.9166     83.1725   3.9675478565e+01   4.5529898653e+01    0.4269907    0.2947781 -83.34  0.001666799    2.393    0.582
       302  -9.2840    140.8942     81.6118   2.9332183327e+01   3.7366179334e+01    0.5169348    0.1442414 -44.29  0.001465325    3.721    0.731
       303  -9.4616     86.9762     80.4767   4.4807720542e+01   4.9922376607e+01    0.4831794    0.2525533  22.06  0.001536749    3.440    0.709
       304  -8.7863     74.8739     80.6883   4.9328367641e+01   5.2201274010e+01    0.2810771    0.2026513 -84.87  0.001094298    2.082    0.520
       305  -9.4748     49.6218     76.7209   5.8503230699e+01   5.7185623277e+01    0.3100538    0.2345842  12.71 0.0008473968    1.445    0.308
       306  -8.8340    128.1736     75.1945   3.0520299959e+01   4.1681934421e+01    0.3884865     0.225756 -65.44  0.001366415    2.802    0.643
       307  -8.7299    105.7285     76.3713   3.7257370026e+01   4.6760410235e+01    0.4152761    0.1290261  39.27  0.001107208    4.095    0.756
       308 -11.3170    186.9545     79.6576   1.9637013802e+01   2.6628230974e+01    0.7981465    0.4989612  34.72  0.003104299    2.142    0.533
       309  -9.9840     10.5665     74.3280   7.5968732131e+01   6.1597965529e+01    0.3637126    0.2163561  10.38  0.001397238    1.887    0.470
       310 -10.2669      5.7363     71.4261   7.7756108907e+01   6.2573121794e+01    0.4896196    0.1646191 -71.01  0.001962105    2.582    0.613
       311  -9.4895     82.5258     72.4121   4.3789331972e+01   5.2564738534e+01    0.4137419    0.3013241 -76.47  0.001303827    1.997    0.499
       312 -10.0565     28.6569     70.1898   6.6383917196e+01   6.1207405642e+01    0.8365601    0.3433625 -26.62  0.002580097    4.654    0.785
       313  -9.1502     95.2625     70.9224   3.8814425771e+01   5.0203391455e+01    0.3801831    0.2373541 -62.66  0.001512269    2.234    0.552
       314  -8.9302    105.8218     71.2468   3.5538135974e+01   4.7764667046e+01    0.2565661    0.1715806 -85.61 0.0009431124    2.730    0.634
       315  -9.8068     51.4503     69.4228   5.5503767488e+01   5.8631318691e+01    0.4617728    0.2629725 -73.16  0.001722741    2.821    0.645
       316  -9.2755     16.6937     69.7145   7.2097507304e+01   6.2327072065e+01    0.3763676    0.1857589 -80.64  0.001599253    2.468    0.595
       317  -9.7402     18.1575     61.9378   6.9545324240e+01   6.4083303135e+01    0.3644462    0.2145771 -46.20   0.00123016    1.492    0.330
       318  -8.7854    129.1950     68.9901   2.8287492399e+01   4.2576543494e+01    0.2478884    0.1834626   3.90 0.0008248916    1.945    0.486
       319  -9.0326      1.6200     68.9917   7.9338396271e+01   6.3355728417e+01    0.1915691    0.1430703 -64.84  0.001148785    1.145    0.127
       320  -9.9706     24.5750     80.4047   7.0673038505e+01   5.9078859072e+01     0.448858    0.2651444  79.55  0.001348343    2.428    0.588
       321  -8.2410    121.7020     66.3336   2.9352794963e+01   4.4904818356e+01    0.1578297    0.1211514 -77.24 0.0006029072    1.648    0.393
       322  -9.2505     83.7868     64.4414   4.0567948838e+01   5.3960394336e+01    0.4646072    0.2860949  -0.82  0.001566435    3.495    0.714
       323  -9.6275      9.4733     64.8184   7.4663812161e+01   6.3976046313e+01    0.3325369     0.107115 -66.48  0.001313415    2.597    0.615
       324 -10.0884     37.7399     63.5501   6.0095987685e+01   6.1792477458e+01    0.4215228    0.2585894 -79.81  0.001630242    2.508    0.601
       325  -9.5383     39.0707     57.7895   5.7591502575e+01   6.2932416704e+01    0.2865532    0.2129784  -5.45  0.001515578    1.468    0.319
       326  -8.2676    147.3155     64.3133   2.2647101274e+01   3.8841596216e+01    0.1533811    0.1183468  24.33 0.0004340281    1.641    0.391
       327  -8.9772     95.6939     63.6372   3.6140197388e+01   5.1547963471e+01    0.2504238    0.1844486  12.19  0.001114262    1.786    0.440
       328  -8.8162    109.9363     63.1761   3.1553146245e+01   4.8332157790e+01     0.240063    0.2106379 -86.14 0.0008368979    1.299    0.230
       329  -9.3116     51.8698     61.2220   5.2607387215e+01   6.0404831998e+01    0.2860754    0.1715382 -26.98  0.001240317    2.044    0.511
       330  -8.6141    100.6603     60.3270   3.3354985642e+01   5.1039227996e+01    0.1563317    0.1219924 -85.84 0.0003211181    1.732    0.423
       331  -9.4081     73.3942     59.2861   4.2649529823e+01   5.7082416182e+01    0.3989508    0.2597857 -61.45  0.001259114    2.062    0.515
       332  -9.0785     72.4105     53.7828   4.0951196526e+01   5.8355289894e+01    0.3245085    0.1897497 -25.23  0.001337104    2.204    0.546
       333  -9.1266     75.6567     49.6792   3.8047622610e+01   5.8474270643e+01    0.3849361    0.1966641  35.55  0.001560151    2.062    0.515
       334  -9.0825    165.4865     59.1674   1.7630449027e+01   3.5082618025e+01    0.3110147    0.1754671  46.07  0.001320618    1.952    0.488
       335  -9.0430     24.5085     58.9811   6.5442146851e+01   6.4242010501e+01    0.2571161    0.1552229 -52.33 0.0006738378    1.464    0.317
       336  -9.7729     25.6897     55.0487   6.3653120678e+01   6.5031770351e+01    0.3708019     0.176193 -18.29  0.001377247    3.369    0.703
       337  -8.5605    111.1961     58.3263   2.9492242351e+01   4.8897516506e+01    0.2086372    0.1903946  17.81  0.000629953    1.173    0.147
       338  -9.9978      8.1456     50.1946   7.2032557157e+01   6.7488831638e+01    0.5054818   0.05712634 -48.55  0.001571343    4.381    0.772
       339 -10.0283      7.0433     56.8374   7.4229388199e+01   6.6007961907e+01    0.3543194    0.2266479  86.45  0.001426501    1.962    0.490
       340 -10.0072      2.2997     56.3404   7.6692174966e+01   6.6354814777e+01    0.3500584    0.2770759  84.37   0.00215901    1.439    0.305
       341  -8.1769    119.6383     56.2948   2.6486596203e+01   4.7168118183e+01    0.1578732    0.1188337 -83.36 0.0007029703    1.707    0.414
       342  -9.3077    100.0767     55.1669   3.1655843926e+01   5.2105404139e+01      0.30754    0.1963085  -6.70  0.001180353    2.615    0.618
       343  -8.8781     44.2397     55.2749   5.4152900774e+01   6.2800525032e+01    0.3257785    0.2186994 -70.52  0.001159694    2.062    0.515
       344 -11.3562     45.5647     49.0174   5.1165117921e+01   6.3928422685e+01    0.3159018    0.2557592 -30.96 0.0005369277    1.172    0.147
       345  -9.2246     62.8823     54.5985   4.5245434359e+01   5.9980248639e+01     0.271755    0.1922534 -63.33 0.0007128051    1.866    0.464
       346  -9.0664     54.2099     53.8888   4.8868219788e+01   6.1597058682e+01    0.3663405    0.2116794 -69.76   0.00134043    3.437    0.709
       347  -8.8103     53.8239     47.1101   4.6387209288e+01   6.3021509957e+01    0.4740093    0.2205964 -26.25  0.001573009    3.767    0.735
       348  -9.1009     20.0306     52.5170   6.5971597410e+01   6.6116528222e+01    0.3144889    0.1781484  84.54  0.001213299    3.711    0.731
       349  -9.1244     22.1989     46.9630   6.3002264380e+01   6.7163738664e+01    0.3469928    0.1957696  -9.65  0.001625023    2.187    0.543
       350  -9.2196     92.5339     50.5832   3.2343783519e+01   5.4650611600e+01    0.3306952    0.2185734 -53.82  0.001430564    1.839    0.456
       351  -8.8864     81.9626     46.3656   3.4336462102e+01   5.7733468759e+01    0.3111256    0.2053255 -53.02  0.001222203    1.859    0.462
       352  -9.0685     64.2465     46.8308   4.1562344507e+01   6.1235916905e+01    0.2905269    0.1810543  15.66  0.001240129    2.185    0.542
       353  -8.7971    130.4372     45.7921   2.0255761310e+01   4.6082507159e+01    0.1986857     0.148984 -12.53 0.0005082198    1.659    0.397
       354  -8.7027      1.5966     46.0204   7.4819599031e+01   6.8773776497e+01    0.1773131     0.131179 -55.79 0.0004459106    1.148    0.129
       355  -9.5808     16.8843     42.6059   6.4663425849e+01   6.8578284772e+01    0.7093686    0.1957603 -50.05  0.002760288    2.782    0.641
       356  -8.8420    150.2074     44.0087   1.5733232666e+01   4.1218048009e+01    0.1914998    0.1180373 -32.45 0.0005051144    1.709    0.415
       357  -9.7827     31.4347     51.6136   5.9457849999e+01   6.5200866844e+01     0.273008    0.2089459  74.98 0.0008398657    1.952    0.488
       358  -8.8757     58.4280     42.7213   4.2415099886e+01   6.3060520917e+01    0.2613375    0.1344907 -47.91  0.001119761    2.143    0.533
       359 -10.0569      4.8903     40.8137   7.1461658592e+01   6.9783425567e+01    0.4684652    0.2379734 -80.71  0.002145036    2.643    0.622
       360  -9.0598    113.9510     41.2937   2.2544190408e+01   5.0957607812e+01    0.2465117    0.2193845  -8.38 0.0002272012    1.260    0.206
       361  -9.0275    123.4945     40.1461   1.9827748060e+01   4.8688516339e+01    0.2684038     0.207036  37.79 0.0003172898    1.379    0.275
       362  -8.8752     69.0178     41.0049   3.7087418481e+01   6.1357342478e+01    0.2141394    0.1799446 -84.08 0.0008084062    1.693    0.409
       363  -8.6050     36.8746     40.7918   5.2420982565e+01   6.6805009155e+01     0.173027    0.1592142  49.60 0.0005178049    1.351    0.260
       364  -8.8728     84.1907     39.4592   3.0681486129e+01   5.8384165753e+01    0.2803343    0.2125129  19.47 0.0009215352    1.474    0.322
       365  -9.0184    105.9948     37.0147   2.2988112277e+01   5.3569270400e+01    0.2435341    0.1680897  29.07 0.0008431162    1.689    0.408
       366  -9.4057     26.2139     36.4654   5.6757557233e+01   6.8970351995e+01    0.2283557    0.2082514  75.61 0.0009786978    1.511    0.338
       367  -8.6297     95.3675     37.6630   2.6293849756e+01   5.6067316479e+01    0.1518473    0.1145409 -79.27  0.000702957    1.839    0.456
       368  -9.9017      6.4600     33.6065   6.8238029558e+01   7.1260330121e+01    0.2460065    0.1829735 -31.01   0.00074803    1.152    0.132
       369 -10.3797    247.0237    248.2460   4.3117940107e+01  -8.3559019998e+00    0.2883667    0.1876546  18.03 0.0008975646    1.262    0.208
       370  -8.3650     38.0240     35.4672   4.9501937440e+01   6.7682011871e+01    0.1922971    0.1246812  26.84 0.0003791532    1.516    0.340
       371  -8.8148    222.5087     32.4967   3.5538141927e+00   2.5262284545e+01    0.1284588    0.1050103 -61.33 0.0002044758    1.014    0.014
       372  -8.4577     60.4006     32.2229   3.6804286666e+01   6.4510920734e+01    0.1876135    0.1290482 -46.30 0.0009451066    1.681    0.405
       373  -8.8664     49.7045     32.2072   4.1837345273e+01   6.6451829318e+01     0.202358    0.1728623 -51.77 0.0007589964    1.434    0.303
       374  -8.7697     72.3772     31.1855   3.1358140376e+01   6.2244862944e+01     0.189493    0.1286802 -44.62 0.0004894528    1.693    0.409
       375  -9.2135     12.7634     30.9167   6.3064312500e+01   7.1379564196e+01    0.2138044    0.1741363 -75.76 0.0009081995    1.583    0.368
       376  -9.4328     27.8032     27.9424   5.2039073279e+01   7.0438545429e+01    0.4319939    0.1289987 -37.49  0.001465185    3.919    0.745
       377  -9.4103    147.5881     28.3930   1.1174527029e+01   4.3932875923e+01     0.248927    0.1912328 -33.77 0.0007163016    1.394    0.283
       378  -8.5909    101.3993     28.5980   2.0844196124e+01   5.5852926873e+01    0.2820494    0.1014568 -43.56 0.0009552465    3.348    0.701
       379  -8.7896      2.1186     27.7066   6.9213405411e+01   7.2752688333e+01    0.2520867    0.1373644  -2.99 0.0006357161    1.915    0.478
       380  -8.1048     91.6895     26.3390   2.2623118569e+01   5.8518398630e+01    0.1421692     0.110341 -72.53 0.0005629308    1.689    0.408
       381  -9.6828     44.3848     25.2164   4.1129106846e+01   6.8513584789e+01    0.2409657    0.1892023  15.76  0.000340852    1.186    0.157
       382  -8.2175     96.6467     33.6658   2.4267691241e+01   5.6336790653e+01    0.1576045    0.1046938  27.04 0.0007045094    1.789    0.441
       383  -8.5253    110.4758     24.4592   1.6908909783e+01   5.4075334482e+01    0.1450205    0.1295254  56.34 0.0001198707    1.020    0.020
       384  -9.5780     66.9827     23.7467   2.9931571513e+01   6.4459205210e+01    0.2220851    0.1909038 -50.81 0.0007166882    1.433    0.302
       385  -8.5428    137.5960     22.2409   1.0753913408e+01   4.7265458507e+01    0.1835586    0.1412531  -5.85 0.0009486643    1.633    0.388
       386  -8.3543     58.8619     22.1467   3.2532119521e+01   6.6340586064e+01    0.1859636    0.1437576  15.76            0    1.282    0.220
       387  -9.8585    196.2163    248.6293   5.1926112844e+01  -2.5218101625e+00    0.2485193    0.1757226  22.03 0.0009837669    1.128    0.113
       388  -8.3223     92.3369     21.3212   2.0239704455e+01   5.8981645111e+01    0.1521101     0.097493  31.55  0.000701087    1.710    0.415
       389  -8.5843     84.8624     21.1415   2.2372672199e+01   6.0794884463e+01    0.2013337    0.1842347  82.41 0.0004692712    1.238    0.193
       390  -8.5247     48.1901     21.0057   3.6964975722e+01   6.8515901491e+01    0.2302431    0.1509354 -41.39  0.001214421    1.706    0.414
       391  -8.7034     40.9803     21.0488   4.0786738900e+01   6.9739296059e+01    0.1995965    0.1638118   3.81 0.0004187262    1.099    0.090
       392  -9.4580    189.1094     20.1826   3.5587021463e+00   3.4346462652e+01    0.1940624    0.1774707  62.92  0.001221995    1.253    0.202
       393  -8.3361     73.5066     19.0296   2.5146053339e+01   6.3662015557e+01    0.1923737    0.1085331 -51.91 0.0008101857    2.644    0.622
       394 -11.4291    173.9080    244.8333   5.5634372899e+01   8.8378467905e-01    0.7688507    0.5261089 -53.98  0.004719262    2.272    0.560
       395  -8.2100      1.4758     19.5206   6.6626432860e+01   7.4458517619e+01    0.1214732   0.09760031 -30.12 0.0001152477    1.005    0.005
       396  -8.9109     50.4286     15.4405   3.2831929645e+01   6.8895731714e+01    0.2713232    0.1546059  21.38 0.0009527966    2.121    0.528
       397  -9.8218    107.3314    247.0806   6.9568330396e+01   9.7441476704e+00    0.3347225    0.2307881  89.80  0.001538367    2.157    0.536
       398  -8.6960    147.7484    248.5865   6.1337495107e+01   3.9224256341e+00    0.1804691   0.08893724  39.06 0.0009556705    1.686    0.407
       399  -8.4383      4.3062     22.3504   6.5629459594e+01   7.3721732592e+01    0.1348966   0.07056585 -32.02 0.0005078039    1.707    0.414
       400 -11.0141     73.4505    244.6984   7.6558293833e+01   1.4649982745e+01    0.3043119    0.2172336  31.39 0.0005822748    1.254    0.202
       401 -10.9255    237.4170    240.7330   4.3554356767e+01  -6.5039528515e+00    0.4064948    0.2615764  14.93  0.002612363    1.211    0.174
       402  -8.2309     80.6308     12.2974   1.9505595828e+01   6.2795323375e+01    0.1355715     0.104954 -78.61 0.0007030144    1.732    0.423
       403 -10.3267     98.1824    241.6251   7.0973613968e+01   1.1920415355e+01    0.3727487    0.1969909  28.64 0.0009712691    1.670    0.401
