#   1 NUMBER                 Running object number                                     
#   2 MAG_AUTO               Kron-like elliptical aperture magnitude                    [mag]
#   3 X_IMAGE                Object position along x                                    [pixel]
#   4 Y_IMAGE                Object position along y                                    [pixel]
#   5 X_WORLD                Barycenter position along world x axis                     [deg]
#   6 Y_WORLD                Barycenter position along world y axis                     [deg]
#   7 A_WORLD                Profile RMS along major axis (world units)                 [deg]
#   8 B_WORLD                Profile RMS along minor axis (world units)                 [deg]
#   9 THETA_WORLD            Position angle (CCW/world-x)                               [deg]
#  10 FWHM_WORLD             FWHM assuming a gaussian core                              [deg]
#  11 ELONGATION             A_IMAGE/B_IMAGE                                           
#  12 ELLIPTICITY            1 - B_IMAGE/A_IMAGE                                       
         1  -8.1898    219.5027     44.9828   5.7169092408e+01   2.4329304482e+01    0.2257061    0.1406329 -24.77 0.0008667837    1.590    0.371
         2 -10.9277     27.8899    242.8985   1.3041936315e+02   2.4329508627e+01    0.6029839    0.2834587  24.38  0.002762413    6.053    0.835
         3 -11.0805     11.8612    238.0798   1.3267501878e+02   2.6645109083e+01     0.552307    0.1978073  37.06  0.003497529    2.560    0.609
         4 -10.1944      2.6604    238.0940   1.3405065648e+02   2.7491387151e+01    0.2793126    0.2216147 -59.17  0.002512496    2.140    0.533
         5 -11.1283     32.0500    247.7037   1.2998308177e+02   2.3177936989e+01    0.6673432    0.3204187  28.22  0.003849226    3.604    0.723
         6 -10.5997     42.8649    247.2372   1.2831405941e+02   2.2090424888e+01    0.3781049    0.2111787  29.36  0.002490052    2.634    0.620
         7 -11.5061      9.7487    247.6052   1.3328567137e+02   2.5403250808e+01     1.071811    0.3093778  45.30  0.006992924    2.169    0.539
         8  -8.2562     80.7047    248.6444   1.2244501377e+02   1.7412260065e+01    0.1389478    0.1162204  26.85  0.001123671    1.776    0.437
         9  -9.9561     56.4397    248.0600   1.2625075412e+02   2.0439052200e+01    0.1774213    0.1467823  34.59  0.001508605    1.711    0.416
        10  -7.1227    118.3485    247.6704   1.1624916572e+02   1.2508749164e+01    0.1123294   0.06196182  61.16 0.0007049092    1.762    0.433
        11  -7.2732     86.3250    247.3172   1.2144975847e+02   1.6883377202e+01   0.08850513   0.07494348  29.41 0.0003965218    1.672    0.402
        12  -9.3401     76.4451    246.2979   1.2297345324e+02   1.8285925518e+01     0.240133    0.1830387   1.33  0.001544919    3.325    0.699
        13  -9.6249     71.3298    244.1820   1.2366037345e+02   1.9230443658e+01    0.1849941    0.1445691  29.23  0.001374707    1.818    0.450
        14  -7.5734    112.3178    245.3435   1.1704267274e+02   1.3667572803e+01   0.09533145    0.0765335  23.10 0.0004312629    1.719    0.418
        15  -7.8006    103.4377    247.7854   1.1870319765e+02   1.4551945475e+01    0.1112834   0.09878136 -64.50 0.0005577945    1.584    0.369
        16  -8.4854     96.1110    237.5463   1.1909906346e+02   1.7003867480e+01    0.1832107    0.1551404  29.97  0.001442132    1.578    0.366
        17  -9.9372     42.8820    238.2345   1.2787676505e+02   2.3450629695e+01    0.2486777    0.1128062  40.61  0.001648755    1.873    0.466
        18  -8.4115     90.8973    235.3556   1.1980373073e+02   1.8030208173e+01     0.216728    0.1684597  -1.69  0.001404109    2.835    0.647
        19  -9.6806     24.7554    237.4272   1.3068182736e+02   2.5486860989e+01    0.2732528    0.1439459  25.18  0.001623293    3.533    0.717
        20  -9.5101    140.2811    235.8133   1.1142495898e+02   1.0904468738e+01    0.2980714    0.1820666  26.82  0.001805656    2.009    0.502
        21  -8.8480    115.1202    233.4557   1.1550695725e+02   1.4943819995e+01    0.3079559    0.1675428  30.05  0.001731336    2.329    0.571
        22  -9.2017     61.5336    232.4379   1.2452158866e+02   2.2207856197e+01    0.3245545    0.1302776  44.18  0.001842906    1.860    0.462
        23  -9.1256      4.8760    229.7136   1.3347046711e+02   2.8598911624e+01    0.3255435   0.02416735  38.20  0.001470321    4.712    0.788
        24  -9.0771     14.3184    232.1388   1.3209698343e+02   2.7338364967e+01    0.2013402    0.0971047  44.02  0.001210216    1.663    0.399
        25  -8.8759     10.0250    231.3027   1.3273068892e+02   2.7875007102e+01    0.1378978   0.08667541  59.24 0.0007705708    1.109    0.099
        26  -8.2257    121.7922    232.3862   1.1425410213e+02   1.4128069026e+01    0.1564987   0.08525734  37.35 0.0007200952    1.649    0.394
        27  -8.7122     85.2577    232.5251   1.2053918602e+02   1.9206791632e+01    0.2510697   0.08539909  39.57  0.001279004    2.469    0.595
        28  -7.9393    158.8238    231.3796   1.0774860493e+02   8.6481658158e+00    0.1730799   0.08395331  36.53 0.0009593022    1.751    0.429
        29 -10.7088     15.1649    243.1470   1.3234757675e+02   2.5556289192e+01    0.7010339    0.2267376  30.24  0.003117923    5.919    0.831
        30  -8.9534    178.7631    229.8574   1.0414994834e+02   5.7165247951e+00    0.2381965    0.1712888  57.88  0.001604542    1.568    0.362
        31 -10.6978    142.2207    227.5685   1.1019109741e+02   1.1731025054e+01    0.5298899    0.2231513  34.01  0.002557387    2.544    0.607
        32  -8.4250     45.8140    230.5638   1.2700600614e+02   2.4326756313e+01    0.2883595   0.08301331  37.22  0.001444655    3.167    0.684
        33  -8.7758     37.8202    229.7650   1.2826859600e+02   2.5331591422e+01    0.2215004    0.1171846  25.65  0.001266748    3.341    0.701
        34  -7.9954    102.9740    229.4842   1.1724310882e+02   1.7257788201e+01    0.1719015   0.08546258  42.58  0.001029274    1.591    0.372
        35  -9.3922     20.7882    228.7892   1.3095776800e+02   2.7243683415e+01    0.2704681    0.1207376  37.46  0.001311261    2.134    0.531
        36  -9.2542    170.0271    226.5980   1.0523268751e+02   7.4995206833e+00    0.3565703    0.1778533  24.15  0.001641099    3.161    0.684
        37  -8.5883     93.8332    228.6200   1.1875362512e+02   1.8655335401e+01    0.2526212    0.1169719  32.86  0.001318638    2.608    0.617
        38  -8.0676     72.0187    227.8372   1.2244773363e+02   2.1643550325e+01    0.1485231    0.1177536  21.15   0.00101271    2.006    0.502
        39  -8.8839    163.4948    227.2358   1.0644291327e+02   8.4514519490e+00    0.2646419    0.1130592  34.43  0.001309358    2.258    0.557
        40  -9.1923     12.4072    227.2675   1.3222159303e+02   2.8294884795e+01    0.1787654   0.06562478  53.81   0.00114841    1.816    0.449
        41  -8.6344    128.0069    225.5321   1.1246932458e+02   1.4191337471e+01    0.4444179    0.1211569  37.51  0.001697278    3.814    0.738
        42  -8.4968    120.9310    225.5192   1.1371817053e+02   1.5253860605e+01    0.1719432     0.161762 -16.14  0.001178467    1.537    0.349
        43  -8.0924     99.4955    224.9871   1.1744954417e+02   1.8432859912e+01    0.1915281    0.1343369   7.86  0.001035016    3.390    0.705
        44  -8.2615     85.3151    224.6964   1.1991174221e+02   2.0417456453e+01    0.1890477      0.12184  25.55  0.001149911    2.332    0.571
        45  -7.9946    105.0626    223.9119   1.1636837829e+02   1.7811519828e+01    0.1571994    0.1327015  14.25  0.001127555    1.790    0.441
        46  -8.0991      6.2090    224.6304   1.3310270817e+02   2.9292001734e+01    0.1147872   0.07779583  39.47 0.0007025114    1.649    0.394
        47  -9.0876    176.6457    222.8714   1.0360500947e+02   6.9139333586e+00    0.2341994    0.1292172  27.37  0.001288476    1.972    0.493
        48  -7.2816     79.6718    223.6634   1.2081504758e+02   2.1326786907e+01   0.09151408   0.08427677  13.28 0.0007051892    1.727    0.421
        49  -8.5308     51.8008    223.1245   1.2558093575e+02   2.4847014506e+01    0.1757971    0.1307124  49.07  0.001181342    1.290    0.225
        50  -7.9878     63.3300    221.6785   1.2351087481e+02   2.3714327206e+01    0.1799767    0.1263141  20.72  0.001165088    2.441    0.590
        51  -8.9690    141.1916    220.8754   1.0960775992e+02   1.2834293816e+01    0.3063867     0.185886  26.60  0.001739876    2.057    0.514
        52  -7.7412     19.9802    222.0000   1.3081099323e+02   2.8424613588e+01    0.1477265   0.04459074  36.84 0.0008006786    2.930    0.659
        53  -8.0287      2.9799    221.6777   1.3351435684e+02   3.0060574924e+01    0.1171945   0.07892079   4.43 0.0007050461    4.359    0.771
        54  -7.7876    124.4799    220.5350   1.1256453336e+02   1.5464044877e+01    0.1154086   0.08993624  49.01 0.0001514281    1.050    0.048
        55  -8.2059     93.9943    249.4351   1.2036303444e+02   1.5584797508e+01    0.1620635   0.07579282  43.02  0.001026795    1.606    0.378
        56  -9.9327    159.2486    218.1482   1.0604958056e+02   1.0340661980e+01    0.3504896    0.2201629  13.23  0.001815827    2.761    0.638
        57  -7.8860     99.1060    218.6103   1.1693608654e+02   1.9490265857e+01     0.154659    0.0915859  35.42 0.0009345647    1.738    0.425
        58  -9.8872    147.9118    222.5363   1.0860690238e+02   1.1543068836e+01    0.2823814    0.1701994  36.98  0.001736008    1.430    0.301
        59  -8.8369    137.4578    215.3944   1.0963709950e+02   1.4222682216e+01    0.4532863    0.2870058   0.47  0.001764163    5.680    0.824
        60  -9.0877    144.4687    215.4449   1.0836942080e+02   1.3100748844e+01    0.2706912     0.169779  35.05    0.0016415    1.479    0.324
        61  -7.8380     55.8133    216.6134   1.2447691177e+02   2.5458183810e+01    0.1574416   0.06929794  49.72  0.000950088    1.696    0.411
        62  -8.0066    120.3813    215.3923   1.1275146151e+02   1.6872276000e+01    0.2221039   0.09478198  31.70 0.0009531697    3.229    0.690
        63  -8.8738     11.2559    215.2746   1.3196521764e+02   3.0371083712e+01    0.3175619          nan  45.24  0.001378385    4.290    0.767
        64  -7.8218    131.8011    214.4106   1.1055365320e+02   1.5260394060e+01    0.1697979   0.09405607  35.19 0.0009431482    1.750    0.429
        65  -8.2706    112.2814    213.6341   1.1404737744e+02   1.8368927705e+01    0.1991298    0.1557041  12.75  0.000990791    2.014    0.503
        66  -7.5408     85.3621    214.2817   1.1902882167e+02   2.2099319548e+01   0.09779541   0.08456038  22.46 0.0007015977    1.677    0.404
        67 -10.3694    171.9330    211.4509   1.0288719623e+02   9.1751346847e+00    0.3010287    0.2117783  26.97  0.001898367    1.406    0.289
        68  -9.6725    156.0435    212.4831   1.0589388871e+02   1.1654168158e+01    0.2963162    0.1802573  24.92   0.00162501    2.041    0.510
        69  -8.0030     92.8464    212.7553   1.1752720150e+02   2.1322237035e+01    0.1578289    0.1217592  -8.12 0.0009389577    2.760    0.638
        70  -7.9443     99.0472    212.0139   1.1631776710e+02   2.0566980027e+01    0.1589857    0.1371835   9.54  0.001114659    1.795    0.443
        71  -8.2634    220.6768    210.6712   9.4323775355e+01   1.2440373727e+00    0.1226812   0.07467345  17.54 0.0007049382    1.695    0.410
        72  -7.3844    135.6423    210.6660   1.0940345075e+02   1.5223866976e+01    0.1151944   0.08743823  16.78 0.0007041807    1.801    0.445
        73 -10.7073    162.7835    209.2566   1.0423733417e+02   1.0999847609e+01     0.407838    0.2691036  27.45   0.00243054    1.597    0.374
        74  -7.5278    133.5377    206.9884   1.0934616461e+02   1.6128653808e+01    0.1429261    0.1026388 -20.96 0.0008074348    2.432    0.589
        75  -7.5752    127.3288    206.3005   1.1042695955e+02   1.7225626034e+01     0.111203   0.08858123  19.62 0.0007031157    1.643    0.391
        76  -8.0297    139.8744    205.3825   1.0795829530e+02   1.5354326100e+01    0.1779879   0.09667578  34.92 0.0009397521    1.800    0.444
        77  -8.7819    150.3320    203.8461   1.0579909733e+02   1.3865160578e+01    0.2452405    0.1499454  38.62 0.0008100948    1.404    0.288
        78  -9.5832    177.2979    202.4980   1.0062910332e+02   9.4962477903e+00    0.4226397   0.09680051  40.06  0.001428473    3.935    0.746
        79  -9.6288    161.9870    201.5501   1.0330734456e+02   1.2244304653e+01    0.2263387    0.1802276  48.07    0.0014876    1.094    0.086
        80  -7.8194    129.7488    201.8414   1.0942414073e+02   1.7554901190e+01    0.1763775    0.1266585   0.96 0.0009295389    2.694    0.629
        81  -7.4965    121.6297    202.7393   1.1108000278e+02   1.8699755558e+01    0.1132334   0.08715446  23.80 0.0006978683    1.651    0.394
        82  -7.5369     98.0223    202.6619   1.1557051035e+02   2.2284962967e+01    0.1760853   0.09483384  22.20 0.0007047988    4.332    0.769
        83  -8.1762    134.8583    200.6995   1.0830557454e+02   1.6910322441e+01    0.1943387    0.1366647  32.51  0.001176154    1.468    0.319
        84  -7.9083    124.4064    197.7427   1.0993779749e+02   1.9085132575e+01    0.1459915    0.1153837 -45.04 0.0009413541    1.629    0.386
        85  -9.4591    202.8718    197.0944   9.5201133687e+01   5.8208321790e+00    0.1847932    0.1574449  46.30 0.0009619467    1.271    0.213
        86  -7.9468    167.9238    196.1527   1.0140870478e+02   1.2017787342e+01    0.1769777    0.1327457  26.74  0.001081954    1.338    0.253
        87  -8.2364    145.3046    195.2573   1.0557359588e+02   1.6042370777e+01    0.2345813    0.1441534 -16.04 0.0009587441    4.255    0.765
        88  -7.8908    125.7541    211.3641   1.1131408570e+02   1.6673670288e+01    0.1667171   0.09341854  37.29 0.0009390761    1.645    0.392
        89  -7.8868    172.3134    194.3186   1.0030890490e+02   1.1521376109e+01    0.1245133   0.08954686  17.05 0.0006421715    1.648    0.393
        90 -11.4694    186.7659    191.6053   9.7203183950e+01   9.3645158216e+00    0.4439245    0.3360384  53.10  0.002730526    1.369    0.269
        91  -7.6554    158.3342    192.3391   1.0265136511e+02   1.4262122382e+01    0.1257128   0.09260121  14.89 0.0007051584    1.749    0.428
        92  -7.8048    125.3831    192.2986   1.0905263562e+02   1.9843674889e+01    0.1193124    0.0933812  16.18 0.0007019998    1.772    0.436
        93  -7.8194    115.4993    191.9796   1.1096250236e+02   2.1484132622e+01     0.151373    0.1036895 -31.01 0.0008096242    2.490    0.598
        94  -9.8592    206.9878    190.0103   9.3295845754e+01   6.0167058910e+00    0.3404915    0.1317718  33.05  0.001393469    2.790    0.642
        95  -8.9773    163.4363    193.0155   1.0178106191e+02   1.3268440696e+01    0.2734129    0.1352876  30.42  0.001072449    2.408    0.585
        96  -9.0424    175.7552    187.2431   9.8544244263e+01   1.1954336277e+01    0.2908499    0.1317749  34.59  0.001292642    2.231    0.552
        97  -8.4412    157.1696    186.4564   1.0198326143e+02   1.5390335678e+01    0.3421807    0.2188459  -9.48   0.00151917    3.297    0.697
        98  -7.9310    151.7688    185.8178   1.0294073819e+02   1.6445943146e+01    0.2035678    0.1355116   6.79 0.0009490973    2.786    0.641
        99  -8.6822    183.6074    185.3034   9.6750169529e+01   1.0826825289e+01     0.229591    0.1349902  29.20  0.001020373    1.759    0.431
       100  -8.6040    177.9922    183.0079   9.7423852227e+01   1.2182713888e+01    0.2595904     0.152398  24.68  0.001254734    2.085    0.520
       101  -9.1636    181.3360    180.3215   9.6335674539e+01   1.1974486428e+01     0.252933    0.1544229  17.71  0.001191563    2.315    0.568
       102  -7.4068    143.4532    183.5084   1.0423734771e+02   1.8284319113e+01    0.1279722    0.1098686  44.99 0.0008082254    1.051    0.049
       103  -7.9223    163.6512    182.7194   1.0013262918e+02   1.4825616042e+01    0.1292109    0.0931905  20.14 0.0006190065    1.644    0.392
       104  -7.4424    134.4774    182.4747   1.0588580208e+02   2.0011569238e+01    0.1274019     0.109792  46.77 0.0002285524    1.069    0.065
       105  -8.0892    199.3292    181.3362   9.3168440099e+01   8.5418956249e+00    0.1342378   0.08958128  15.58 0.0004789714    1.729    0.422
       106 -10.7897    189.3906    178.3624   9.4479351325e+01   1.0782691578e+01    0.3946722    0.2769741  -4.72   0.00214064    1.861    0.463
       107  -7.4201    145.6490    178.6713   1.0305795206e+02   1.8716711295e+01    0.1290495   0.09873018  12.71 0.0007047988    1.767    0.434
       108  -7.9476    164.7825    176.4178   9.8874012083e+01   1.5626710029e+01    0.1939208    0.1100229  35.38 0.0009491207    1.697    0.411
       109  -9.0683    180.9733    175.0294   9.5486421314e+01   1.2841697576e+01      0.36729    0.1477515  29.59  0.001154325    4.554    0.780
       110  -7.8538    171.3357    175.3472   9.7406164492e+01   1.4586374086e+01    0.1353261   0.09725953  13.34 0.0007048299    1.776    0.437
       111  -7.5447    129.5201    173.4530   1.0556445605e+02   2.2462730725e+01    0.1299254     0.112928  52.75 0.0003655786    1.028    0.027
       112 -10.8047    204.6505    165.4322   8.9269819681e+01   9.7963735730e+00    0.5853947    0.2172049 -42.19  0.002334762    3.173    0.685
       113  -7.6828    122.6556    179.6620   1.0789196904e+02   2.2504626710e+01    0.1215736   0.09978976   5.80 -5.181317e-05    1.774    0.436
       114  -8.1823    158.8242    168.8078   9.8766649267e+01   1.7991283172e+01    0.2869668    0.1659308  35.57  0.001397975    1.702    0.412
       115  -7.4239    164.6974    172.2929   9.8188910269e+01   1.6313690279e+01    0.1275362    0.0992733  71.10 0.0006990872    1.572    0.364
       116  -8.0942    180.1861    165.5971   9.3933338025e+01   1.4459417247e+01    0.1993173    0.1125356  35.75 0.0009465395    1.694    0.410
       117  -8.1094    197.0000    161.0189   8.9836016383e+01   1.1914353925e+01    0.2129645   0.07680179 -37.49 0.0008167153    3.042    0.671
       118  -8.4787    212.9697    164.0000   8.7485514651e+01   8.4230037328e+00    0.2214505   0.06782895  46.06  0.000805666    2.965    0.663
       119  -8.1381     90.6087    154.7699   1.1131789552e+02   3.2448923538e+01    0.1753742    0.1144753 -78.88 0.0009425912    1.628    0.386
       120  -7.5323    184.3458    152.2977   9.0544897542e+01   1.5778256460e+01    0.1433976    0.1018484  17.16 0.0004445358    1.675    0.403
       121  -7.8909    170.4997    150.4930   9.2968876232e+01   1.8860788828e+01    0.1410209    0.1258152  29.53 0.0008094987    1.076    0.071
       122  -7.6665    171.5174    143.4870   9.1333408324e+01   1.9868312022e+01    0.1424899    0.1294277  30.51 0.0001795353    1.050    0.048
       123  -8.0737    148.6714    141.6997   9.5853467183e+01   2.4820321702e+01    0.1401507    0.1106371  11.12 0.0007030749    1.642    0.391
       124  -7.6904    182.6846    132.6837   8.6715382274e+01   1.9395167527e+01    0.1479786    0.1093538  13.49 0.0007037077    1.648    0.393
       125  -7.6240    166.6889     99.7398   8.2062249897e+01   2.8838627964e+01    0.1504283    0.1165003  19.54 0.0001407366    1.530    0.347
       126  -8.7495    223.0019     93.4060   6.9725384072e+01   1.6689211969e+01    0.2528453    0.2015696 -34.61 0.0004608941    1.230    0.187
       127  -8.4792    123.9742     58.9516   8.0184846918e+01   4.6318062237e+01    0.2218115    0.2191702 -25.21 0.0004538947    1.033    0.032
