#   1 NUMBER                 Running object number                                     
#   2 MAG_AUTO               Kron-like elliptical aperture magnitude                    [mag]
#   3 X_IMAGE                Object position along x                                    [pixel]
#   4 Y_IMAGE                Object position along y                                    [pixel]
#   5 X_WORLD                Barycenter position along world x axis                     [deg]
#   6 Y_WORLD                Barycenter position along world y axis                     [deg]
#   7 A_WORLD                Profile RMS along major axis (world units)                 [deg]
#   8 B_WORLD                Profile RMS along minor axis (world units)                 [deg]
#   9 THETA_WORLD            Position angle (CCW/world-x)                               [deg]
#  10 FWHM_WORLD             FWHM assuming a gaussian core                              [deg]
#  11 ELONGATION             A_IMAGE/B_IMAGE                                           
#  12 ELLIPTICITY            1 - B_IMAGE/A_IMAGE                                       
         1 -15.7632      9.1055    180.0121   1.2107879888e+02   3.5068839915e+01     2.293729     1.144622 -74.39   0.01246759    1.654    0.395
         2 -15.0533      6.6009     71.4295   1.0810506704e+02   6.1050342892e+01     1.642186    0.8972508 -52.96  0.007048103    1.390    0.280
         3 -12.3334    120.9719     25.8253   5.1491374749e+01   5.1306779852e+01    0.8269928    0.5005196  58.38    0.0041392    1.509    0.337
         4 -14.2142    166.6292     30.1983   4.4538745442e+01   3.9765867271e+01     1.050358    0.7101032  64.11   0.00370531    1.358    0.264
         5 -14.5420    147.1702     29.2923   4.7461302528e+01   4.4630949183e+01     1.431372    0.8451371  59.90  0.007011663    1.526    0.345
         6 -13.4408    138.0859     22.2101   4.6841581257e+01   4.7629341095e+01     1.208575     0.242123  52.57  0.003823052    3.780    0.735
         7 -14.1882    122.0060     37.4153   5.5303110184e+01   4.9653930394e+01     1.029876     0.527367  36.72  0.002533783    2.214    0.548
         8 -13.7325      2.6988     10.7215   9.0831348307e+01   7.2986869531e+01    0.8234077    0.4279976 -45.37  0.005059794    1.748    0.428
         9 -13.3313      8.0942      2.7014   8.3601364506e+01   7.3714344042e+01    0.5832993     0.420363  38.61  0.002004756    2.165    0.538
        10 -16.1136     14.0823     20.2337   8.8618704018e+01   7.0564190531e+01     1.957895     1.042282 -24.30   0.01131759    1.690    0.408
        11 -13.3823    187.9082     13.2450   3.7210849369e+01   3.6518581850e+01    0.9054095    0.3893045 -41.99  0.004222747    2.226    0.551
        12 -12.9439    214.9322     20.6583   3.6267990321e+01   2.9470047817e+01    0.4703321    0.3467242  13.62   0.00259842    2.261    0.558
        13 -12.8963    218.9868     15.5167   3.4734278903e+01   2.9149786435e+01    0.3515604    0.2250274  60.65  0.001830646    1.643    0.392
        14 -13.6589    214.9617     10.3672   3.3925631407e+01   3.0602239321e+01    0.7859826    0.4293176  81.97 0.0006526042    1.704    0.413
        15 -13.0167     47.9420     20.9160   7.2362888106e+01   6.6397570357e+01    0.5876542    0.2680635  35.57  0.002237618    2.083    0.520
        16 -15.2738     99.0793     12.9692   5.1816878906e+01   5.7613928194e+01     1.652374    0.7478477  55.13  0.002542281    1.903    0.474
        17 -12.2207    107.9673      9.4680   4.8400436624e+01   5.5948972906e+01    0.2785446    0.2115144  67.13 0.0003976965    1.305    0.234
        18 -12.2518     71.3382     17.6867   6.1895256176e+01   6.2816707211e+01    0.3389137     0.257602 -25.66  0.001179344    1.393    0.282
        19 -14.3257     41.1551      6.1629   6.8144170667e+01   6.9231435340e+01     1.021257    0.5559256 -11.10  0.004683972    1.947    0.486
        20 -11.8300     46.4703     13.2476   6.9363464721e+01   6.7599924107e+01    0.2898606    0.2360648  43.11  0.001867124    1.540    0.351
        21 -12.2213     59.9116     17.1362   6.5765010414e+01   6.4940714041e+01    0.3852143    0.2042536 -36.09  0.001999799    2.072    0.517
        22 -11.3200    153.0433      8.9513   4.0317515015e+01   4.5316918885e+01    0.2027361    0.1760482  64.31  0.000738872    1.062    0.059
        23 -10.7698     68.8042      9.6499   5.9138687091e+01   6.4148752889e+01    0.1675287    0.1097339  56.12 0.0005141813    1.694    0.410
        24 -11.8509    119.9918      3.7619   4.3919657782e+01   5.3656320496e+01    0.3446797    0.1714125  70.63  0.001379217    1.958    0.489
        25 -11.4318    117.4756      1.4847   4.3576270986e+01   5.4420255969e+01    0.2445256    0.1781682  55.80 0.0006638009    1.155    0.134
        26 -12.4339     79.3631      2.2114   5.2544814901e+01   6.2743016136e+01     0.597443      0.17868  50.05  0.002517861    2.542    0.607
        27 -13.6758    189.2391     26.2609   4.0394463870e+01   3.4766475657e+01     1.080184    0.4495796 -58.78  0.004084319    3.200    0.688
        28 -11.2385    232.5656      1.7604   3.0736669497e+01   2.7693361437e+01    0.2180977    0.1417425  84.42  0.001131295    1.372    0.271
        29 -12.0149     61.4190      1.7298   5.7925865804e+01   6.6268020925e+01    0.3993272    0.1454366  52.02  0.001635656    2.544    0.607
        30 -14.4733     25.1791     14.0283   7.9836175022e+01   7.0373159518e+01    0.7923396    0.4259689  23.90   0.00462122    1.784    0.439
        31 -12.4585     57.5289    203.4872   1.1229376070e+02   2.4543997393e+01    0.5454811    0.2687031 -88.67  0.002395466    2.507    0.601
        32 -13.2756    107.2393    247.3095   1.0646076632e+02   8.6697767299e+00    0.7095658    0.5080213 -89.64  0.004270708    1.726    0.421
        33 -14.1236     97.0553    238.9749   1.0761440400e+02   1.1692608479e+01     1.071136    0.6044471  35.07   0.00572497    1.630    0.386
        34 -14.3618     91.4367    231.7777   1.0798867133e+02   1.3899056448e+01    0.8024372     0.727511  26.42  0.005331225    1.275    0.216
        35 -13.0008     57.8361    246.5336   1.1611836527e+02   1.5571096616e+01    0.6657144    0.3960689  25.68  0.003742244    2.138    0.532
        36 -11.9651      2.9181    249.8592   1.2619860069e+02   2.1009728944e+01     0.319749    0.1727633  53.44  0.001725494    1.404    0.288
        37 -13.6821      9.2632    245.7108   1.2493378341e+02   2.1170864440e+01    0.7328151    0.3579144  57.20  0.003576634    1.567    0.362
        38 -12.3800    239.0011    159.7634   6.4579858713e+01   2.6392576243e+00    0.4428646    0.1040606  40.73  0.001384379    4.937    0.797
        39 -11.8109     77.3778    156.9095   1.0108067110e+02   3.2960510571e+01    0.4150449     0.282558  27.98   0.00154201    1.654    0.395
        40 -13.0137     73.8534    153.4681   1.0145985298e+02   3.4330970413e+01    0.7644922    0.4846945  34.03   0.00341211    1.674    0.403
        41 -11.7545    111.5417    156.3708   9.1777696096e+01   2.7491675562e+01    0.4139381    0.2531596  89.18   0.00144102    3.169    0.684
        42 -11.1371     55.2591    156.3770   1.0701942652e+02   3.6084737362e+01    0.3540522    0.2205289  -6.75  0.001484497    2.956    0.662
        43 -12.3229    209.4585    154.8678   6.8845998725e+01   8.7461423805e+00    0.6280016    0.2761586  33.41  0.002334473    2.881    0.653
        44 -12.6695     32.9105    157.1609   1.1310052842e+02   3.8374662632e+01    0.3762818    0.2406006 -51.26     0.002017    1.597    0.374
        45 -11.4765    103.3949    150.1099   9.2700308529e+01   3.0449702002e+01    0.3791625    0.2473279 -30.60  0.001603434    1.995    0.499
        46 -13.4090     40.3925    195.3977   1.1534053832e+02   2.8437551874e+01    0.5068371    0.2520685  87.96  0.002270147    2.213    0.548
        47 -11.9203     60.8918    148.1385   1.0418345793e+02   3.7438736545e+01    0.3629335    0.2551083  -9.78  0.001716464    2.132    0.531
        48 -10.5123     62.8392    138.7708   1.0201823506e+02   3.9543143477e+01    0.1911149    0.1574583  84.76 0.0005581721    1.277    0.217
        49 -12.4720     40.8491    137.2856   1.0821189600e+02   4.2520195238e+01    0.3383873    0.2526872  71.67  0.001854744    1.454    0.312
        50 -12.7080    246.4489    135.0986   5.8167668658e+01   5.5395347475e+00    0.3856355     0.277963 -89.08  0.001899427    2.491    0.599
        51 -12.7802     36.8576    195.4374   1.1613787717e+02   2.8822159341e+01    0.3865379    0.2063561 -82.82  0.001980548    1.768    0.434
        52 -12.0736    222.8180    127.8111   6.0378760761e+01   1.1163094157e+01    0.2007616    0.1670931 -61.54  0.001094901    1.356    0.263
        53 -13.1603    120.5394    102.1143   7.6289745912e+01   3.8456442555e+01    0.6327634     0.311751  38.59  0.002378162    2.163    0.538
        54 -14.1546    105.7252    121.7935   8.5709343654e+01   3.6892162408e+01     1.426145     1.368885 -73.28  0.007681125    1.072    0.067
        55 -14.3105    106.3297    105.7764   8.1390937762e+01   4.0511033287e+01    0.9712083    0.8766296 -55.49  0.005082585    1.124    0.110
        56 -13.1960    110.8926    100.5728   7.8610893829e+01   4.0776640676e+01    0.6328992    0.5301176 -86.85  0.003086175    1.511    0.338
        57 -11.1779     65.2919    126.6622   9.8980289818e+01   4.2256600761e+01    0.2561475    0.2218339  85.10  0.001404986    1.242    0.195
        58 -13.0130     28.6812    122.3909   1.0956458458e+02   4.7414065220e+01    0.4219024    0.2814374 -60.14  0.002323952    1.257    0.204
        59 -11.0235     60.2386    125.1944   1.0024781773e+02   4.3293767161e+01    0.3023485    0.1746807   9.46  0.001237753    2.663    0.625
        60 -12.0752    181.0141    121.0178   6.6653109586e+01   2.1159428801e+01    0.2390132    0.2332947 -46.29 0.0008011666    1.039    0.038
        61 -12.2730     88.8591    109.4981   8.7697531830e+01   4.2840328799e+01    0.3615142    0.2573333 -39.20  0.001710001    1.390    0.281
        62 -12.8147     84.7397    115.4113   9.0451107455e+01   4.2116035489e+01    0.8648738    0.4109025  37.62  0.002702267    2.205    0.547
        63 -11.9918      4.1768    119.9382   1.1668595770e+02   4.9804509150e+01     0.425377    0.1883333  15.93  0.001898225    2.880    0.653
        64 -13.9768      6.8154     43.5940   1.0095108450e+02   6.6891371033e+01     1.113658    0.7092685 -49.22  0.007019836    1.269    0.212
        65 -13.3266      2.1983     97.2218   1.1430011014e+02   5.5349149484e+01    0.7456538    0.2342159 -72.00   0.00304182    2.692    0.629
        66 -14.4143     26.1590     93.8991   1.0533469597e+02   5.4561750091e+01     1.464928     1.164089  -2.45  0.008927715    1.448    0.309
        67 -13.7464      3.9523     63.5842   1.0748359390e+02   6.2909008090e+01    0.5444349    0.4332125  -2.93  0.003734018    1.406    0.289
        68 -12.3385    147.4794    239.1409   9.7222148204e+01   3.9913232875e+00    0.2109679    0.1612516  48.66 0.0008998825    1.295    0.228
        69 -11.3054    121.5524    112.4561   7.8826632185e+01   3.5947942165e+01    0.3029909    0.2219503  63.98 0.0008661825    1.691    0.409
        70 -11.8331     61.6874    109.4991   9.6452158141e+01   4.6982402993e+01    0.4124288    0.2831279 -64.06   0.00203817    1.432    0.302
        71 -14.0989     17.7724    111.1945   1.1126853048e+02   5.1041226415e+01    0.8181551    0.6216602 -44.51  0.003507837    1.267    0.211
        72 -11.0999    222.5306    109.5108   5.6222341185e+01   1.4484892296e+01    0.1429103    0.1274298 -41.81  0.000145253    1.005    0.005
        73 -11.3574     32.4453    105.3531   1.0539738426e+02   5.1268466574e+01    0.2347259    0.1672356  25.94  0.000991173    1.620    0.383
        74 -12.2579    136.4595    103.4694   7.2393860964e+01   3.4732536599e+01    0.6495374    0.2950028  48.96   0.00218241    2.293    0.564
        75 -12.3742     77.3043    117.5584   9.3279012667e+01   4.2774232000e+01    0.4988947    0.4063629  89.81  0.002540756    1.459    0.315
        76 -12.0074    163.1604     98.9486   6.4761750127e+01   2.9591117982e+01    0.4384153    0.3436001 -22.72  0.001290463    1.419    0.295
        77 -11.7749     47.1488     99.8611   9.9187183535e+01   5.1098435967e+01    0.3943422    0.3189372  67.78  0.002187172    1.543    0.352
        78 -11.4878     52.6806     97.9953   9.6822479315e+01   5.0895197102e+01    0.3348235     0.182734 -32.37  0.001439367    2.157    0.536
        79 -12.0747     49.0105     94.5983   9.7299470098e+01   5.2134465910e+01     0.549826    0.3454593 -76.94  0.002160852    2.103    0.525
        80 -11.8607     61.2733     98.1679   9.3882504186e+01   4.9753936972e+01    0.3556723    0.2835997  80.77  0.001844116    1.659    0.397
        81 -12.3138    136.4172     95.5391   7.0174752666e+01   3.6397101712e+01    0.4176297    0.2948358  49.02 0.0009800954    1.442    0.307
        82 -11.6556    127.0010     94.4753   7.2341808418e+01   3.8701623032e+01    0.5690144    0.3534255 -80.82  0.001759761    4.063    0.754
        83 -11.9366     42.4830     90.5628   9.8678264022e+01   5.3808795934e+01    0.3051387    0.2222703 -68.49 0.0006049019    1.433    0.302
        84 -11.7306     90.4044     88.4006   8.1388767593e+01   4.7365729406e+01    0.4370295    0.3023619  50.75   0.00204555    1.665    0.399
        85 -13.3369    188.0941     84.5029   5.5902681558e+01   2.6465612593e+01    0.6933746     0.332686  43.21  0.002288838    2.459    0.593
        86 -12.6546    237.4344     80.3259   4.7378439011e+01   1.6324527887e+01    0.3989653    0.2489424 -68.54  0.001952128    1.951    0.487
        87 -12.3205    158.8045     66.3603   5.6476486255e+01   3.6547222809e+01    0.6766793    0.3236799 -39.48  0.002707595    2.071    0.517
        88 -13.3106    164.1822     71.6777   5.6929553220e+01   3.4360786421e+01     1.436215    0.4656008  47.52  0.004607286    3.214    0.689
        89 -13.6875    160.8626     80.9227   6.0250857786e+01   3.3536694537e+01    0.9323914    0.6058708  18.14  0.003642475    2.553    0.608
        90 -14.4032    169.3764     77.2142   5.7459978859e+01   3.2162822172e+01     1.616723    0.5534915  53.26  0.005447601    2.867    0.651
        91 -13.3038     65.5065     49.2594   7.7062284081e+01   5.9303042427e+01     0.859947     0.552766 -36.04  0.002998824    1.481    0.325
        92 -12.2620     60.1629     60.8402   8.3287377723e+01   5.7999221364e+01    0.6849701    0.3713211  -9.53   0.00247823    3.606    0.723
        93 -13.1000     57.4823     66.8980   8.6340933240e+01   5.7177908237e+01     1.134948    0.7210326  12.84  0.005580879    1.859    0.462
        94 -13.8779     61.0036     75.7406   8.7779682677e+01   5.4842135260e+01    0.6825944    0.4661138 -38.97  0.001289672    1.332    0.249
        95 -13.2225    216.2280     80.7661   5.0385149290e+01   2.0730498783e+01    0.5392027     0.441876 -68.99  0.002796973    1.233    0.189
        96 -12.6789    135.0785     79.7884   6.5881513924e+01   3.9802619319e+01    0.7146639    0.3995497  52.27  0.002783881    1.820    0.451
        97 -11.8456    114.2760     80.2558   7.1607726625e+01   4.4331411045e+01    0.3901597    0.3242441 -55.82 0.0007869173    1.326    0.246
        98 -10.4022     69.4473     80.4433   8.6127740827e+01   5.2592204252e+01    0.2110472    0.1239672 -37.44 0.0008138453    1.648    0.393
        99 -12.9372     72.2550     75.1765   8.3507498894e+01   5.3269206938e+01    0.8160123    0.3745827  24.76  0.003032563    2.956    0.662
       100 -12.0810     80.7699     69.7096   7.8751574436e+01   5.2951080143e+01    0.4914417    0.3961815  49.21  0.002630042    1.432    0.302
       101 -12.7598     87.4863     65.3372   7.5005917581e+01   5.2575259365e+01    0.5399734    0.3658902 -12.45  0.001935001    1.832    0.454
       102 -12.1097     92.0059     60.5142   7.1861941589e+01   5.2592466704e+01    0.4340437    0.2355127  47.21  0.001428615    1.916    0.478
       103 -12.1654     91.4947     56.9865   7.0784362467e+01   5.3310288245e+01    0.4754373    0.2947159  53.53  0.001476436    1.875    0.467
       104 -14.0996     10.8599    102.8179   1.1223639072e+02   5.3530333078e+01    0.7312343    0.6886703 -71.52  0.004328428    1.164    0.141
       105 -11.1263     41.8316     76.3323   9.5261383141e+01   5.7110983010e+01    0.2296383    0.1701469 -57.33 0.0009288273    1.316    0.240
       106 -13.0144     55.1802     81.8142   9.1718024609e+01   5.4306504657e+01    0.5543236    0.4129381 -31.91  0.002476231    1.268    0.211
       107 -12.5114    210.2552     77.5155   5.0481267058e+01   2.2583000503e+01    0.5229585     0.301906 -64.61  0.002224841    2.246    0.555
       108 -13.5321    199.3720     69.9944   5.0259445201e+01   2.6276074118e+01    0.7514513    0.4236356  48.24   0.00242227    1.957    0.489
       109 -12.5641     42.1189     64.3759   9.1646808744e+01   5.9635752457e+01    0.6912178    0.4911649  86.82  0.003259786    2.814    0.645
       110 -12.2394     38.7333     66.7284   9.3745943863e+01   5.9517321099e+01    0.4149461    0.3741834 -66.16  0.002628258    1.331    0.249
       111 -10.3879     33.9428     68.0000   9.6075511221e+01   5.9738072744e+01    0.2369649    0.1757165  17.18 0.0008971026    1.471    0.320
       112 -10.9629    100.0115     65.6747   7.1113329362e+01   5.0068871446e+01     0.211888    0.1815679  36.13 0.0006853265    1.153    0.133
       113 -13.0220    134.0659     65.7055   6.1779201516e+01   4.2562977228e+01    0.6651706    0.6324691 -28.62  0.002337986    1.071    0.066
       114 -13.5550    177.9193     58.0485   5.0562274503e+01   3.3228648600e+01    0.7361627    0.5732647 -51.21  0.002244739    1.272    0.214
       115 -12.3296     79.2243     61.0771   7.6349863644e+01   5.4869732927e+01    0.5286402    0.4350159 -16.77  0.002702004    1.167    0.143
       116 -12.5371     82.4805     54.5093   7.2882684984e+01   5.5454735117e+01    0.4518014    0.3654684   1.30  0.001697256    1.244    0.196
       117 -11.6124     77.6914     53.9819   7.4351334933e+01   5.6414904081e+01    0.2765327    0.2445033 -12.47 0.0006886338    1.045    0.043
       118 -11.9547     24.6186     60.0122   9.7696688648e+01   6.2278163478e+01    0.3344681    0.1960884 -49.72  0.001501575    1.416    0.294
       119 -14.4287    119.9792     54.5554   6.1675524902e+01   4.7645371778e+01    0.8998616    0.6062597  34.79  0.002723945    1.553    0.356
       120 -11.3964     47.5054     57.2979   8.7128669470e+01   6.0413395609e+01    0.2511626    0.2219385 -15.13 0.0009425494    1.066    0.062
       121 -11.5449    109.6721     54.2198   6.4338768677e+01   4.9996521007e+01    0.3149303    0.2547952 -12.84  0.001669229    1.311    0.237
       122 -13.2700    103.0752     50.5711   6.4939249465e+01   5.1998110247e+01    0.6521424    0.4495885 -59.40 0.0008026623    2.068    0.517
       123 -12.0878     97.5057     50.4952   6.6570811054e+01   5.3177154569e+01    0.4349262    0.3304265 -50.96  0.001862521    1.581    0.368
       124 -12.2069    135.4769     50.5628   5.6605584949e+01   4.4642050698e+01    0.5336695    0.3172697  35.45  0.001916631    1.940    0.485
       125 -10.9757     22.6793     50.4702   9.5647590566e+01   6.4382012463e+01    0.2257708    0.1180132  17.34  0.001184506    2.095    0.523
       126 -11.1956    249.4884     48.9830   3.9200229168e+01   1.8509993792e+01    0.1923674     0.155203  87.90  0.001181025    1.253    0.202
       127 -12.6471    158.0223     43.9054   4.9977139837e+01   4.0122643741e+01    0.6815324    0.4292252  39.50  0.003190038    1.803    0.445
       128 -13.9447    217.7377     42.2700   4.0999888332e+01   2.6149578038e+01     1.098089     0.368634  62.97  0.003831886    2.867    0.651
       129 -13.4034    204.9412     40.2509   4.2011349477e+01   2.9329480279e+01     1.162892    0.5043935  89.25  0.003737136    4.531    0.779
       130 -11.7165     88.8763    249.6486   1.1036063524e+02   1.0870766787e+01    0.2886766    0.1497096  44.39  0.001575223    1.567    0.362
       131 -12.2864     24.5251    217.1031   1.2046636842e+02   2.5363643972e+01    0.6179663    0.5150313  47.84  0.004408171    1.290    0.225
       132 -12.1174     14.4211    223.8076   1.2285766843e+02   2.4985157625e+01    0.4063699    0.2405455  71.73  0.001573798    1.389    0.280
       133 -13.5982     25.8834    227.1271   1.2086706825e+02   2.3132157504e+01    0.6589407    0.3611871 -63.59  0.003894406    1.930    0.482
       134 -12.9869    131.5814     32.6004   5.1539345204e+01   4.8002675405e+01    0.6359395    0.4323814 -45.15  0.002832957    1.637    0.389
       135 -12.3377    109.4832     42.1455   6.0121371794e+01   5.1862338708e+01    0.4923647    0.2354072  52.26  0.001427109    1.982    0.496
       136 -13.2414     20.3577    225.4406   1.2182249977e+02   2.4054092688e+01    0.4172513    0.3458703 -68.33  0.002804155    1.434    0.303
       137 -12.5804    113.9343     38.1504   5.7529743931e+01   5.1412566748e+01    0.3923071     0.309512  54.49  0.001439824    1.224    0.183
       138 -10.6967     55.3219     41.1129   7.7923711207e+01   6.2262380450e+01    0.1740185    0.1444622 -18.57 0.0003956144    1.084    0.078
       139 -12.4887     75.9822     37.3083   6.8560522110e+01   5.9401717462e+01    0.3410594    0.2449218  39.93 0.0007771878    1.353    0.261
       140 -12.1144     69.4166     36.5828   7.0620564244e+01   6.0687448423e+01    0.4312685    0.2188347  32.07  0.001256379    2.011    0.503
       141 -12.6109    241.4911     35.9890   3.7196893044e+01   2.1861560587e+01    0.4952621     0.255706  70.96  0.002128953    1.981    0.495
       142 -14.3890     63.1669    214.4884   1.1218137232e+02   2.1393398360e+01     1.018266    0.6203378  48.36  0.005639627    1.457    0.314
       143 -12.4753     68.1586    221.3746   1.1180449405e+02   1.9266965046e+01    0.6225853     0.286714 -73.47  0.002929111    2.359    0.576
       144 -13.3023     95.6930    219.0187   1.0558783322e+02   1.5853573573e+01    0.5314766    0.3106161  43.76  0.002741178    1.514    0.339
       145 -12.5120     46.1152     33.7588   7.8807094393e+01   6.4776299947e+01    0.4697931    0.3108228  -9.92  0.002644336    1.529    0.346
       146 -13.0721     63.0522    224.1290   1.1314846145e+02   1.9363792731e+01    0.7671195    0.3227641  46.13  0.003674255    2.029    0.507
       147 -11.2161    194.8692     23.7072   3.9082148780e+01   3.3731164260e+01    0.2752408    0.2228387  67.71  0.001503809    1.207    0.172
       148 -13.1282     55.9172     27.3044   7.1909237889e+01   6.4284709302e+01    0.6523849    0.3237104  38.62  0.002417055    1.946    0.486
       149 -12.5213     67.6977     24.4291   6.6132151531e+01   6.2673572522e+01    0.5590848    0.3689043  46.10  0.003127486    1.550    0.355
       150 -12.8935    216.6682     29.1166   3.8047985422e+01   2.8075978496e+01    0.3641154    0.1846845 -55.48  0.001564348    1.905    0.475
       151 -10.2523     31.9931     31.0000   8.4101223480e+01   6.7003727371e+01    0.1824713   0.06492909  29.87 0.0005796601    2.880    0.653
       152 -10.8469     98.0711     27.4664   5.7748548656e+01   5.6275755396e+01    0.2094066    0.1222393  51.98  0.001029426    1.587    0.370
       153 -11.6432     36.1433     24.4063   7.9275780092e+01   6.7540298663e+01    0.2420129     0.191068 -74.33  0.001305375    2.965    0.663
       154 -13.0189     28.4632    246.1927   1.2156188810e+02   1.9085020964e+01    0.4415843      0.28554  68.78  0.003014151    1.230    0.187
       155 -12.8672      4.4078    211.7041   1.2409597634e+02   2.8450249623e+01     0.477109    0.2109799 -79.54  0.002631621    1.912    0.477
       156 -10.6929    136.5559    211.4861   9.5467689153e+01   1.0868953565e+01    0.1366387    0.1251459  37.92 0.0001620565    1.010    0.010
       157 -11.8346     72.4835    207.3996   1.0936328370e+02   2.1692001054e+01    0.3384282    0.2571969  78.17   0.00197585    1.270    0.213
       158 -12.2604    224.4428     20.8083   3.5431952406e+01   2.7349971414e+01    0.3402078     0.220008  66.00  0.001767053    1.558    0.358
       159 -12.5615     41.3615    206.1992   1.1611477568e+02   2.5891239917e+01     0.247571    0.1718966  83.51  0.001251235    1.290    0.225
       160 -13.5333     16.4552    196.4518   1.2067949224e+02   3.0670967519e+01     1.103811    0.1684163 -63.40  0.003810344    4.558    0.781
       161 -13.9938     30.1069    169.1306   1.1515290213e+02   3.5729719755e+01    0.7859561     0.481052 -41.67  0.004063073    2.087    0.521
       162 -10.3955    248.5236     18.4239   3.2995167435e+01   2.2580112337e+01    0.1185038   0.09379957 -67.77 0.0001600653    1.017    0.017
       163 -13.8510    171.1661    242.4726   9.2901635831e+01  -2.1334254292e-01    0.7884713    0.5495756  24.64  0.004698361    1.265    0.210
       164 -13.1635     22.1366    181.3249   1.1822129768e+02   3.3600797438e+01    0.4934596    0.3162955 -73.46   0.00201903    1.350    0.259
       165 -11.6809    163.5063    195.0108   8.6668375223e+01   9.4690603267e+00    0.1921057    0.1294599 -74.31 0.0008105923    2.581    0.612
       166 -11.9639    200.9866    191.7429   7.8145296597e+01   3.5187527141e+00    0.3474794    0.2572866 -23.41  0.001432554    1.313    0.239
       167 -10.9931     79.5134    193.0022   1.0596321053e+02   2.3952012973e+01    0.3188098    0.1332704  49.85  0.001268279    2.466    0.595
       168 -12.3137     97.8136    188.0033   1.0083741105e+02   2.2326297856e+01    0.2626274    0.2050093  40.48  0.001406478    1.247    0.198
       169 -11.8935     49.0772    181.5570   1.1187019168e+02   3.0670364110e+01    0.3857358    0.2426192 -51.83  0.002016427    1.723    0.420
       170 -12.0712    198.4335    181.6150   7.6655056624e+01   5.7896331776e+00    0.2828569    0.2718244   7.86  0.001388614    1.151    0.131
       171 -12.2306     85.7076    180.6956   1.0271298293e+02   2.5917566566e+01    0.3467852    0.2292221  54.00  0.001704126    1.530    0.347
       172 -11.3813     95.6922    171.2867   9.8676414801e+01   2.6603243021e+01     0.282099    0.2435248 -26.86  0.001511321    1.374    0.272
       173 -12.5408    124.0858    166.9889   9.0642120032e+01   2.2706713659e+01    0.6339895    0.4133681 -74.16  0.002671585    2.084    0.520
