#   1 NUMBER                 Running object number                                     
#   2 MAG_AUTO               Kron-like elliptical aperture magnitude                    [mag]
#   3 X_IMAGE                Object position along x                                    [pixel]
#   4 Y_IMAGE                Object position along y                                    [pixel]
#   5 X_WORLD                Barycenter position along world x axis                     [deg]
#   6 Y_WORLD                Barycenter position along world y axis                     [deg]
#   7 A_WORLD                Profile RMS along major axis (world units)                 [deg]
#   8 B_WORLD                Profile RMS along minor axis (world units)                 [deg]
#   9 THETA_WORLD            Position angle (CCW/world-x)                               [deg]
#  10 FWHM_WORLD             FWHM assuming a gaussian core                              [deg]
#  11 ELONGATION             A_IMAGE/B_IMAGE                                           
#  12 ELLIPTICITY            1 - B_IMAGE/A_IMAGE                                       
         1 -12.6124     74.1948     51.7465   7.4779770750e+01   5.7631010082e+01      1.42213    0.8331063 -45.93   0.00679037    1.862    0.463
         2 -11.2017     79.1616     33.8071   6.6023822560e+01   5.9512473102e+01    0.9066963     0.543207  26.41  0.004452765    1.787    0.440
         3 -12.1720     26.3887     56.4653   9.6125114351e+01   6.3124774541e+01     1.146736    0.7090474  11.23    0.0064245    1.769    0.435
         4 -11.9608     60.0597     46.2683   7.8084978628e+01   6.0916555861e+01     1.106113    0.7029084 -32.60  0.005866294    1.488    0.328
         5 -11.5686     61.1334     36.5565   7.3779584408e+01   6.2324846102e+01     1.005371    0.6359966   4.99  0.003265978    1.915    0.478
         6 -13.2125     42.6659     45.6572   8.5160836334e+01   6.3468253467e+01    0.7526286    0.6131057  54.29 0.0007317676    1.833    0.455
         7 -12.1760    124.6674     27.9884   5.1375631664e+01   5.0304429774e+01    0.8307043    0.4681754  48.60  0.002156025    1.607    0.378
         8 -12.4253    120.6425     57.4280   6.2400598429e+01   4.7138398669e+01     2.419563     1.463185 -71.97  0.008456297    3.609    0.723
         9 -12.6397    119.3691     37.8203   5.6003309725e+01   5.0331470598e+01    0.8881199    0.6293572 -85.77   0.00315333    2.063    0.515
        10 -11.4252    165.0223     17.9596   4.1252705035e+01   4.1568158099e+01    0.5100802     0.285033  40.16  0.001649717    2.216    0.549
        11 -11.6508      8.2774     32.4418   9.6922260599e+01   6.9193650697e+01     1.986346    0.5292131 -49.73  0.008756769    2.728    0.633
        12 -12.3922     36.6239     17.9998   7.6192192759e+01   6.8667142096e+01    0.7557788    0.6528527   0.74  0.005347251    1.200    0.167
        13 -12.3712     48.6228     12.9203   6.8304647483e+01   6.7555501525e+01    0.5635745     0.414212  24.94   0.00149013    1.176    0.150
        14 -11.9872     20.1470     21.5277   8.6193821117e+01   7.0070225166e+01    0.6859306      0.24342 -41.50  0.003174241    2.422    0.587
        15 -12.8274     16.9851     12.8607   8.3878249496e+01   7.1702538879e+01     0.917051    0.5374683 -20.04  0.004185414    1.499    0.333
        16 -12.1280     22.8351     11.4495   7.9970355289e+01   7.1275993817e+01    0.5046316    0.3283235  -2.86   0.00237781    1.377    0.274
        17 -10.6543    125.7148     20.8795   4.8708291090e+01   5.0842854962e+01    0.9159762    0.4110755  77.69  0.003215058    3.591    0.722
        18 -10.5911    147.1552     16.5514   4.3461683583e+01   4.6092254718e+01    0.4565808     0.293481  44.47  0.002387249    1.593    0.372
        19 -11.5858    136.7593     22.6943   4.7187751031e+01   4.7987705993e+01     1.041489     0.377809  54.56  0.004173898    2.315    0.568
        20 -11.0042    152.2147     25.6301   4.5424811363e+01   4.3877811676e+01    0.7166089    0.4296661  39.63  0.003428807    1.912    0.477
        21 -12.1340    133.8006     15.3623   4.5320189651e+01   4.9460050637e+01     1.450161    0.5952436  73.99   0.00553561    2.879    0.653
        22 -11.3283    105.9284     20.3696   5.2916345625e+01   5.5503489674e+01    0.4532159    0.3679665 -34.44  0.001314566    1.385    0.278
        23 -10.8231    198.7255     29.3704   4.0054982438e+01   3.2130453102e+01    0.5311692    0.3790983 -32.08  0.002865867    1.525    0.344
        24 -10.7154    213.6592     24.8528   3.7381075418e+01   2.9227338607e+01    0.4788637    0.3395137  26.24  0.002532797    2.361    0.576
        25 -11.9327     27.0230     27.9379   8.5430418376e+01   6.8330816370e+01    0.5364357    0.4143565  10.91  0.002290966    1.239    0.193
        26 -11.2314     87.2028      7.5200   5.2593297575e+01   6.0856282617e+01    0.5446085    0.3342326  62.37  0.002025342    1.659    0.397
        27 -11.1992     90.7682     21.2390   5.7268660080e+01   5.8731314550e+01    0.5973147    0.3659644 -27.89  0.002432578    1.742    0.426
        28 -11.2794     86.0117     14.2953   5.5771048037e+01   6.0466975573e+01    0.7411337    0.4141328  17.78  0.003271316    2.258    0.557
        29 -10.9041    178.8515     21.1119   4.0313754078e+01   3.7854880813e+01    0.5545247    0.2673053  47.99  0.001633699    2.348    0.574
        30 -11.9072     68.2089     17.9981   6.3079263892e+01   6.3586847437e+01    0.4869061    0.3903167  23.67  0.001835949    1.060    0.056
        31 -10.8844    242.0951      3.7388   3.0576977171e+01   2.5478337891e+01    0.3187459    0.2022798  72.69  0.001554604    1.560    0.359
        32 -11.9995    234.2889      6.1299   3.1578946720e+01   2.6842190444e+01    0.8078291    0.3845803  88.32  0.004243439    2.028    0.507
        33 -12.1293    246.1857      7.9040   3.1134058208e+01   2.4192275023e+01    0.8670778    0.5427458 -21.20  0.005035551    2.292    0.564
        34 -12.1391    237.8714     16.0153   3.3353779216e+01   2.4987588935e+01    0.6646554    0.3963607  77.95  0.003414104    1.588    0.370
        35 -11.1888    226.5826     15.2645   3.4080022748e+01   2.7479723361e+01    0.4455456    0.2652435 -66.53  0.001679769    1.512    0.339
        36 -10.9349    218.7809      3.2990   3.2102975023e+01   3.0477934039e+01    0.3336207    0.2352416 -41.85  0.001066368    1.415    0.294
        37 -10.6298    211.2884     18.3897   3.6115056108e+01   3.0521457211e+01    0.2852315    0.1928623 -36.35  0.001004175    1.529    0.346
        38 -11.5144    192.2872      9.6167   3.5859044134e+01   3.5869070231e+01    0.9403664     0.499507 -16.30  0.004176979    2.747    0.636
        39  -9.4687    198.3701     17.6204   3.7204414119e+01   3.3587777866e+01    0.2990908    0.1874396  26.23  0.001278028    2.891    0.654
        40 -12.1934    104.8586     13.0037   5.0370820322e+01   5.6484062830e+01    0.4773098     0.374259 -16.64  0.001733204    1.410    0.291
        41  -9.7560     99.2097     10.7963   5.0857294568e+01   5.7955161364e+01    0.3410257    0.1889836  10.14  0.001575236    2.487    0.598
        42 -10.9232    223.6608      1.9142   3.1448691959e+01   2.9554962352e+01    0.4318161    0.1832784  76.43  0.001992295    2.123    0.529
        43  -9.6072      1.2100      8.0812   9.0896577029e+01   7.3781829619e+01    0.2858031   0.06739222 -47.88   0.00120416    3.672    0.728
        44 -10.1635      4.7259     12.6265   9.0876871329e+01   7.2818258326e+01    0.3103585    0.1771296  22.89  0.001989772    1.848    0.459
        45  -8.8145      5.3444      9.2995   8.8936661777e+01   7.3282013707e+01    0.2304677    0.1172628 -22.03 0.0008564129    1.773    0.436
        46 -11.4398      2.8047      1.9669   8.6815493373e+01   7.4557250825e+01    0.3834714    0.1699328  12.04  0.002121634    2.386    0.581
        47 -10.4725     12.5575      1.7519   8.0683897358e+01   7.3684545954e+01    0.3122053    0.1392513  26.99  0.001337987    2.139    0.532
        48 -10.8857    211.5497     10.7597   3.4343293450e+01   3.1306507434e+01    0.3257598    0.2853142  25.16  0.001248699    1.632    0.387
        49 -10.4442    213.4265      5.7498   3.3058778899e+01   3.1412724318e+01    0.2287651    0.2128225 -22.50  0.001056008    1.425    0.298
        50 -10.3733     65.7623     10.2555   6.0406418654e+01   6.4881279151e+01    0.3154295    0.1966797  43.07 0.0009498353    1.412    0.292
        51 -10.2143     62.9430      6.7883   5.9766325082e+01   6.5747849946e+01    0.3320765     0.210027  25.35  0.001553601    1.442    0.307
        52  -9.6037    168.7236      9.8764   3.8517720989e+01   4.1483122801e+01    0.3174426    0.1382387  55.92  0.001439239    2.099    0.523
        53  -9.2679    163.1508     10.0748   3.9268212341e+01   4.2818418166e+01    0.1970908    0.1605543  51.72 0.0006104099    1.266    0.210
        54  -7.0984     78.4758      7.5260   5.5065706274e+01   6.2666798709e+01    0.3223806    0.1918625  63.12  0.001408588    1.904    0.475
        55 -10.2012     76.5121      3.4945   5.3857985855e+01   6.3418474946e+01     0.670563    0.2261828  42.58  0.002877175    2.499    0.600
        56 -10.4970     73.3385      2.6914   5.4444477305e+01   6.4122861082e+01    0.4811393    0.2410381  30.07  0.002413957    1.998    0.499
        57 -10.6159    184.1583      4.9763   3.5513711390e+01   3.8248226309e+01     0.430109     0.302616 -43.01  0.002147098    1.455    0.313
        58  -9.5541    153.5794      7.0654   3.9658626154e+01   4.5428510003e+01     0.215267    0.1533895  56.09 0.0005714597    1.296    0.228
        59 -10.5719     41.6337      4.3319   6.7002987583e+01   6.9615224785e+01    0.3783494    0.2078072   6.70  0.001753698    2.121    0.528
        60 -11.0799    176.9657      5.7903   3.6474615968e+01   3.9886002358e+01    0.3906542    0.2012509  81.54 0.0009998552    1.823    0.452
        61  -9.9901    122.6673      5.1253   4.3852007321e+01   5.3044881234e+01    0.4049151    0.1715145  66.13 0.0005946083    2.072    0.517
        62 -11.1582    111.3063      2.2303   4.4949171316e+01   5.5932284011e+01    0.8517697    0.3587622  75.00  0.003414305    2.950    0.661
        63 -10.7606    105.4003      1.8933   4.6016636638e+01   5.7311202734e+01    0.4842517    0.3053636 -77.29  0.002005897    2.438    0.590
        64  -9.1914    170.1186      3.6969   3.6671454632e+01   4.1724462844e+01    0.2038717    0.1332934 -84.92  0.000580719    1.478    0.324
        65  -9.7028    158.3789      2.5509   3.7730854995e+01   4.4660875441e+01    0.3746721    0.1896397  46.77  0.001810137    2.095    0.523
        66 -12.1048    134.1941      2.5159   4.1057778965e+01   5.0508049376e+01     0.417955    0.2402765  70.64  0.000607462    1.532    0.347
        67  -9.3870     53.8954      3.9826   6.1737516186e+01   6.7638393497e+01    0.1684854     0.150352  84.76 0.0006916274    1.858    0.462
        68 -11.0789    207.6446      2.5665   3.2810425974e+01   3.3035224866e+01    0.2564059    0.1892153  88.57 0.0003752195    1.149    0.130
        69 -10.1164    203.5365      1.5161   3.2906867985e+01   3.4070957103e+01     0.294408    0.1518979  64.30  0.001053956    1.808    0.447
        70  -9.0140     30.1170      1.7843   7.1077423381e+01   7.1570671828e+01    0.1634055    0.1072187   3.46 0.0009384358    1.338    0.253
        71  -9.1641    151.7710      1.3548   3.8215599107e+01   4.6361145106e+01     0.246793    0.1086314  74.65 0.0007497375    2.065    0.516
        72  -9.9367    142.6485      3.3455   4.0058677601e+01   4.8403093111e+01    0.4409472    0.1749068  68.16  0.001923815    2.137    0.532
        73 -10.3847     82.2488      1.3117   5.1277773999e+01   6.2417635444e+01    0.2002116   0.09606226  54.80 0.0003317825    1.762    0.432
        74  -8.8253     33.5207      1.5014   6.9249231780e+01   7.1125472488e+01    0.1198173   0.08787081   8.21 0.0008091998    1.075    0.070
        75  -9.7347     27.4801    139.9983   1.1269569482e+02   4.3297900562e+01    0.3312773    0.2048679 -68.19  0.001074822    1.358    0.263
        76 -10.0920    142.9391    249.6851   9.9533575627e+01   2.6015749752e+00    0.1902977    0.1385775  37.35  0.001159192    1.138    0.121
        77 -11.8808     29.9599    132.9739   1.1101254910e+02   4.4835398335e+01    0.6251491    0.3768621 -89.58 0.0003364372    1.773    0.436
        78 -10.8498     21.2652    136.3764   1.1401542109e+02   4.4742559922e+01    0.4869304    0.2487426 -72.76  0.001539622    1.654    0.395
        79 -10.4487     25.5017    135.4900   1.1267293965e+02   4.4603908230e+01     0.376504    0.2342131 -66.99  0.001392141    1.340    0.254
        80 -10.4397    217.1819    138.3045   6.3639873151e+01   1.0119291986e+01    0.3875227    0.3031252 -59.94  0.001397664    1.484    0.326
        81 -10.3672     47.1640    135.8157   1.0631168056e+02   4.2346825727e+01    0.5207536    0.1741184 -63.61  0.001320902    2.573    0.611
        82 -10.0079     39.9974    138.2345   1.0881619840e+02   4.2517936316e+01     0.287163    0.2170332  33.10  0.001331921    1.483    0.326
        83  -9.9075     80.0382    137.1803   9.6747979771e+01   3.7572155850e+01    0.4563176    0.2871581 -27.60  0.001877592    2.279    0.561
        84  -9.8651     67.1418    135.9819   1.0035165949e+02   3.9776286593e+01    0.4707629    0.1891914 -45.68  0.001689857    2.674    0.626
        85 -10.8273     93.2478    131.3224   9.1602248937e+01   3.6874219528e+01    0.7516367    0.2410893 -58.22  0.002230754    3.443    0.710
        86  -9.9024     73.8349    132.4596   9.7648326017e+01   3.9705976509e+01    0.3232588    0.2622741 -15.81    0.0016419    1.517    0.341
        87 -10.0520     61.9541    132.0129   1.0116934552e+02   4.1489782867e+01    0.4239387    0.3043884 -34.43  0.002098324    1.593    0.372
        88  -9.2824     38.5420    133.3275   1.0849930547e+02   4.3910696649e+01      0.25164    0.1719889  32.62  0.001338949    1.634    0.388
        89 -10.0204    103.9322    130.8637   8.8384246123e+01   3.5080162573e+01    0.2556755    0.2341089 -11.16 0.0002865652    1.206    0.171
        90 -10.5835      9.9893    128.1420   1.1628631063e+02   4.7631864440e+01    0.4462418    0.2246247 -61.28  0.002111802    1.597    0.374
        91  -9.3756     78.8429    128.4574   9.5295123385e+01   3.9952971768e+01    0.3098051    0.1723768 -42.68 0.0006916318    1.887    0.470
        92  -9.8027     81.4946    124.8453   9.3694731481e+01   4.0437954009e+01     0.436623    0.2687102  41.68  0.001947841    1.710    0.415
        93  -9.0019    223.8448    126.7744   5.9886444927e+01   1.0936827961e+01    0.1942109    0.1539806 -56.05 0.0004192785    1.329    0.248
        94 -10.0770     22.9331    127.0257   1.1228083632e+02   4.6938176674e+01    0.1955158     0.162178 -68.12 0.0003368267    1.027    0.026
        95  -8.9190    107.6205    145.8126   9.0657031185e+01   3.0737222145e+01    0.2143038    0.1449224 -66.49 0.0003172721    1.624    0.384
        96  -9.3751     58.5044    118.0760   9.9489782709e+01   4.5454230097e+01    0.2839791    0.1219578 -55.21    0.0011286    2.022    0.505
        97  -9.7423     49.5083    123.1324   1.0337143409e+02   4.5288124513e+01    0.3255321    0.2507812  -8.17  0.001169495    1.640    0.390
        98 -11.2045     45.1321    119.6552   1.0412167561e+02   4.6658018703e+01    0.6405718    0.3741367  87.79  0.002708328    2.445    0.591
        99  -9.8385     53.4709    124.4712   1.0237051984e+02   4.4478887909e+01    0.3691446    0.2003933 -57.15 0.0009951437    1.611    0.379
       100  -9.5528     56.4665    122.4770   1.0103568114e+02   4.4610400770e+01     0.259364    0.1857856 -54.01 0.0008228398    1.257    0.204
       101  -9.6403      2.0497    125.8812   1.1834766852e+02   4.8686838503e+01    0.2259972     0.149507 -79.06 0.0007465006    1.233    0.189
       102 -12.2891    103.9389    122.4612   8.6384311980e+01   3.7120061089e+01    0.4469801     0.406563  13.01 0.0007048575    1.197    0.165
       103 -10.7407     33.5812    144.4252   1.1154501177e+02   4.1608143822e+01    0.4386809    0.2658987  51.70  0.001863659    1.781    0.438
       104  -9.4065     18.9330    122.4990   1.1286987974e+02   4.8381816325e+01    0.1924106    0.1489764 -72.94  0.000419897    1.085    0.078
       105  -8.5914    139.6515    122.2796   7.6500845057e+01   2.9890368534e+01    0.1604351    0.1267463  83.34 0.0004299863    1.642    0.391
       106  -9.2721     71.3470    120.8735   9.5978928396e+01   4.2983386431e+01    0.2127852    0.1774734 -52.18 0.0007615085    1.111    0.100
       107 -10.3216     33.2368    119.4487   1.0790501281e+02   4.7924160673e+01    0.3984994    0.1860497 -35.36  0.001585145    2.832    0.647
       108  -9.0552    221.4737    120.5208   5.8861666393e+01   1.2538448661e+01    0.1439681    0.1283191 -42.56 0.0001219563    1.030    0.029
       109  -9.1010    148.1993    120.2067   7.3820722090e+01   2.8483208436e+01    0.2670902    0.1774539  -0.87 0.0009464779    2.786    0.641
       110  -9.5133    113.5473    116.0744   8.1989340978e+01   3.6775765515e+01    0.2916687    0.2288208 -43.48  0.001383106    1.249    0.200
       111  -9.6697     79.6969    114.9492   9.1974681404e+01   4.3169125024e+01    0.4071189    0.2867236 -88.99  0.001784933    2.011    0.503
       112  -9.1462     68.5228    110.5317   9.4544263497e+01   4.5950720959e+01    0.2208209    0.1355615  45.12 0.0008263907    1.824    0.452
       113  -9.5959     67.0093    114.4817   9.5949211988e+01   4.5196330659e+01     0.330272    0.2290811  66.04  0.001518561    1.921    0.479
       114  -9.2274     65.7535    110.9742   9.5560527943e+01   4.6237179208e+01    0.2226228    0.1977877 -87.36 0.0006113542    1.233    0.189
       115 -11.7065     49.4160     99.2579   9.8423983410e+01   5.1193693773e+01     1.818803    0.6359962 -48.48  0.006859388    2.476    0.596
       116 -11.7848      7.0443     88.8071   1.1163388096e+02   5.7312729215e+01    0.5971732    0.4349282  21.25  0.001769406    1.661    0.398
       117 -11.5173     17.0584    100.9326   1.1015207607e+02   5.3804339550e+01    0.4202057    0.3268155  19.42 0.0003533298    1.535    0.348
       118 -11.4358      9.7554     97.5318   1.1212319932e+02   5.5094720500e+01    0.7622429    0.5714121  87.40  0.001468713    1.436    0.304
       119 -11.6171     27.0918     85.8147   1.0354293626e+02   5.6625010773e+01    0.5253063    0.4609309 -31.39  0.003371135    1.122    0.109
       120 -12.0413     34.7929     93.8572   1.0245353925e+02   5.4042011047e+01     1.260009    0.7609053 -39.87  0.005013127    1.570    0.363
       121 -12.2697     42.6914     85.1967   9.7464432936e+01   5.5262664035e+01    0.9481841    0.4583455  18.40   0.00374394    2.551    0.608
       122 -11.4070     18.7270    106.0490   1.1043960296e+02   5.2444843460e+01    0.2533241    0.2163093 -42.99 0.0002054228    1.167    0.143
       123 -11.6217     22.2012     94.8678   1.0723419280e+02   5.4883054777e+01     0.572224    0.3418922   7.19    0.0022836    2.087    0.521
       124 -11.8885     18.3700     90.1058   1.0770967486e+02   5.6294964557e+01    0.4977636    0.2593999 -62.22  0.001829045    1.569    0.363
       125 -11.8339     24.6033    113.6389   1.0973356499e+02   5.0127601077e+01    0.9108326    0.3664089   9.68  0.003463133    3.971    0.748
       126 -12.3700     25.1339    108.1207   1.0863201833e+02   5.1442582932e+01     1.137374    0.6271701  -7.00  0.005215142    2.701    0.630
       127 -10.2456      6.5284    114.4506   1.1564149536e+02   5.1204740889e+01    0.2381978    0.1985859 -69.52 0.0008813596    1.039    0.038
       128 -12.6326      2.2067    111.3252   1.1660144631e+02   5.2208206771e+01    0.3685544    0.2263788 -73.76 0.0006109251    1.317    0.241
       129 -11.1877      3.9926    104.7901   1.1516350156e+02   5.3685037356e+01    0.4531148    0.3514475  51.33  0.002539193    1.529    0.346
       130  -9.1339    126.8107    113.7927   7.7686111478e+01   3.4563230293e+01    0.2138724    0.1898214 -89.91  0.000866394    1.282    0.220
       131 -10.4503    107.3779    112.1411   8.2757783203e+01   3.8914258561e+01    0.5328515    0.3830611 -69.96  0.002345125    1.721    0.419
       132  -9.3212    103.6840    112.3710   8.3913929811e+01   3.9573630623e+01    0.2596132    0.2172876 -84.43 0.0005411987    1.429    0.300
       133 -10.8230    102.1453    108.5891   8.3380895178e+01   4.0752885239e+01    0.6810247      0.49723 -10.01  0.002402446    1.882    0.469
       134  -9.4874     94.0373    112.5026   8.6875991922e+01   4.1329439058e+01    0.2963191    0.2175976 -69.59 0.0009967402    1.584    0.369
       135  -9.8357     48.8149    112.5002   1.0151870915e+02   4.8027901206e+01    0.2635269    0.2168482 -78.97 0.0009701081    1.248    0.199
       136 -11.0203    170.2923    110.4643   6.6169308543e+01   2.5567629977e+01    0.4548473    0.3506871 -39.23  0.001312901    1.267    0.211
       137 -10.0933    120.5125    109.3158   7.8226780963e+01   3.6904430534e+01    0.3768899    0.2885813 -19.16   0.00135912    1.585    0.369
       138 -11.2765     79.5793    108.3699   9.0403188206e+01   4.4784454946e+01    0.9813606    0.6094885  11.38  0.001215944    2.403    0.584
       139 -10.5808     89.0191    104.7579   8.6435386388e+01   4.4054323222e+01    0.3485448    0.2986388   0.85 0.0004257162    1.309    0.236
       140 -10.3607     85.7142    103.6808   8.7209048396e+01   4.4879999351e+01    0.4425148    0.2533613 -30.36  0.001736299    2.255    0.557
       141  -9.9499    132.4444    111.6892   7.5613785682e+01   3.3824511941e+01    0.3165338    0.1520601 -49.82  0.001140984    2.142    0.533
       142  -9.0823     58.8472    109.4164   9.7503131336e+01   4.7555588415e+01    0.1967749    0.1731771 -73.11 0.0005208549    1.158    0.137
       143  -9.9397    157.3667    106.5045   6.8025521768e+01   2.9341284100e+01    0.3700736    0.2871535  -1.75  0.001655958    1.726    0.420
       144 -10.6672    143.4885    106.0115   7.1233676095e+01   3.2610468625e+01    0.3177185    0.2882548  69.16   0.00160643    1.174    0.148
       145 -11.6229    145.3542    100.1011   6.9144321442e+01   3.3426991750e+01    0.4477846    0.3750998 -36.58 0.0003144404    1.198    0.165
       146  -9.2707    208.8431    101.1209   5.6411653960e+01   1.8695959366e+01    0.2975399    0.2276447 -10.37 0.0002980337    1.695    0.410
       147  -9.3793    209.6721     97.6859   5.5442157230e+01   1.9130718174e+01    0.2422586    0.2088712  -7.02  0.001303818    1.390    0.280
       148  -9.4350    120.9456    101.0367   7.5821231019e+01   3.8654611240e+01    0.2544527    0.1962865  -2.28  0.001132669    1.701    0.412
       149 -11.3480     67.9314     95.6265   9.1022540908e+01   4.9603473736e+01    0.7828538    0.4822178  36.33  0.003675912    1.736    0.424
       150 -10.9679     89.7997     89.6909   8.1969222571e+01   4.7343570616e+01     1.049206    0.5438365 -25.10  0.003480947    3.362    0.703
       151  -9.8759     77.5226     96.5720   8.7998580725e+01   4.7901571007e+01    0.2822077    0.2538721  70.08 0.0005794081    1.309    0.236
       152 -11.3002     79.4888     93.1451   8.6387366218e+01   4.8365304034e+01    0.7993824     0.509698  37.99  0.003717112    1.649    0.394
       153 -10.3930     80.6604     83.8752   8.3288457132e+01   5.0225483142e+01    0.6530591    0.3822699 -44.13  0.002933925    1.620    0.383
       154 -11.4738     72.8874     78.0341   8.4219925185e+01   5.2769149463e+01    0.7669277    0.6304797  43.01  0.004174121    1.349    0.259
       155 -10.1715     57.0214     96.9713   9.5188085955e+01   5.0798980424e+01    0.3397225    0.2629313  53.08  0.001793996    1.556    0.357
       156  -9.8430     57.2656    102.8055   9.6516760220e+01   4.9370986311e+01    0.3479793    0.1827055 -59.31   0.00114823    1.785    0.440
       157 -10.6513     42.7588     94.6033   9.9724524503e+01   5.3055608345e+01    0.3375856    0.3053126 -52.24   0.00092874    1.056    0.053
       158 -10.1692    117.3970     93.7920   7.4745619581e+01   4.0975436396e+01    0.4326876    0.3254246   2.79  0.001921795    1.785    0.440
       159 -11.0350    124.8539     93.7132   7.2641025093e+01   3.9377354668e+01    0.6527519     0.349897  44.31  0.001790658    1.883    0.469
       160 -11.1101    120.8992     88.5099   7.2198621638e+01   4.1324641727e+01     0.655377    0.3880652 -43.10  0.001985173    1.679    0.404
       161  -9.6860    160.1414     93.6690   6.3902177321e+01   3.1275951605e+01    0.4117421    0.2416476  73.12  0.001484844    2.683    0.627
       162  -9.5996    103.3588     93.3117   7.8749618625e+01   4.3970188653e+01    0.3431842    0.2654589 -21.90  0.001633462    1.451    0.311
       163 -10.5307     99.3719     90.9011   7.9272540201e+01   4.5277392631e+01    0.4922655     0.278715  36.80  0.001397578    1.849    0.459
       164 -10.6423    104.8545     86.6319   7.6305094508e+01   4.5100712961e+01    0.5018724    0.3239446 -22.79  0.002099925    1.984    0.496
       165 -10.9646    113.7180     83.5347   7.2729590606e+01   4.3892515068e+01    0.6616399    0.4332274 -30.39  0.002448299    1.668    0.401
       166 -10.6409    152.0614     91.8448   6.5226872077e+01   3.3535424831e+01     0.423282    0.3355466 -75.31  0.001384533    1.526    0.345
       167 -10.6334    183.5436     85.6194   5.6958535881e+01   2.7245346809e+01    0.7835324    0.2951916 -47.90  0.002640384    2.830    0.647
       168 -10.3172     66.5515     88.6949   8.9621594995e+01   5.1402090866e+01    0.3034138    0.2256775 -10.82 0.0008137098    1.581    0.368
       169 -10.4369     66.9521     82.0808   8.7579175276e+01   5.2819333041e+01    0.4144187    0.3785627 -32.61  0.002405668    1.029    0.028
       170 -10.1791     60.5036     83.4490   9.0329062494e+01   5.3448859255e+01    0.2978116    0.2365412 -51.38 0.0005647362    1.206    0.171
       171 -10.8332     58.0861     77.8667   8.9608200875e+01   5.5013752367e+01    0.3597489    0.2649437 -57.93 0.0009505056    1.429    0.300
       172 -11.6524     53.0119     75.7437   9.0914711857e+01   5.6150558674e+01    0.6661852    0.4013271 -55.25  0.003253962    1.639    0.390
       173 -10.5309     47.0573     74.9031   9.2985689306e+01   5.7073009696e+01    0.3951617    0.2378457 -49.89  0.000815751    1.479    0.324
       174 -10.3405    165.8253     83.6277   5.9894226742e+01   3.1824613668e+01    0.3933889    0.3066489 -58.08  0.001251639    1.347    0.257
       175 -10.0774    127.3799     82.9916   6.8771907458e+01   4.0992103441e+01    0.3096987    0.2693329  42.19 0.0009229891    1.147    0.128
       176 -10.9120    126.9129     77.3584   6.7169668832e+01   4.2184588551e+01    0.4669487     0.322711 -24.70 0.0008876799    1.663    0.399
       177  -8.6227      3.3158     83.5909   1.1211012193e+02   5.8719795224e+01    0.1250507   0.08480137  73.30 0.0005660546    1.903    0.474
       178  -8.5797     11.5879     82.7503   1.0882166926e+02   5.8457583713e+01    0.1324187   0.07530923 -34.41 0.0006935084    1.722    0.419
       179  -9.5266     21.1748     80.8717   1.0472216083e+02   5.8237864428e+01      0.18216    0.1658654 -77.94 0.0006511408    1.236    0.191
       180 -10.4443    109.0729     80.8360   7.3254027569e+01   4.5420841167e+01    0.3794732    0.3499492 -33.91  0.001633632    1.074    0.069
       181  -9.8250    103.2550     79.3703   7.4547883434e+01   4.6919374101e+01    0.2960547    0.2090994 -31.54 0.0006858101    1.464    0.317
       182 -11.4495    103.9147     74.0664   7.2652013683e+01   4.7831791251e+01    0.3926803    0.2960442 -50.79 0.0004366718    1.434    0.302
       183 -10.0766    232.9163     77.8554   4.7375297084e+01   1.7500538561e+01    0.3365227     0.189611 -35.51  0.001374084    1.669    0.401
       184  -9.8954     14.8549     67.3400   1.0413671252e+02   6.1718712002e+01    0.3922679    0.2736419  -2.95  0.002222483    1.581    0.368
       185 -11.6441      2.0302     71.3088   1.1032699374e+02   6.1568793543e+01    0.6935704     0.204635 -66.73  0.002854422    2.791    0.642
       186 -12.6656      6.0559     62.3828   1.0671167490e+02   6.3325473367e+01    0.7373945    0.4460743 -11.46   0.00431238    1.820    0.451
       187 -11.1317    142.8919     84.3142   6.5231381859e+01   3.7154634246e+01    0.4597833    0.3331813  41.43 0.0009004383    1.422    0.297
       188 -10.6907     94.4449     76.2470   7.6321116659e+01   4.9300172702e+01    0.5940782    0.3584206  32.04  0.001991594    1.793    0.442
       189 -11.5903     85.7893     73.3220   7.8229476471e+01   5.1519034594e+01    0.7683704    0.4724625  36.94   0.00288107    1.657    0.396
       190 -10.9396     78.8024     67.4996   7.8710601280e+01   5.3922409450e+01    0.4853264    0.3728084  51.43   0.00183987    1.539    0.350
       191  -9.4963    174.7277    246.5681   9.2718067330e+01  -1.7394944831e+00    0.2526788    0.1048194  32.59  0.001148616    2.120    0.528
       192 -11.3609    127.2890    241.8439   1.0173162562e+02   6.3600241129e+00    0.3604496    0.2853693 -70.83  0.001965788    1.539    0.350
       193 -12.2583    186.2248     69.9582   5.2328476428e+01   2.9300236092e+01     1.090668    0.5655662 -42.42  0.003624337    1.842    0.457
       194  -9.4162    114.4314     74.9234   6.9829187001e+01   4.5432184421e+01    0.3255049    0.1913314  32.29  0.001332757    1.986    0.496
       195  -9.6903     64.2816     74.9545   8.6403168852e+01   5.4755275071e+01    0.4546007    0.3393258  28.98  0.001793896    1.403    0.287
       196  -9.0724    163.5065    243.5135   9.4521840116e+01   4.5175974198e-01    0.1277022    0.1070079  29.62 0.0002204894    1.038    0.037
       197 -10.4586     66.0642     53.7204   7.8542575564e+01   5.8654581243e+01    0.3758625    0.3058849 -68.70 0.0008799303    1.814    0.449
       198 -11.4475     21.1396     46.7496   9.5431764271e+01   6.5517297765e+01    0.5034319    0.2859777 -34.08  0.002819401    1.507    0.336
       199 -11.6314     27.1195     47.2160   9.2782586401e+01   6.4889996007e+01    0.8764289    0.4059451 -20.10  0.003654359    3.095    0.677
       200 -10.6522     22.4295     36.8740   9.1314000389e+01   6.7254345867e+01    0.5533299    0.3175367  47.02  0.002738268    3.084    0.676
       201  -9.8035     68.0306    240.4871   1.1375974765e+02   1.5258979828e+01    0.1846436    0.1052559  38.58 0.0009867613    1.572    0.364
       202 -11.2240    147.8638    237.8061   9.6914080419e+01   3.8506660065e+00    0.5436292    0.2207871  42.05  0.002306902    2.151    0.535
       203 -11.0228     52.6432     49.1898   8.2215543719e+01   6.1502875181e+01    0.4601111    0.3775324  53.58  0.002688625    1.705    0.414
       204  -9.9835    167.5991    237.7744   9.2845094437e+01   7.5098769573e-01    0.1596911    0.1261007 -58.08 0.0009526907    1.664    0.399
       205 -11.3573     40.7884     70.8197   9.4302357535e+01   5.8676638107e+01    0.5788614    0.3017323 -49.15  0.002174957    1.650    0.394
       206 -11.5346     32.9751     72.0931   9.7836423034e+01   5.9203196263e+01    0.6540306    0.2595903  27.73  0.002862427    2.721    0.632
       207 -12.1581     58.1923     29.9196   7.2151082937e+01   6.3791390456e+01    0.4557014      0.28811  20.32 0.0009785665    1.603    0.376
       208 -11.7594     48.8579     30.4480   7.6282640550e+01   6.5157285060e+01    0.8216618    0.3396921  39.58  0.003753728    2.473    0.596
       209 -12.1678     47.8645     60.2957   8.8122563510e+01   6.0029241583e+01    0.7637654    0.5607842  26.07  0.004369746    1.432    0.302
       210 -11.1084     41.1002     57.1629   8.9918778114e+01   6.1472611416e+01    0.3840307    0.2632773  34.20  0.001680957    1.648    0.393
       211  -9.4299     22.4137     66.2487   1.0065806927e+02   6.1402841180e+01    0.3974497    0.3230444 -75.42   0.00122005    1.467    0.318
       212  -9.4077    206.1639     73.3519   5.0023677347e+01   2.4077391649e+01    0.1972672    0.1303634  77.07 0.0005767485    1.723    0.419
       213  -9.6878    153.2377     72.8633   5.9484141364e+01   3.6789506845e+01    0.4730993     0.174745  42.41  0.001473716    3.357    0.702
       214 -11.8232    122.9319     69.0330   6.5599941581e+01   4.4627128733e+01    0.5585862    0.5083059  34.72  0.001627924    1.081    0.075
       215 -11.6518     14.0636     74.8601   1.0620856931e+02   6.0101476601e+01    0.4921359    0.3667317 -66.55  0.002321268    1.270    0.213
       216  -9.8590    172.4929     68.5059   5.4365481765e+01   3.2852754275e+01     0.307744    0.2597998  16.10  0.001234178    1.484    0.326
       217 -10.3242    171.5057     64.7183   5.3489043417e+01   3.3712701427e+01    0.5091336    0.3421041 -69.95  0.001774431    1.846    0.458
       218  -9.6958    162.0498     70.7546   5.7024012645e+01   3.5015930494e+01    0.3079201    0.2354391 -62.50  0.001266285    1.433    0.302
       219 -11.4241    219.9574     66.5056   4.6431866679e+01   2.2064758662e+01    0.5850787    0.3538212  58.12  0.002444622    1.757    0.431
       220 -11.3635    234.1029     61.0037   4.3432801890e+01   1.9844196782e+01    0.5700694    0.3666639  61.59  0.002483754    1.681    0.405
       221  -9.7804    192.4404     65.7490   5.0204676894e+01   2.8499706811e+01    0.2778094     0.204578 -74.64 0.0007514381    1.487    0.327
       222  -9.4166     53.3088     66.0465   8.7803822666e+01   5.8158699388e+01    0.2749521    0.1767871  39.55  0.001070022    1.769    0.435
       223  -9.5790    201.5295     64.6372   4.8533730943e+01   2.6537987842e+01    0.3025158    0.2406058  75.75  0.001049174    1.267    0.211
       224  -9.5652    198.2829     62.6249   4.8503973992e+01   2.7610671410e+01    0.2756875    0.2105494 -72.85 0.0009496945    1.347    0.257
       225  -9.5375     84.3406     61.4651   7.4715730087e+01   5.4063776697e+01    0.3471566     0.298241 -20.88  0.001642661    1.116    0.104
       226 -11.6191     91.4910     63.1445   7.2914139057e+01   5.2390549702e+01    0.9409981    0.4069948  46.74  0.003031648    2.391    0.582
       227 -10.9057     87.9610     56.8822   7.1873733318e+01   5.4195944088e+01    0.5733569    0.2652999 -38.42  0.001605022    2.162    0.537
       228 -10.4369     91.8493     57.3374   7.0762300589e+01   5.3354202048e+01    0.3306199    0.2857515  74.92 0.0009852757    1.517    0.341
       229  -9.4741     64.8029     62.0581   8.1988790067e+01   5.7294583052e+01    0.4217581    0.1539121 -40.39  0.001467528    2.645    0.622
       230 -10.5036     59.7646     63.8795   8.4549818681e+01   5.7694901780e+01    0.4165701    0.2820776 -16.98  0.001368196    1.647    0.393
       231  -9.7247     57.3239     61.2998   8.4635713424e+01   5.8556624623e+01    0.2914422    0.2029003  -1.07 0.0005713723    1.645    0.392
       232 -10.4184    158.3775     62.6218   5.5398550191e+01   3.7262730596e+01    0.6288831    0.2255889  46.11  0.002086005    3.058    0.673
       233 -10.0977    106.1046     63.6999   6.8561759231e+01   4.9297301704e+01     0.286076    0.2632172 -58.62  0.001581381    1.232    0.188
       234 -10.5502    198.1174    233.0131   8.5990774164e+01  -3.1808771300e+00     0.326043    0.2753037 -51.57  0.002073221    1.628    0.386
       235  -9.4407     15.3515    233.6540   1.2348968363e+02   2.2844341084e+01    0.2087491    0.1175259 -79.84   0.00108035    1.610    0.379
       236 -10.0324    242.8591    232.1520   7.7545424076e+01  -9.3136436725e+00    0.2281453    0.2113505   3.19  0.001675632    1.485    0.327
       237 -12.3630    117.6792     43.4296   5.8379038884e+01   4.9954807514e+01    0.7634531    0.5886604  83.10  0.002689689    1.653    0.395
       238 -11.5017    114.1011     38.6394   5.7594552285e+01   5.1440052585e+01    0.4902178    0.3476761 -14.04 0.0008727079    1.623    0.384
       239  -9.1732    150.6643     60.7068   5.6407461832e+01   3.9457043553e+01    0.2204226    0.1929676 -38.53 0.0007053264    1.177    0.151
       240  -9.2211    147.3336     60.7102   5.7116605450e+01   4.0267970414e+01     0.274543    0.1303639  56.46 0.0007857186    2.040    0.510
       241 -10.6292     82.0203     40.2190   6.7615936396e+01   5.8039856955e+01    0.4183992    0.3638402 -72.45  0.001454055    1.648    0.393
       242 -10.3204    135.1957     50.6809   5.6638753198e+01   4.4764591493e+01    0.3362284    0.2747562  85.12    0.0015849    1.396    0.283
       243 -10.4858    136.5995     56.8522   5.8300534871e+01   4.3478576635e+01    0.7291235     0.472452   7.95  0.002941671    2.580    0.612
       244 -11.3947    145.8549     47.5509   5.3360334430e+01   4.2633778479e+01    0.9604383     0.409181 -23.73  0.003388323    3.235    0.691
       245 -10.0280    145.5840     39.2548   5.0818654395e+01   4.3841591580e+01    0.2436679    0.1823555  53.49 0.0004756546    1.250    0.200
       246 -10.8544    106.1272     58.3895   6.6739886055e+01   5.0213544924e+01    0.4438553     0.269241  51.30  0.001222203    1.666    0.400
       247 -11.2397    156.7172     53.4003   5.2995153134e+01   3.9107092829e+01     1.085788    0.6002305 -42.84  0.004783086    1.847    0.459
       248 -10.8736    155.8728     42.1574   4.9788116097e+01   4.0919774913e+01    0.4425248    0.4190201  21.09  0.001033143    1.182    0.154
       249 -12.2385    153.0382     35.9017   4.8405185485e+01   4.2440294755e+01    0.3862601    0.3393109  37.74 0.0003641119    1.225    0.184
       250  -9.7562    161.5750     23.4780   4.3326173044e+01   4.1815447667e+01    0.2330328    0.2079308 -72.64 3.683786e-05    1.115    0.103
       251 -10.1618    247.2229    231.5124   7.6677489573e+01  -9.7854585937e+00    0.2093682    0.1403122 -22.98  0.000816455    1.318    0.241
       252 -12.2259    159.9057     29.8965   4.5457284073e+01   4.1485177550e+01    0.4591243    0.4222023 -28.85  0.001124855    1.221    0.181
       253 -11.1513    164.0660     27.6689   4.4165469763e+01   4.0723159347e+01    0.3002521      0.24479 -35.02 0.0004982975    1.331    0.249
       254  -9.5200    238.2891     55.7430   4.1802814304e+01   1.9735459103e+01    0.2152913    0.1356151 -43.07 0.0002816506    1.384    0.278
       255  -9.4354    188.0963     55.1847   4.8108136470e+01   3.1165608278e+01    0.2120898     0.190878  48.50 0.0006787648    1.237    0.191
       256 -10.2624    162.5501     43.6518   4.9051672260e+01   3.9067155104e+01    0.4729732    0.2534502  54.93  0.002120364    1.753    0.430
       257 -10.9371    201.7083     48.9859   4.4576180665e+01   2.8831792742e+01    0.6507698    0.3304932 -26.75  0.002799108    2.381    0.580
       258 -10.6606    199.6101     44.8066   4.3803281571e+01   2.9909810430e+01    0.5120884    0.2468354  73.25  0.002207461    2.213    0.548
       259 -10.6364    245.9670     51.4150   4.0078353493e+01   1.8772222772e+01    0.3949895    0.1956443  81.91  0.001695563    2.506    0.601
       260 -10.5496    240.2806     50.4595   4.0443171050e+01   2.0072696463e+01    0.3077042    0.2371011 -47.99 0.0009471902    1.151    0.131
       261 -10.8779    173.7297     48.1199   4.8453867992e+01   3.5689269711e+01    0.5470822    0.3935157 -78.25  0.002743445    1.555    0.357
       262  -9.3018    176.4277     43.2876   4.6685103957e+01   3.5700807438e+01    0.2914786    0.1988069  86.22  0.001177746    1.575    0.365
       263  -9.0767    104.5743     53.1650   6.5368023797e+01   5.1412439157e+01     0.207705    0.1357125 -19.10 0.0009523851    1.794    0.442
       264  -9.4541     91.2179     48.4686   6.7743701598e+01   5.4954627516e+01    0.2634463    0.1769349 -49.89  0.001078173    1.823    0.451
       265 -10.6556     12.8232     47.8872   9.9744641828e+01   6.5930005635e+01    0.3697321    0.1653565 -34.48   0.00168324    2.000    0.500
       266  -9.3882     23.5703    231.7944   1.2183582990e+02   2.2363596952e+01    0.1837909    0.1106308  48.34 0.0005986685    1.406    0.289
       267 -10.6538     13.9536     23.5319   9.0403382642e+01   7.0316503876e+01    0.2976453    0.1536399 -28.88  0.001177012    1.685    0.406
       268  -8.9615    190.1612    229.8445   8.7040666439e+01  -1.4769845884e+00    0.1795063    0.1344747   3.19 0.0005888227    1.324    0.244
       269  -9.2136    108.5086    229.5019   1.0414790128e+02   1.1587045710e+01    0.1324543    0.1133149  51.61 0.0008105617    1.018    0.018
       270  -9.5953    233.8194    223.1788   7.7595945735e+01  -6.8767284758e+00    0.1787498      0.12223   0.53  0.001075138    1.352    0.260
       271  -8.8130    209.2983    223.7091   8.2254554030e+01  -3.4302659228e+00    0.1102195     0.101528  54.15 0.0002069171    1.560    0.359
       272  -9.5177      9.9983    217.9913   1.2364033249e+02   2.6601200918e+01    0.1462276    0.1065413  80.99 0.0006074896    1.075    0.070
       273 -10.7012    139.7618     43.9129   5.3466361200e+01   4.4634828421e+01    0.3477834    0.2631345  56.80  0.001818788    1.233    0.189
       274  -8.8522    101.4843     44.5121   6.3152201541e+01   5.3418628908e+01    0.1395615    0.1303467  26.24 4.009466e-05    1.035    0.034
       275 -10.4907     94.2031     41.0499   6.4028492177e+01   5.5469511625e+01    0.7210039    0.3229997  50.48   0.00302029    2.168    0.539
       276  -9.3608     94.9448     36.3204   6.2001018177e+01   5.5979335927e+01     0.228215    0.1910911 -84.62  0.001253012    1.689    0.408
       277 -10.2956    189.1849     40.8280   4.4173422375e+01   3.2934234381e+01      0.54715    0.2043201 -26.46    0.0019426    3.497    0.714
       278  -9.9752     17.4025     41.5081   9.5463276248e+01   6.6830782992e+01     0.264567    0.1701874 -24.90  0.001601911    1.368    0.269
       279 -10.4579    231.3891     38.5914   3.8739434295e+01   2.3570849114e+01    0.3568601    0.2394776 -55.76  0.001674612    1.287    0.223
       280  -9.6994    193.7534     38.9393   4.3076084877e+01   3.2090846702e+01    0.2083087    0.1730431  60.39 0.0003198611    1.252    0.201
       281 -10.5807    175.7583     30.6869   4.3316223594e+01   3.7491977535e+01    0.5152787    0.1876699  53.55  0.002006341    2.636    0.621
       282 -10.9820    176.7098     36.6230   4.4808644785e+01   3.6515473350e+01    0.4103007    0.3311004 -35.21  0.002326175    1.326    0.246
       283 -10.0312    172.5219     33.5041   4.4559835896e+01   3.7937397217e+01    0.3506641    0.1937926  71.82  0.001279922    1.760    0.432
       284  -9.7056    132.9468     36.9944   5.2649543754e+01   4.7214371215e+01    0.3673951    0.2419405 -64.27  0.001702771    2.042    0.510
       285  -9.3422    206.8505     37.1754   4.1029416088e+01   2.9243000949e+01    0.2060893    0.1605242 -72.39 0.0006870714    1.173    0.147
       286 -10.4301    164.8178    212.3911   8.9373096100e+01   5.6424223702e+00    0.2812128    0.2212554  48.36  0.000901552    1.342    0.255
       287  -9.5449    153.1152    207.6855   9.1128386413e+01   8.5438730307e+00    0.2250733    0.1988073 -68.64 0.0007163611    1.347    0.258
       288  -9.4412     61.1807    206.7657   1.1196687239e+02   2.3276149797e+01    0.1985429    0.1550201  66.78 0.0007553481    1.127    0.113
       289  -9.8633    148.9405     21.6582   4.4747250979e+01   4.5121956575e+01    0.2744403    0.2302044  40.81 0.0009852102    1.259    0.206
       290 -10.7871    138.2171     33.3101   5.0362201825e+01   4.6402350391e+01    0.5118623    0.3491029 -59.18  0.001872851    1.768    0.435
       291  -9.9847    140.1670     28.4649   4.8422897129e+01   4.6508585692e+01    0.3347648    0.2222082 -46.33  0.001152349    1.656    0.396
       292 -10.2746    144.1161     25.4527   4.6746766981e+01   4.5887531909e+01    0.5339314    0.2653654  69.36  0.002341055    1.983    0.496
       293  -9.9986    238.2166    204.5259   7.3438297680e+01  -4.7535035412e+00    0.2442374    0.1584803 -30.27  0.001409754    1.390    0.280
       294 -10.1350    157.7477     20.3192   4.2971651719e+01   4.3101963984e+01    0.3632206    0.2094787  63.23  0.001811574    1.527    0.345
       295 -10.3710     16.8471    203.3845   1.2134861701e+02   2.9107231821e+01    0.3533623    0.1463694 -83.83  0.001702426    2.206    0.547
       296  -9.7155    127.2252     16.5719   4.6937261150e+01   5.0922385760e+01    0.2108326    0.1790506  37.61 0.0005752422    1.172    0.146
       297 -12.2737      4.7706    184.4924   1.2265988049e+02   3.4470665647e+01    0.6452793    0.4696873  78.72  0.003414685    1.106    0.096
       298 -11.8915    106.0819     32.7638   5.7530589257e+01   5.4024313779e+01    0.6222209    0.3418939  21.98  0.002375776    2.710    0.631
       299 -12.1735    113.7801     25.2299   5.2841812437e+01   5.3175340324e+01    0.8043408    0.3381283  51.34  0.002616771    2.041    0.510
       300  -8.7658    216.6968     32.3012   3.8798007072e+01   2.7621793007e+01    0.1309406    0.1187506 -81.91 0.0003167004    1.125    0.111
       301 -10.3828    245.7841    200.8980   7.1439662337e+01  -5.2838922460e+00    0.1961842    0.1454782  -7.00 0.0007026935    1.176    0.150
       302 -10.7966    240.0452     31.0758   3.6321346331e+01   2.2710090233e+01    0.3806295    0.3010236 -32.78  0.001522172    1.444    0.308
       303  -9.2982     36.1136     31.8697   8.2668422569e+01   6.6646488121e+01    0.1718562    0.1560205  -8.72 0.0004864269    1.252    0.202
       304  -9.3258    221.7174     29.9066   3.7747375279e+01   2.6801607314e+01     0.184768    0.1417919 -52.17  0.001003219    1.177    0.150
       305 -10.6110    189.3591     27.5811   4.0712720297e+01   3.4572802505e+01    0.3591827    0.2844433  -1.90  0.001869131    1.764    0.433
       306 -11.4049    183.2760     25.3944   4.0895805521e+01   3.6295342739e+01    0.5572796    0.3161551  54.71  0.002699491    1.760    0.432
       307  -9.0251     99.5376     30.4776   5.8438251123e+01   5.5756817446e+01    0.1944626    0.1148761  43.53 0.0005061791    1.536    0.349
       308  -9.7578     97.6086     26.4316   5.7408576628e+01   5.6668352158e+01    0.2642209    0.2379106 -51.34  0.001108065    1.348    0.258
       309 -10.3192    230.2528     27.0835   3.6326514318e+01   2.5285885732e+01    0.3462261    0.1799748 -39.54 0.0009491579    1.750    0.429
       310  -8.9217    195.5502    199.7974   8.0667129059e+01   2.7097694764e+00    0.1798089    0.1300912 -50.80 0.0006932922    1.659    0.397
       311  -9.8149    250.5087     26.5074   3.4526595703e+01   2.1141867632e+01    0.1974463    0.1142645 -24.07  0.001035627    2.351    0.575
       312  -8.9037      1.3234    200.3029   1.2436675610e+02   3.1201786206e+01    0.1072707   0.08020956 -56.39 0.0006251079    1.636    0.389
       313  -9.2857     82.6875    196.2502   1.0572702952e+02   2.2661543499e+01    0.3332179    0.2062429  19.44  0.001514264    2.238    0.553
       314 -10.0572    170.0776    191.3715   8.4457810475e+01   8.7472768785e+00    0.4104356    0.2316945  23.33   0.00170935    2.181    0.542
       315 -11.2179      5.9118    199.2198   1.2335972515e+02   3.1044699004e+01    0.7060519    0.1064951 -66.58  0.002506512    4.452    0.775
       316 -10.2187    239.6187    184.9012   6.9444226891e+01  -1.8971651844e+00    0.3566107    0.2152772 -14.04  0.001169192    1.859    0.462
       317  -9.4922    168.8319     23.8285   4.2382307984e+01   3.9993740396e+01    0.2068539    0.1694062  52.67 0.0006337864    1.256    0.204
       318  -9.6898     59.7835     23.8198   6.8836889639e+01   6.4365582580e+01    0.1957104    0.1496583   8.61 0.0006067097    1.178    0.151
       319  -9.9457     60.2863     19.9926   6.6914554251e+01   6.4767346563e+01    0.3295502    0.2494981 -53.80  0.001425048    2.088    0.521
       320  -9.1185    223.2203     22.1816   3.5878826006e+01   2.7411238448e+01    0.1786062    0.1211629 -69.66 0.0005558993    1.309    0.236
       321 -10.0227    250.4337    177.8933   6.6234490382e+01  -2.4123173601e+00    0.3964106    0.1076359 -35.09  0.001405748    3.400    0.706
       322  -9.7910     74.7281     19.4746   6.1489193319e+01   6.2182820725e+01    0.2512282    0.1749969  32.02 0.0007988195    1.273    0.215
       323  -9.6483     27.8793    176.1229   1.1664172947e+02   3.4340850115e+01    0.2310065    0.1714584 -72.86 0.0009881402    1.207    0.171
       324  -9.6311    230.3917    175.6053   6.9221874327e+01   1.0967930761e+00    0.2312545    0.1592126  31.56 0.0005447684    1.524    0.344
       325 -10.7315    234.2707    197.2127   7.2766377728e+01  -3.0463467402e+00     0.466284    0.3177288 -22.32  0.002322663    1.320    0.242
       326 -10.2915     52.0249    173.4772   1.1035026983e+02   3.2302445689e+01    0.5469726    0.2584321  86.42  0.002018665    3.162    0.684
       327  -9.9387    247.9707    173.8925   6.5849878781e+01  -1.4027950443e+00    0.4257816    0.1673054  28.71  0.001562212    3.998    0.750
       328 -10.2291     38.3474    173.0424   1.1375036460e+02   3.3994086116e+01    0.4145963    0.1932663  51.61   0.00188202    2.187    0.543
       329 -10.1980     35.4860    169.4894   1.1407794323e+02   3.5170803033e+01    0.2496253    0.1862673  82.02  0.001060572    1.220    0.180
       330  -8.7581    170.6219    171.8179   8.0461245779e+01   1.2601686681e+01    0.2014306    0.1403619 -53.25 0.0009343267    1.577    0.366
       331 -10.3326    186.3485     15.2361   3.7893848076e+01   3.6690596533e+01    0.2414578    0.1957143  87.05 0.0003722613    1.072    0.067
       332  -9.7825      9.1992    155.7286   1.1936169252e+02   4.0928767165e+01    0.2512101    0.1817432 -63.53 0.0009978514    1.281    0.220
       333  -9.0574    205.4803     17.5017   3.6463437743e+01   3.1950273420e+01    0.1279831    0.1082415 -80.61 1.435688e-05    1.020    0.019
       334  -8.9646    174.2172     15.8738   3.9480847397e+01   3.9545300894e+01    0.1725891    0.1375224  55.84 0.0004642816    1.280    0.219
       335 -11.6647      9.6014    167.1248   1.2024989656e+02   3.8151268245e+01    0.4847722    0.3752092  65.46  0.002337719    1.218    0.179
       336 -11.2814     13.4387    159.4772   1.1863225567e+02   3.9683650367e+01    0.5908288    0.2422467 -67.68  0.002726267    1.962    0.490
       337  -9.1774    198.0140    167.7595   7.3767773463e+01   8.1987269943e+00    0.2011303    0.1845151   0.06 0.0007610763    1.038    0.036
       338  -9.5563    187.6096    168.2048   7.6013563947e+01   1.0075007886e+01    0.3290562    0.1719372 -29.19   0.00128537    2.306    0.566
       339  -9.0854    156.4596    166.0638   8.2503488492e+01   1.6580622884e+01    0.2238985    0.1486461 -46.51 0.0005337235    1.519    0.342
       340  -8.9377    152.4436    166.5186   8.3545815021e+01   1.7268717727e+01    0.1502515    0.1462103   1.34 0.0001039681    1.013    0.013
       341 -10.3415     19.0147    164.9412   1.1774741008e+02   3.7881366630e+01    0.3094197    0.2717546 -19.70  0.001594144    1.533    0.348
       342  -9.9892    204.9902    162.9516   7.1352235598e+01   7.8125106533e+00    0.3947928     0.240848  50.50  0.001707243    1.922    0.480
       343  -9.7258    208.4698    160.4960   7.0147667472e+01   7.6273021313e+00    0.3331819     0.171847 -42.86  0.001436943    1.851    0.460
       344  -9.3608     41.2458    163.9360   1.1195308526e+02   3.5918945093e+01    0.2058675    0.1595142  76.56  0.001177221    1.222    0.181
       345  -9.1072     94.3023     12.4056   5.2729452965e+01   5.8883711851e+01    0.1676939    0.1163301  64.38 0.0006203742    1.498    0.332
       346  -9.6210     38.4047    160.6400   1.1229747778e+02   3.7047826741e+01    0.2763479    0.2050728  37.65  0.001573056    1.458    0.314
       347 -10.1789     27.7877    163.5966   1.1539606381e+02   3.7397191259e+01    0.2892767     0.195986  60.94  0.001338531    1.459    0.315
       348 -10.1239     28.5341    160.4930   1.1486725528e+02   3.8089670215e+01    0.2711912    0.1452846 -69.18  0.001358232    1.585    0.369
       349  -9.3103     78.8868    160.0890   1.0129509163e+02   3.1972508682e+01    0.2305957     0.185864  78.62 0.0006907217    1.292    0.226
       350  -9.4712    223.9754    157.1118   6.6532587316e+01   5.4223975947e+00    0.2723971    0.1697884 -54.89  0.001252631    2.036    0.509
       351  -9.3461    215.3914    157.8159   6.8256048569e+01   6.8472020692e+00    0.2129465    0.1229034 -29.01 0.0009498285    1.764    0.433
       352 -10.8898     31.6669    153.1049   1.1318114202e+02   3.9619670321e+01    0.6240216    0.4546714  76.13  0.003541704    1.348    0.258
       353 -11.1767     15.8929    147.9154   1.1684470148e+02   4.2316593703e+01    0.5139026    0.3201809  71.87  0.001786136    1.643    0.392
       354 -11.6292     13.1063    138.3687   1.1656911401e+02   4.4888613808e+01     1.042745    0.5299495  88.76  0.004960355    2.032    0.508
       355 -10.7329     22.3182    155.2619   1.1592217181e+02   3.9959204035e+01    0.5499845    0.2899392  44.85  0.001722343    1.957    0.489
       356 -11.1330     21.2927    150.6983   1.1569702078e+02   4.1177882047e+01    0.2344826    0.1819512 -85.71 0.0003514771    1.095    0.087
       357 -11.5431     24.3623    147.8197   1.1453720300e+02   4.1622951353e+01    0.3716633    0.2066964 -61.66 0.0007691356    1.544    0.352
       358 -10.3045    104.7803    154.1512   9.3146403124e+01   2.9200311373e+01    0.3878523    0.3427938 -39.14  0.002023983    1.199    0.166
       359 -10.4985      3.3145    152.5819   1.2057878378e+02   4.2120054649e+01    0.3819162     0.214632  68.39  0.002067269    1.782    0.439
       360 -10.7611    135.0625     45.7889   5.5080586319e+01   4.5509867087e+01     0.432329    0.2185694  57.68 0.0003454795    1.867    0.464
       361 -11.0210      3.5444    147.1243   1.2003833103e+02   4.3424311004e+01    0.4072458    0.2521008  75.00  0.001641178    1.556    0.357
       362 -11.5737      2.8850    141.5694   1.1969957083e+02   4.4816794767e+01    0.7658227     0.374407  66.44  0.003171902    2.302    0.566
       363 -11.1305     63.2544    150.6658   1.0406627330e+02   3.6576071480e+01     0.513309    0.3492439   0.13  0.001898796    2.276    0.561
       364 -11.2683     46.7812    146.9435   1.0815578404e+02   3.9566353407e+01    0.7362995    0.3281192 -59.72  0.003176319    1.935    0.483
       365  -9.4148     41.3933    148.8686   1.0995187891e+02   3.9679397602e+01    0.2344292    0.1958243  42.39 0.0006368798    1.303    0.233
       366  -9.5289     71.7265    151.0118   1.0173290201e+02   3.5312491854e+01    0.3162669    0.2505738 -11.81  0.001594184    1.691    0.409
       367  -9.5855    234.5681    149.9620   6.3164879291e+01   4.8148871639e+00    0.3004467    0.1860447 -14.57  0.001378067    2.081    0.519
       368 -10.1104    239.6728    146.6409   6.1612590074e+01   4.5024412792e+00    0.2424901    0.1892152 -28.70 0.0006272983    1.118    0.106
       369 -10.8097    249.6187    142.4687   5.9158932077e+01   3.5164517756e+00    0.6565729    0.2158988 -39.07  0.002550942    2.557    0.609
       370  -9.8831    132.8075    140.5298   8.2716300487e+01   2.7128066168e+01    0.3306076    0.2821156 -72.03 0.0009055706    1.290    0.225
