#   1 NUMBER                 Running object number                                     
#   2 MAG_AUTO               Kron-like elliptical aperture magnitude                    [mag]
#   3 X_IMAGE                Object position along x                                    [pixel]
#   4 Y_IMAGE                Object position along y                                    [pixel]
#   5 X_WORLD                Barycenter position along world x axis                     [deg]
#   6 Y_WORLD                Barycenter position along world y axis                     [deg]
#   7 A_WORLD                Profile RMS along major axis (world units)                 [deg]
#   8 B_WORLD                Profile RMS along minor axis (world units)                 [deg]
#   9 THETA_WORLD            Position angle (CCW/world-x)                               [deg]
#  10 FWHM_WORLD             FWHM assuming a gaussian core                              [deg]
#  11 ELONGATION             A_IMAGE/B_IMAGE                                           
#  12 ELLIPTICITY            1 - B_IMAGE/A_IMAGE                                       
         1 -11.9663    189.6700     32.6156   6.3247214752e+01   3.4318732445e+01    0.8282351    0.6940187  86.24  0.003205819    1.012    0.012
         2 -12.2138    198.1693     21.1520   5.9591143308e+01   3.3736839689e+01    0.6494704    0.5935998  66.97  0.001778014    1.285    0.222
         3 -11.6771    100.9283    229.0916   1.2611994433e+02   1.2627074409e+01    0.7356004    0.5077814  41.32  0.003288132    1.358    0.264
         4 -19.3117      8.4867    131.3539   1.3583481050e+02   4.7511020552e+01     18.74925     2.221138 -70.10   0.04287273    8.388    0.881
         5  -9.4314     77.7814    232.6237   1.3150162025e+02   1.5456545767e+01    0.2856062    0.2023457  30.35  0.001573037    1.659    0.397
         6 -10.7996     95.0896    225.9006   1.2697828118e+02   1.4257181905e+01    0.4993201    0.2733439  45.91  0.002396558    1.646    0.393
         7 -10.0459     71.8562    203.1414   1.2925112387e+02   2.3033817021e+01    0.2604103    0.2422469  65.70   0.00159077    1.146    0.128
         8  -9.7301     74.8554    200.8083   1.2824649858e+02   2.3148333525e+01    0.2280887    0.1917239  75.55 0.0008292593    1.076    0.071
         9  -9.3499     84.1272    200.2016   1.2598566222e+02   2.1883255622e+01    0.2820383    0.1779961  57.42  0.001351889    1.596    0.373
        10 -12.1027    126.1421    230.0076   1.2074593764e+02   8.2299817180e+00    0.9683446    0.3503718  41.63  0.003722728    2.447    0.591
        11 -10.3421    196.0523    195.2467   9.9433063145e+01   2.7496503439e+00    0.5132768    0.4286107 -10.71  0.002746159    1.254    0.202
        12  -9.1046    190.2382    189.7572   9.9564972589e+01   4.9234818062e+00    0.3492057    0.1971953 -59.49  0.001399834    2.407    0.585
        13 -10.4576     52.7574    187.4300   1.3171960749e+02   2.9445184885e+01     0.343788    0.2656521  21.60   0.00191789    1.673    0.402
        14  -9.2717     64.8017    187.3641   1.2881179037e+02   2.7852408514e+01    0.1863935     0.135778  23.53 0.0009565913    1.737    0.424
        15  -8.8663    207.6869    184.1440   9.4845886750e+01   2.8174275533e+00    0.4395789     0.251393 -60.55  0.001764556    2.594    0.614
        16  -8.7513    210.4827    181.5157   9.3756939130e+01   2.8232059597e+00    0.2789499    0.1880717  24.39  0.000976361    1.730    0.422
        17 -10.6544     77.5252    180.6735   1.2468924376e+02   2.7655983832e+01    0.4723686    0.2903924 -41.51  0.002121813    2.009    0.502
        18 -10.4762     81.2114    175.3253   1.2290025252e+02   2.8421602882e+01    0.3705666    0.2979922 -37.74 0.0009402857    1.472    0.321
        19  -8.6144     99.2878    180.5630   1.1919267404e+02   2.4177530860e+01    0.1976166    0.1470946  25.79 0.0009420732    1.592    0.372
        20  -9.5714    197.5189    174.4768   9.4922085724e+01   6.6679983289e+00    0.5402165    0.2828121 -52.49  0.002191567    2.093    0.522
        21  -8.5961    125.3374    172.6602   1.1116572488e+02   2.1384514761e+01    0.1642621    0.1194158  78.52 0.0007050759    1.760    0.432
        22  -9.5067    102.7975    171.7046   1.1671468702e+02   2.5755825183e+01    0.3867598    0.2560935  68.43  0.001669392    1.882    0.469
        23 -12.8088     53.4490    149.1153   1.2595141001e+02   3.8877415771e+01     1.373492    0.6789834 -43.64  0.005810611    2.246    0.555
        24 -12.7847     58.5847    130.2887   1.2103275524e+02   4.2885123137e+01     1.435285    0.4787013 -63.84   0.00475532    3.252    0.693
        25 -10.8045     88.5926    165.4108   1.1926785584e+02   2.9727695123e+01    0.5477175    0.3362238  48.47 0.0002144336    1.689    0.408
        26 -12.1795     77.6199    161.0827   1.2141410136e+02   3.2541368007e+01    0.6838935    0.6197485 -72.42  0.001155139    1.022    0.022
        27 -12.5268     68.1163    144.0546   1.2092275125e+02   3.8202447599e+01     1.248432    0.7505934  85.51  0.004935323    2.613    0.617
        28 -11.6772     69.9679    134.8082   1.1857163439e+02   4.0229921882e+01    0.7767549    0.5149483 -87.35  0.003465622    2.031    0.508
        29 -10.6722     94.6327    142.5126   1.1310469078e+02   3.4427071423e+01    0.2955512    0.2849503   9.71 0.0002818333    1.139    0.122
        30  -8.7958    134.0000    142.5018   1.0249636678e+02   2.6901042309e+01    0.3553807   0.08891606 -49.05 0.0009340055    3.929    0.745
        31  -9.3187    106.7269    141.9095   1.0961615849e+02   3.2412494039e+01    0.4770547    0.2903861 -33.65    0.0019132    2.078    0.519
        32  -9.7937    114.4529    131.5756   1.0511676927e+02   3.3432803711e+01    0.3207086    0.2703273 -22.44  0.001015693    1.360    0.265
        33  -9.3516    101.8273    128.2992   1.0786952637e+02   3.6601733617e+01     0.288865    0.2276489 -32.63 0.0009156942    1.375    0.273
        34 -10.5118     94.6381    158.0802   1.1627866361e+02   3.0555748272e+01    0.6279154    0.4257376 -37.51  0.001618138    1.725    0.420
        35  -8.5943    159.7391    127.2367   9.2537626355e+01   2.4836286955e+01    0.2486136    0.1259426  36.56 0.0008819518    2.400    0.583
        36  -8.8238    105.9893    130.9672   1.0732178487e+02   3.5195129120e+01    0.2426177    0.2339773 -65.53  0.001135443    1.013    0.013
        37 -10.5739    116.5085    231.5032   1.2305772116e+02   9.5488303956e+00    0.3864888    0.2710407 -65.33  0.002060612    1.553    0.356
        38 -11.3671    112.6088    229.2397   1.2359374299e+02   1.0676602788e+01    0.7919033     0.493476  15.14  0.003344531    2.797    0.642
        39  -8.7973    109.8541    120.1176   1.0360237482e+02   3.7009649800e+01     0.224135    0.2065891 -89.08 0.0003367846    1.169    0.144
        40  -7.8393    140.3506    156.7323   1.0409371333e+02   2.2224570362e+01    0.1603751    0.1224884  75.78 0.0002568509    1.622    0.384
        41  -8.5098    167.4982    112.5041   8.7141458649e+01   2.6227388658e+01    0.1560741    0.1470589 -79.12 6.395839e-05    1.039    0.038
        42  -8.2277    120.3113    111.3238   9.8445327412e+01   3.6901489933e+01    0.1562277    0.1229558  -5.83 0.0007039179    1.656    0.396
        43  -7.9728    205.7295    109.9847   7.8988703018e+01   1.8093603071e+01     0.190134    0.1222538 -43.63 0.0006571864    1.466    0.318
        44 -10.8439     71.8893    228.8466   1.3232205580e+02   1.7143836051e+01    0.4751068    0.3210972 -79.21  0.002020363    1.445    0.308
        45  -7.8327    134.3115    102.6641   9.2442814707e+01   3.5769824140e+01    0.1578486    0.1221649 -85.08 0.0007044902    1.684    0.406
        46  -9.2869    166.5496     66.8350   7.5529765975e+01   3.4921631404e+01    0.3240573    0.2168321  79.19 0.0007786857    1.720    0.419
        47 -11.0528    179.3915     41.0778   6.6733684393e+01   3.5640317460e+01    0.4484665    0.2751082  55.74     0.001216    1.552    0.356
        48 -10.8618     94.9666    238.3308   1.2855194819e+02   1.1617590138e+01    0.5088685     0.240161  49.90  0.001542198    1.918    0.479
        49 -11.0216    166.1968    236.4556   1.1312944370e+02   9.4689320003e-02    0.5406451    0.3354024   4.16  0.002283423    2.806    0.644
