#   1 NUMBER                 Running object number                                     
#   2 MAG_AUTO               Kron-like elliptical aperture magnitude                    [mag]
#   3 X_IMAGE                Object position along x                                    [pixel]
#   4 Y_IMAGE                Object position along y                                    [pixel]
#   5 X_WORLD                Barycenter position along world x axis                     [deg]
#   6 Y_WORLD                Barycenter position along world y axis                     [deg]
#   7 A_WORLD                Profile RMS along major axis (world units)                 [deg]
#   8 B_WORLD                Profile RMS along minor axis (world units)                 [deg]
#   9 THETA_WORLD            Position angle (CCW/world-x)                               [deg]
#  10 FWHM_WORLD             FWHM assuming a gaussian core                              [deg]
#  11 ELONGATION             A_IMAGE/B_IMAGE                                           
#  12 ELLIPTICITY            1 - B_IMAGE/A_IMAGE                                       
         1 -14.4876    226.7542      8.1752   3.2803816151e+01   2.8100384209e+01     2.092401     1.127251  49.65   0.01103747    2.406    0.584
         2 -13.8928    183.0163     52.3003   4.8581418854e+01   3.2714939555e+01     1.239969    0.9413942  35.73  0.004268379    1.553    0.356
         3 -13.9548    195.9082     41.7262   4.3909469131e+01   3.1109338311e+01     1.002323    0.8142254 -65.48  0.003309317    1.189    0.159
         4 -14.1478    203.2201     34.4435   4.1152564763e+01   3.0341043343e+01    0.9019619    0.8223351  -9.74  0.001401249    1.345    0.256
         5 -13.3079     58.2010      3.7185   6.0616723262e+01   6.6291388224e+01    0.8158274    0.2402297  43.97  0.003456965    2.782    0.641
         6 -12.0861     32.5542      2.8015   7.0866310157e+01   7.0445743855e+01    0.2807032    0.1989693  25.14   0.00189645    1.274    0.215
         7  -9.2068     66.0000    217.0380   1.1228069245e+02   2.0448969243e+01    0.1460425     0.121893  89.38 0.0003815369    1.135    0.119
         8 -16.7489     69.5618    146.4796   1.0189354196e+02   3.6464208989e+01     14.54495     7.632861  74.92   0.03095238    4.290    0.767
         9  99.0000     63.0168    214.0656   1.1261571885e+02   2.1464866266e+01    0.4784375     0.254809 -83.54  0.001625506    2.126    0.530
        10 -11.0731     24.4984    203.0090   1.1979707478e+02   2.8271973239e+01     0.486186    0.1828675  35.06  0.002360244    2.530    0.605
        11 -11.5460     72.1095    244.8395   1.1368495911e+02   1.4118173909e+01     0.379395    0.2128551  56.61 0.0007387736    1.607    0.378
        12 -11.9009     62.6651    200.0146   1.1119557999e+02   2.4582800695e+01    0.4553573    0.2164827 -61.02   0.00138993    2.038    0.509
        13 -11.0705     66.0292    194.9666   1.0984311363e+02   2.5284566647e+01     0.316924    0.2419086  57.40 0.0009269517    1.227    0.185
        14 -13.2274     50.2859    196.0065   1.1356178490e+02   2.7018580209e+01    0.4340667    0.3474477 -25.74  0.001232155    1.793    0.442
        15  -9.0279     65.6704    206.9766   1.1129197691e+02   2.2652443285e+01    0.3743601    0.3044032  13.29  0.001381754    1.623    0.384
        16 -10.7701     89.6028    211.6717   1.0653137922e+02   1.8326861821e+01    0.2603212    0.2033745  83.19  0.001514949    1.340    0.254
        17  -9.8010     82.3219    194.8626   1.0602727514e+02   2.3063957799e+01    0.2399205    0.1692576  50.70  0.001078863    1.349    0.259
        18 -10.7652    151.8109    193.7874   8.9634699647e+01   1.1908631520e+01    0.3109076    0.2444549 -58.44  0.001146203    1.468    0.319
        19 -12.0933    147.8148    187.2827   8.9353645744e+01   1.3950236630e+01    0.5137354    0.3284819 -58.83  0.001879182    1.865    0.464
        20 -10.6989     57.0245    211.2504   1.1362019741e+02   2.2825893568e+01    0.3597696    0.2930201  32.72  0.001589228    1.374    0.272
        21 -11.5376     55.4541    206.2551   1.1346236723e+02   2.4106911692e+01    0.3866471    0.2559632  72.22   0.00104501    1.482    0.325
        22 -13.4518     61.5185    183.8674   1.0955636621e+02   2.8434759643e+01    0.8571801    0.7068946 -26.00  0.003889078    1.608    0.378
        23  -9.4328     71.4647    215.4659   1.1094516928e+02   2.0059524135e+01    0.1268515    0.1104106  66.98 2.317103e-05    1.011    0.011
        24  -9.5365     60.3100    219.0450   1.1368150919e+02   2.0757026202e+01    0.1632355    0.1269234  81.79 0.0003680424    1.181    0.153
        25 -10.2343     91.0881    183.0303   1.0222940649e+02   2.4475441017e+01    0.2551737    0.1969359 -71.55 0.0007465321    1.314    0.239
        26 -11.8421     99.2985    180.9748   9.9883458962e+01   2.3670850024e+01    0.2905212      0.27576  15.05 0.0006490844    1.160    0.138
        27  -9.2816     42.0031    178.9651   1.1366838739e+02   3.1914740526e+01    0.1490538    0.1259116 -88.98            0    1.022    0.022
        28 -12.5041    241.6655    177.1864   6.8185971336e+01  -5.0266680476e-01    0.4792707    0.2800178  10.24  0.002242916    2.314    0.568
        29 -11.4746    187.0457    175.4700   7.8313525506e+01   9.1388311161e+00    0.4325938    0.3140597 -45.77  0.001366195    1.453    0.312
        30 -10.6429    184.9883    167.9914   7.7181736303e+01   1.0968914210e+01    0.3430198    0.2108363 -48.66  0.001080263    1.756    0.430
        31 -10.6002    148.3921    175.1804   8.6898231003e+01   1.6396723268e+01    0.2986509    0.2090015 -63.29 0.0005940347    1.765    0.434
        32 -11.1986    146.3340    171.6851   8.6687242722e+01   1.7532403180e+01    0.2774357    0.2624758 -75.01 0.0006554155    1.175    0.149
        33 -11.7124    184.6371    212.2621   8.5865475026e+01   2.8514320540e+00    0.2986726    0.2335694  25.04  0.001329728    1.150    0.130
        34  -9.8073     47.2791    173.4270   1.1175050508e+02   3.2639884618e+01    0.4629571    0.1440018 -50.76  0.001644376    3.543    0.718
        35  -9.9965     45.7847    169.7976   1.1168281911e+02   3.3681756180e+01    0.5730188    0.2584114  41.72  0.002620338    2.198    0.545
        36  -9.6920     70.7058    184.9828   1.0748229740e+02   2.6962042994e+01    0.1839202    0.1576711 -85.92 0.0002190008    1.092    0.085
        37 -11.5897    240.2595    169.2540   6.6816134417e+01   1.0035671448e+00    0.2415379    0.1466751 -31.43 0.0006902711    1.435    0.303
        38  -9.8912    193.3235    170.0168   7.5861103977e+01   9.0218283200e+00    0.2081478    0.1769033 -29.25 0.0005596894    1.125    0.111
        39 -11.4420    230.5089    167.9816   6.8261774459e+01   2.8114820251e+00    0.3207999    0.1169009 -43.06  0.001221093    2.721    0.633
        40 -11.1052    134.6123    164.2387   8.8019257025e+01   2.1373189551e+01    0.5716876    0.3745216  75.16  0.002199143    2.703    0.630
        41 -10.8003     51.2677    164.0051   1.0954723591e+02   3.4456854868e+01    0.3902599    0.2226001 -41.84  0.001816271    2.138    0.532
        42 -12.3860     92.3868    151.2504   9.6438482941e+01   3.1877688106e+01    0.7193098    0.5375411 -19.83  0.003416302    1.754    0.430
        43 -12.1135    133.8734    145.4806   8.4174184784e+01   2.5782124894e+01     1.343272     0.348555 -53.88  0.003140386    5.634    0.823
        44  -9.7741    112.2939    150.3118   9.0870341076e+01   2.8711922704e+01    0.2399035    0.1738159  78.25  0.001044494    1.925    0.480
        45 -10.3751    174.8547    149.1278   7.5224236782e+01   1.6741724138e+01    0.2274069    0.2120902 -77.69  0.000558612    1.267    0.211
        46 -10.3118     49.4180    216.9589   1.1576137019e+02   2.2532787783e+01    0.4998651    0.3270597  66.27  0.002980807    1.397    0.284
        47 -17.0893      1.4728     92.6192   1.1399590726e+02   5.6048812128e+01     13.99389          nan -69.40   0.01808491   26.884    0.963
        48 -11.0212    104.8831    137.6975   9.0178811206e+01   3.3057429224e+01    0.5884395    0.3429645 -26.75  0.002179955    2.616    0.618
        49 -11.2529    106.0303    130.7821   8.8288397318e+01   3.4510940264e+01    0.3921959    0.3278696 -62.15   0.00120999    1.229    0.187
        50 -12.4948     92.5535    137.2738   9.3566523355e+01   3.5270453375e+01    0.2987829    0.2706256 -36.23 0.0004048748    1.119    0.106
        51 -11.3859     41.5409    207.3502   1.1656526895e+02   2.5509920466e+01     0.397341    0.1962729  79.37   0.00184322    2.358    0.576
        52 -11.8407    135.7454    128.4954   7.9672717269e+01   2.9268634397e+01    0.8263698    0.2010845 -49.14  0.002098864    4.461    0.776
        53 -10.2439    135.4159    102.7503   7.2988292830e+01   3.4968300470e+01    0.3241275    0.2164209 -22.89  0.001103149    1.829    0.453
        54 -11.2084    113.2804    128.7502   8.5774383337e+01   3.3652657354e+01    0.3806535    0.2957897  19.82 0.0008242634    1.471    0.320
        55 -10.0955    160.9068    128.3363   7.3442423182e+01   2.4002267905e+01    0.2875718    0.2159494 -52.58  0.001331729    1.402    0.287
        56 -11.1311    100.4500    124.7256   8.8463475143e+01   3.6958414612e+01    0.2904536    0.2395437 -13.13 0.0005241628    1.401    0.286
        57 -11.7822    119.8919    122.7587   8.2473911546e+01   3.3773160112e+01    0.5678957    0.4040742  -2.66  0.002373576    2.039    0.510
        58  -9.9820    108.9588    118.1093   8.4376944676e+01   3.6961466446e+01    0.2224531    0.2138014 -27.41 0.0002876595    1.012    0.012
        59 -10.7893    231.3599    113.9011   5.6258995404e+01   1.2010245834e+01    0.2817169    0.2309591 -37.10 0.0008517797    1.071    0.066
        60  -9.7520    167.8328    112.7118   6.7887804592e+01   2.5722099867e+01    0.3064008    0.2014474 -65.28  0.001226976    2.157    0.536
        61 -12.0955    116.7745    109.1625   7.9808186057e+01   3.7483007978e+01    0.7203872    0.5525148  65.80  0.003316944    1.655    0.396
        62 -12.1606    193.6537    197.0364   8.1219752157e+01   4.0021016756e+00     1.475004    0.7795814 -59.09  0.005348822    3.932    0.746
        63 -10.2649    205.4994    110.1954   5.9717928605e+01   1.7940474960e+01    0.2991634    0.2126159  40.88  0.000923453    1.548    0.354
        64 -11.8125    203.7178    200.5533   7.9860189521e+01   1.7222508206e+00    0.3730972    0.2036064  24.02  0.001721092    1.984    0.496
        65 -11.2252     72.1545    249.0167   1.1404312275e+02   1.3338611696e+01    0.2035528    0.1529759 -80.48  0.001372112    1.406    0.289
        66 -11.6870     39.5691     88.5520   9.9600384062e+01   5.4188953465e+01     0.352342    0.2319098  18.34  0.001363247    1.732    0.423
        67  -9.5048    157.0315     82.7204   6.2080701507e+01   3.3987481453e+01    0.2125878    0.1943799  49.79 0.0004033356    1.102    0.092
        68 -18.4160     15.7548    234.5004   1.2354807738e+02   2.2621552831e+01     7.182523      5.33163  66.83   0.05183297    1.045    0.043
        69  -9.3987    184.5909     77.1920   5.5042157812e+01   2.8462869064e+01    0.2006623    0.1403419 -22.88 0.0006185918    1.627    0.385
        70  -9.6903     83.9085    245.3649   1.1142658064e+02   1.2446472735e+01    0.1959928    0.1438462  77.19 0.0005596072    1.402    0.287
        71 -12.5111     49.2094    249.4399   1.1838761951e+02   1.6116073367e+01    0.2039534    0.1561622  78.22 0.0006205578    1.158    0.136
        72 -10.6691    250.4266    237.7412   7.7897566644e+01  -1.0392188129e+01    0.1653237   0.08943957 -19.52 0.0009547506    1.696    0.410
        73 -10.1892    167.9242    232.2786   9.2616749128e+01   2.1550870059e+00     0.225609    0.1808424  18.13 0.0008927332    1.122    0.109
        74  -9.9063    189.8134     14.8959   3.7795520884e+01   3.5705321134e+01    0.1863342    0.1675424  56.13 0.0006331095    1.222    0.181
        75  -9.9349     58.2951    226.3284   1.1477437148e+02   1.9505360924e+01    0.3601501    0.1927596  73.37  0.001829073    2.124    0.529
