#   1 NUMBER                 Running object number                                     
#   2 MAG_AUTO               Kron-like elliptical aperture magnitude                    [mag]
#   3 X_IMAGE                Object position along x                                    [pixel]
#   4 Y_IMAGE                Object position along y                                    [pixel]
#   5 X_WORLD                Barycenter position along world x axis                     [deg]
#   6 Y_WORLD                Barycenter position along world y axis                     [deg]
#   7 A_WORLD                Profile RMS along major axis (world units)                 [deg]
#   8 B_WORLD                Profile RMS along minor axis (world units)                 [deg]
#   9 THETA_WORLD            Position angle (CCW/world-x)                               [deg]
#  10 FWHM_WORLD             FWHM assuming a gaussian core                              [deg]
#  11 ELONGATION             A_IMAGE/B_IMAGE                                           
#  12 ELLIPTICITY            1 - B_IMAGE/A_IMAGE                                       
         1 -14.9647    163.8545     42.2204   7.8666969865e+01   3.9043718843e+01     1.444681     1.102177 -13.80  0.003844083    1.478    0.324
         2 -14.5780    178.0326      9.3533   6.6228004248e+01   3.9239550460e+01     1.184721    0.9818553  60.66  0.004243232    1.142    0.124
         3 -13.6761    195.1519      5.4943   6.3142235793e+01   3.5249698542e+01    0.9991091    0.4742601 -83.12  0.003976819    2.709    0.631
         4 -11.9391    189.6523     14.5347   6.6315298624e+01   3.5738379441e+01    0.2489208    0.2172105 -51.08 0.0008522744    1.153    0.133
         5 -11.3568    125.0489    243.8866   1.3102034003e+02   9.4690388030e+00    0.1647492    0.1394188 -72.45 0.0008057225    1.416    0.294
         6 -19.9413     73.8556    170.8208   1.3253481956e+02   3.1015929093e+01     17.29672     7.013031 -66.85   0.07507615    2.446    0.591
         7 -10.9251     25.6476    230.1220   1.4720860937e+02   2.5052541275e+01    0.1679749   0.08100371 -82.99  0.001063292    1.855    0.461
         8 -12.7494    153.2065    184.4322   1.1724346867e+02   1.4845498225e+01    0.4410661    0.3164885 -82.75  0.002179313    2.030    0.507
         9 -10.8798     25.3854    224.8686   1.4695668597e+02   2.6027509123e+01     0.158766   0.09779726 -77.26 0.0007274896    1.536    0.349
        10 -11.5322     36.2890    186.5639   1.4226415955e+02   3.2320093353e+01    0.2459971    0.2137064 -16.07 0.0008476655    1.915    0.478
        11 -12.4889    117.2261    180.5944   1.2430218456e+02   2.2105595108e+01    0.7852696    0.3815641  67.81    0.0025454    4.434    0.774
        12 -10.4465    108.3908    182.4887   1.2651551519e+02   2.3214085392e+01    0.2163842    0.1832815  81.67 0.0001453835    1.134    0.118
        13 -12.2294    199.8165    179.3074   1.0691477257e+02   6.8649057608e+00    0.4002236      0.27801 -70.35  0.001642003    2.663    0.625
        14 -13.4309    195.6791    169.5315   1.0577247407e+02   9.2889702203e+00    0.5620797    0.4675864 -48.93 0.0008305698    1.374    0.272
        15 -12.0784      4.4245    178.8110   1.4800641986e+02   3.6997265678e+01    0.2685091    0.2260515  70.44  0.001527049    1.240    0.194
        16 -13.3812    177.6442    171.3786   1.0975215952e+02   1.2524518013e+01    0.5706046    0.3702639 -58.79  0.002666639    2.033    0.508
        17 -13.2538    138.3980    171.1103   1.1805417493e+02   2.0205604336e+01    0.7564288    0.5848828  72.83  0.003989193    1.472    0.321
        18 -13.9018    145.1673    169.6930   1.1630959837e+02   1.9202191721e+01     0.878476    0.5541306  84.46  0.003427016    3.061    0.673
        19 -10.4470     22.4269    221.3610   1.4725876958e+02   2.6980089002e+01   0.09989902   0.07918102  75.28 0.0004633542    1.171    0.146
        20 -10.0297     11.4671    173.9948   1.4629164276e+02   3.7392141393e+01    0.1623115   0.08676492 -76.28 0.0009929459    1.524    0.344
        21 -11.7940    230.3251    166.8816   9.8787370039e+01   3.0804498633e+00     0.299134    0.1553898 -43.87  0.001356253    2.200    0.545
        22 -11.2486    123.0942    165.9675   1.2055674631e+02   2.4096394205e+01    0.3567272    0.1917761  60.87  0.001174215    2.370    0.578
        23 -10.0599    139.0402    250.1138   1.2923171787e+02   6.3814714247e+00    0.1631123    0.1287745  36.39 0.0006566067    1.209    0.173
        24 -10.7728     25.4778    165.0350   1.4264087815e+02   3.8013428312e+01    0.1881955    0.1653536 -15.49  0.001329588    1.757    0.431
        25 -11.7211    111.6301    213.7082   1.3005138973e+02   1.6636819078e+01     0.185463     0.140166  63.62 0.0003226391    1.191    0.161
        26 -11.5610    130.0826    161.3133   1.1811689695e+02   2.3782076104e+01     0.249264    0.2036622 -74.65 0.0004907704    1.324    0.245
        27 -12.4245    193.5974    164.7439   1.0520043342e+02   1.0523584636e+01    0.3744614    0.3320334  43.94  0.001383068    1.136    0.120
        28 -12.9380    162.8751    154.6654   1.0946032065e+02   1.8647711701e+01    0.4142742    0.3348044 -41.28  0.001142321    1.291    0.226
        29 -12.3271    160.3239    152.3022   1.0951746241e+02   1.9638510610e+01      0.34579    0.2499346 -32.96 0.0009857519    1.535    0.348
        30 -11.5347    165.2787    172.1236   1.1245921903e+02   1.4823661932e+01    0.2546793    0.2007115 -69.09  0.001331356    1.585    0.369
        31 -11.4679    125.8411    171.8617   1.2096749735e+02   2.2372269107e+01    0.3093551    0.2370833 -64.30  0.001047109    1.380    0.276
        32 -12.6027    108.9728    209.1650   1.3001556265e+02   1.7893934199e+01      0.45524     0.307876  86.57  0.002570839    1.736    0.424
        33 -11.7811    174.2974    148.6830   1.0572104508e+02   1.7426207978e+01    0.3389632    0.2731666 -74.25   0.00116588    1.592    0.372
        34 -11.5548     22.9085    154.9132   1.4227250436e+02   4.0471904853e+01    0.4018541    0.1997468 -73.27  0.002236558    1.644    0.392
        35 -10.8172     21.6898    240.9315   1.4841506876e+02   2.3581219723e+01    0.1312576    0.0872223  84.46 0.0009691731    1.229    0.186
        36 -10.1278     22.6142    140.2134   1.4084824901e+02   4.3779225830e+01    0.1733156    0.1221086 -75.49 0.0003014781    1.150    0.131
        37 -12.1371     27.1684    136.3771   1.3929332316e+02   4.4238365103e+01    0.3879418    0.2553024  -9.82  0.002100298    2.724    0.633
        38 -11.8436      5.8171    138.1519   1.4467114138e+02   4.5586950354e+01    0.3571912    0.2177345  53.14  0.001717702    1.678    0.404
        39 -10.8759     11.2845    138.0069   1.4335623845e+02   4.5210148736e+01     0.232797    0.1327654  48.65  0.001336633    1.824    0.452
        40 -10.7362    172.2315    138.4377   1.0385387412e+02   1.9845282386e+01    0.2073179    0.1430807  57.67 0.0006209058    1.587    0.370
        41 -12.5159    160.5787    127.9194   1.0393402287e+02   2.4479864377e+01    0.4384869    0.3511513 -60.77  0.001598294    1.384    0.278
        42 -11.7422    116.4224    212.2314   1.2892718720e+02   1.6137904121e+01    0.2657633    0.1933644 -79.95  0.001359225    1.562    0.360
        43 -13.1905     11.8754    205.8101   1.4821400797e+02   3.0957765717e+01    0.3914908    0.2898296  24.05  0.002854123    2.049    0.512
        44 -13.3828    162.9643    201.4482   1.1812001942e+02   1.0032693057e+01    0.7474585    0.4386645 -70.17  0.002283643    3.268    0.694
        45 -10.8268    167.6561    112.6573   9.8536495913e+01   2.5926561524e+01    0.3178315     0.228075 -80.44  0.001328695    2.085    0.520
        46 -11.3251    153.7953    194.9961   1.1890707020e+02   1.2813830094e+01    0.3036619     0.233362  74.00  0.001249872    1.594    0.373
        47 -12.3635    156.5640    199.6416   1.1910287092e+02   1.1495054046e+01    0.5375081    0.3697619  77.21  0.002659181    2.200    0.546
        48 -10.8183    205.3233    110.2319   9.0332605816e+01   1.7658417465e+01    0.3087855    0.2077256  45.00 0.0009228886    1.529    0.346
        49 -10.6027     13.8430    238.7943   1.4954942424e+02   2.4755484278e+01     0.107544   0.05728759 -80.91 0.0006934213    1.685    0.407
        50 -10.7317     10.7466    101.6461   1.3929877939e+02   5.3436964207e+01    0.2334224    0.1626029 -88.48  0.000926177    1.333    0.250
        51 -10.8211    139.6228    200.5098   1.2265553497e+02   1.4355276706e+01     0.303993    0.2019282  45.98 0.0007938767    1.319    0.242
        52 -10.3468    144.5046     80.5201   9.4851007743e+01   3.7566492999e+01    0.1520571    0.1505415 -14.59  4.62644e-05    1.002    0.002
        53 -14.4045    152.3607     56.9742   8.5694312134e+01   3.9756936396e+01      1.23165     1.110897  26.28 0.0009379296    1.149    0.130
        54 -10.4953    131.3445    237.7491   1.2919682457e+02   9.4417556892e+00     0.114658    0.1109225  85.98 0.0001733255    1.259    0.205
        55 -12.9562    167.7901     34.0723   7.5383270844e+01   3.9113197974e+01    0.4119195    0.3843023  30.35 0.0008689266    1.124    0.110
        56 -11.1782     13.5234     59.9537   1.3084341318e+02   6.2426505965e+01    0.1762134    0.1597017  63.54 0.0004426136    1.410    0.291
        57 -10.4915    142.4190     33.0362   7.9766869180e+01   4.5684043758e+01    0.2525613    0.1970646  80.73 0.0006090534    1.459    0.315
        58 -11.3123     16.4639    250.1292   1.4965170671e+02   2.2578436622e+01    0.1311293   0.07590177 -89.92 0.0009893284    1.470    0.320
        59 -11.2438    133.8159    246.2406   1.2972036540e+02   7.7584025277e+00    0.1466876    0.1182364  50.00  0.000312455    1.036    0.035
