#   1 NUMBER                 Running object number                                     
#   2 MAG_AUTO               Kron-like elliptical aperture magnitude                    [mag]
#   3 X_IMAGE                Object position along x                                    [pixel]
#   4 Y_IMAGE                Object position along y                                    [pixel]
#   5 X_WORLD                Barycenter position along world x axis                     [deg]
#   6 Y_WORLD                Barycenter position along world y axis                     [deg]
#   7 A_WORLD                Profile RMS along major axis (world units)                 [deg]
#   8 B_WORLD                Profile RMS along minor axis (world units)                 [deg]
#   9 THETA_WORLD            Position angle (CCW/world-x)                               [deg]
#  10 FWHM_WORLD             FWHM assuming a gaussian core                              [deg]
#  11 ELONGATION             A_IMAGE/B_IMAGE                                           
#  12 ELLIPTICITY            1 - B_IMAGE/A_IMAGE                                       
         1 -11.1505    237.0780     30.7350   4.0147049967e+01   2.2911452258e+01    0.6904518    0.3834824 -39.43  0.003613902    1.595    0.373
         2 -10.0402     30.1066     23.4111   8.5682081444e+01   6.8247354277e+01    0.3492306    0.1664386 -45.50  0.001516624    2.093    0.522
         3 -10.9048     37.6581     18.0079   7.9677206862e+01   6.8152052720e+01    0.6464545    0.3219386  24.75  0.001524103    2.130    0.531
         4  -9.8588     29.5401     17.9984   8.3472649604e+01   6.9146108543e+01    0.3214375    0.2245611 -17.23    0.0011716    1.179    0.152
         5 -11.4470    111.6093     19.2034   5.5360679977e+01   5.4391897910e+01    0.5232132    0.4156707  53.07  0.003023525    1.184    0.155
         6 -11.1664    101.7681     16.2363   5.6576684131e+01   5.6902873162e+01    0.4559788     0.339755   6.25  0.001599456    1.402    0.287
         7 -10.7284     56.5616     14.2322   6.9896411639e+01   6.5873650425e+01    0.6054858    0.3203019  26.68   0.00217036    1.954    0.488
         8 -10.1272    156.6517      9.0185   4.3555977756e+01   4.4577334477e+01    0.5139776    0.2991827  42.11  0.002520385    1.838    0.456
         9 -11.0522    149.8267     18.4477   4.7587218352e+01   4.5332041496e+01    0.3401528    0.2865883 -33.37 0.0006075134    1.270    0.213
        10  -9.9819    154.7873     16.8393   4.6282858686e+01   4.4271122019e+01    0.4747803    0.2558574  -7.96  0.002043728    2.610    0.617
        11  -9.7147     93.0025     10.0408   5.6263656058e+01   5.9412595353e+01    0.6454414    0.1462238  58.79  0.002018386    4.535    0.779
        12 -10.0501     84.9793     14.2325   6.0294503099e+01   6.0653401702e+01    0.4903785      0.24194 -29.66  0.002382702    2.066    0.516
        13 -10.0304     21.9869     15.5243   8.6034826177e+01   7.0342949412e+01    0.3112062    0.2483353  26.34  0.001709008    1.530    0.346
        14  -9.7507     19.4599     10.9268   8.5104096958e+01   7.1286172559e+01    0.2008061    0.1641776  11.50 0.0004061513    1.324    0.245
        15 -10.6477     10.9106     14.6794   9.1440702530e+01   7.1506979452e+01    0.4377865    0.3159108 -26.35  0.002802813    1.046    0.044
        16  -9.8360     16.9940      3.1139   8.2367961924e+01   7.2633271938e+01    0.2790714    0.2107153 -21.87  0.001167611    1.191    0.160
        17 -11.2454     11.7453      6.5990   8.7081294980e+01   7.2665227266e+01    0.4237467    0.3839625 -21.95  0.003327003    1.503    0.335
        18  -9.5206      7.2849      3.6284   8.8077380419e+01   7.3491880250e+01    0.1729294    0.1467269 -40.38 0.0007881097    1.616    0.381
        19 -10.4268     78.9667     14.1846   6.2087741500e+01   6.1851900050e+01    0.3901303     0.278258  -6.56   0.00182937    1.380    0.275
        20  -9.4577    187.5676      8.7178   3.9653720941e+01   3.6994963287e+01    0.4110569    0.2337676 -16.49  0.001351915    2.221    0.550
        21 -10.0972    185.6988     13.3646   4.1124668627e+01   3.6978826934e+01     0.265281    0.1984548 -62.07  0.001503057    1.317    0.240
        22 -10.8249    181.7534     13.1037   4.1514081202e+01   3.7974031953e+01    0.4503893    0.3078772  48.59  0.001513639    1.553    0.356
        23 -11.5378    122.3071     11.1185   5.0007321882e+01   5.2721636504e+01    0.5129299    0.3008654  48.42  0.001151681    1.515    0.340
        24 -10.1363    210.7206      9.9276   3.7661736434e+01   3.1334229415e+01    0.4095638    0.2487243 -49.44  0.002230426    1.523    0.343
        25  -9.1367    212.3199      5.0266   3.6331168476e+01   3.1468605483e+01    0.2382571     0.165569  85.18  0.001081265    1.303    0.233
        26  -9.7771     46.9415      9.3720   7.1362206128e+01   6.7976014185e+01    0.2880727    0.1963862  24.09  0.001805312    1.322    0.244
        27  -8.2617    193.2916      8.6360   3.9027647102e+01   3.5615276492e+01    0.1413056   0.08450226 -61.17 0.0005735816    1.705    0.413
        28  -9.2293    216.5097      8.2985   3.6754554129e+01   3.0160974450e+01    0.2347498    0.1772508 -29.49  0.001295982    1.459    0.315
        29 -10.7941     38.6480      4.9382   7.2649772159e+01   6.9718262347e+01    0.3241778    0.2437107 -25.35 0.0004359123    1.359    0.264
        30 -10.7436     24.9015      5.5071   7.9510469915e+01   7.1435839622e+01      0.40595    0.2768982 -42.00  0.001417522    1.847    0.459
        31  -8.5016     69.5008      7.0292   6.1816332945e+01   6.4399448338e+01    0.1808403    0.1133831 -20.64  0.001025524    1.574    0.365
        32  -8.9278     57.3257      7.0937   6.6114093257e+01   6.6561408614e+01    0.1711544    0.1327258  -9.86 0.0005623419    1.180    0.153
        33  -9.6217    107.5788      4.8806   5.0669802044e+01   5.6675363014e+01    0.3530478    0.1637835 -33.81  0.001641283    2.355    0.575
        34  -9.6128    103.4395      1.7726   5.0326940063e+01   5.7858705428e+01    0.3165663    0.1851791  78.02 0.0007542447    2.212    0.548
        35  -8.9618    127.9819      4.8230   4.6669968845e+01   5.1932039043e+01    0.2322706     0.162914  16.06  0.001265415    1.632    0.387
        36 -10.4262     88.8490      2.6951   5.4184160291e+01   6.0947820623e+01    0.5580958    0.2988806  76.96   0.00237337    3.221    0.690
        37  -8.8280     67.7337      1.7278   5.9846193832e+01   6.5231333415e+01    0.3551459    0.1718763  67.73  0.001371028    4.285    0.767
        38  -9.9053     78.8449      6.1852   5.8509943894e+01   6.2683307409e+01    0.3557374    0.2251167  37.67  0.002021185    1.379    0.275
        39  -9.0695    242.0373      1.4640   3.3284733398e+01   2.5205663714e+01    0.1708731    0.1045853  82.72 0.0003902545    1.522    0.343
        40  -8.7123    189.2160      1.3394   3.7518293330e+01   3.7301990917e+01    0.1985054    0.1126548  73.53 0.0004267862    1.572    0.364
        41  -9.0179    185.5385      1.5539   3.7941494610e+01   3.8170904643e+01    0.2179105    0.1132636  72.99 7.243753e-05    1.715    0.417
        42  -9.5116     33.9658     11.6259   7.8258407695e+01   6.9512376803e+01    0.2504915    0.2246266 -45.51  0.001204263    1.726    0.421
        43  -9.4932      1.8788      5.7632   9.2308374990e+01   7.3606537959e+01    0.2893525    0.1139853 -39.92   0.00161697    1.926    0.481
        44  -9.3173     28.7538    110.0692   1.1082595010e+02   5.0121882876e+01    0.2103104    0.1666297 -46.98 0.0003322375    1.230    0.187
        45  -9.6397    104.0258    249.0587   1.1103319240e+02   9.5926267319e+00    0.3610006    0.2265919  14.78   0.00176892    3.089    0.676
        46  -9.8534     16.4569    104.2839   1.1369775984e+02   5.2486430494e+01    0.2576207    0.1802373 -38.77   0.00154806    1.502    0.334
        47 -10.1152     17.8899    108.9104   1.1397424409e+02   5.1278514575e+01    0.2697601    0.1724884  64.03   0.00148256    1.894    0.472
        48  -9.6947      9.3074    102.8796   1.1571303337e+02   5.3300674892e+01    0.3642435    0.2504873 -32.01  0.002062026    1.665    0.399
        49  -8.6117    100.2992    108.9686   8.8634320178e+01   4.0713425628e+01    0.2169501    0.1834802 -49.09  0.000556769    1.112    0.101
        50  -9.5976     58.0319    108.9930   1.0148413101e+02   4.7262879463e+01    0.2013443    0.1800541 -59.49  0.001184794    1.022    0.022
        51  -8.7061     72.3791    107.2385   9.6609471760e+01   4.5728766256e+01      0.19962     0.129092 -64.59 0.0005341111    1.566    0.362
        52 -10.6944      6.2108    107.2453   1.1727641437e+02   5.2461839401e+01    0.4151049    0.2318281  86.74  0.001228677    1.927    0.481
        53 -10.8141     79.7364    103.9503   9.3521762388e+01   4.5391546409e+01     0.392193    0.3673888 -11.97  0.001590481    1.146    0.127
        54  -8.3871     45.4721    106.4210   1.0490539572e+02   4.9362363787e+01    0.1364319    0.1161365 -55.69 0.0002694486    1.037    0.035
        55  -8.0625    153.7217    104.2970   7.3256827521e+01   3.0552950260e+01    0.1544167    0.1240052 -76.20 0.0003227404    1.535    0.348
        56  -9.4410    123.1470    103.8953   8.0857201769e+01   3.7375496879e+01    0.2346961    0.2106906 -81.15 0.0004923667    1.248    0.199
        57 -10.0110    108.5707    103.2125   8.4717667862e+01   4.0472790157e+01    0.3879227    0.2528528  27.51  0.000669554    1.862    0.463
        58  -9.3445     64.9369    103.9784   9.8174166933e+01   4.7560383548e+01     0.212589    0.1827645 -48.06            0    1.057    0.054
        59  -8.8849     56.5141    103.4757   1.0074685290e+02   4.8780502894e+01    0.2543716    0.1283412 -69.95  0.001026997    2.340    0.573
        60  -8.5402     89.6018    102.4487   9.0106630752e+01   4.4121370769e+01    0.1492709    0.1352256 -42.53 -1.754545e-05    1.034    0.033
        61  -8.8833     44.8591    101.8361   1.0415222076e+02   5.0530539839e+01     0.182425    0.1519823  84.73 0.0005463174    1.357    0.263
        62 -10.6196     53.5265     98.8894   1.0066989775e+02   5.0239814201e+01    0.4729765    0.2707724 -49.51   0.00229568    1.513    0.339
        63  -9.7023      1.3414    100.7034   1.1787491161e+02   5.4276874565e+01    0.2020946   0.09230231 -74.55 0.0004755052    1.774    0.436
        64 -10.5261     69.4287     97.2735   9.5089740165e+01   4.8512672896e+01     0.404247    0.2552859 -66.20  0.001391006    1.748    0.428
        65 -10.2757     77.8765     95.9838   9.2039753618e+01   4.7539854667e+01    0.4563331    0.3699677  22.53  0.002435506    1.385    0.278
        66  -8.5656     28.5216     97.9540   1.0871667756e+02   5.3042371194e+01    0.1892619    0.1068952 -62.03 0.0003612889    1.435    0.303
        67  -8.8379     21.7197     97.6742   1.1089867218e+02   5.3663283143e+01     0.202444    0.1402757 -53.42  0.000428366    1.202    0.168
        68  -9.6980     16.6447     95.7224   1.1221914494e+02   5.4498102289e+01    0.4111273    0.2323667  68.90    0.0019799    2.597    0.615
        69  -9.0158    147.9866     96.2852   7.2374138812e+01   3.3510987549e+01    0.2168435    0.2006373  41.40 0.0003505796    1.110    0.099
        70  -9.8727    132.3596     93.7743   7.5541549223e+01   3.7559583443e+01    0.2678583    0.2293644  37.90 0.0006969792    1.210    0.173
        71 -10.3018     87.8532     91.2963   8.7588035001e+01   4.6960690570e+01    0.7591002    0.4177077 -62.71  0.002785513    2.391    0.582
        72  -8.9730      1.4245     93.9513   1.1689537336e+02   5.5843221417e+01    0.1829681    0.0925442 -68.80 0.0003872889    1.503    0.335
        73  -9.2016     52.0778     90.9019   9.9247113128e+01   5.2288662377e+01    0.3004614    0.1554648 -46.81  0.001237773    1.687    0.407
        74  -8.9132     15.9125     89.4001   1.1133182369e+02   5.6027010478e+01     0.274767    0.1098434 -51.24  0.001297009    1.952    0.488
        75  -9.6087     37.0652     93.0055   1.0484662374e+02   5.3427404210e+01    0.2541266    0.1479902  24.77  0.001303674    2.039    0.510
        76  -8.9327    153.8149     89.6244   6.9093048736e+01   3.3480768510e+01    0.2086143    0.1498388  63.64 0.0003283035    1.574    0.365
        77 -11.3154    120.0871     87.9055   7.7075659420e+01   4.1445694925e+01    0.4969348    0.4168518  36.46  0.001303497    1.236    0.191
        78 -10.8090    124.8699     85.5130   7.5055147520e+01   4.0904254454e+01    0.4399278    0.3081575 -29.76  0.001375129    1.505    0.336
        79  -8.9126     72.4728     89.4567   9.2019553710e+01   4.9861746119e+01    0.1447253    0.1287606 -37.96 0.0002187277    1.030    0.029
        80  -9.2655     47.7949     88.9013   1.0022223263e+02   5.3252143839e+01    0.2010392     0.157461 -41.11 0.0002646518    1.158    0.136
        81  -8.9693     32.2196     89.4112   1.0572618082e+02   5.4724999205e+01    0.1635317    0.1200878  41.19 0.0009442449    1.640    0.390
        82  -9.0817    139.6794     88.1337   7.2027273250e+01   3.7059846740e+01    0.2290831    0.1990375 -34.95   0.00114717    1.131    0.116
        83 -11.8052    132.0874     86.4211   7.3433956524e+01   3.9122974344e+01    0.4174956    0.3333443   9.90 0.0004464558    1.531    0.347
        84  -8.2414      5.3327     87.2939   1.1456091824e+02   5.7170732979e+01    0.1276163   0.07046741 -44.05 0.0003481521    1.637    0.389
        85  -9.0203    173.8726     84.8246   6.3401650767e+01   2.9601446358e+01    0.2114932    0.1798983 -75.22 0.0002451339    1.310    0.236
        86  -9.6361    161.4894     85.5149   6.6188892676e+01   3.2446238840e+01    0.1542751    0.1502104 -50.32 -1.774982e-05    1.011    0.011
        87  -8.8080     81.7232     84.9208   8.7695940657e+01   4.9407794388e+01    0.2039557    0.1742058 -42.73 0.0002969925    1.077    0.072
        88 -10.0293     75.9211     83.0317   8.9045371194e+01   5.0761184791e+01    0.2775218    0.2380348 -61.11 0.0003873859    1.245    0.197
        89  -8.8394     71.0459     83.5010   9.0813714633e+01   5.1409510616e+01     0.252917    0.1747226  48.48  0.001252649    1.735    0.424
        90  -9.2924     45.9933     83.9730   9.9620891100e+01   5.4586606561e+01    0.2031148    0.1705008 -44.82  0.001219298    1.025    0.025
        91  -9.2523     33.6203     83.9934   1.0401837636e+02   5.5848871966e+01    0.2149154    0.1743812  55.55 0.0005708766    1.548    0.354
        92  -9.1366      4.9764     76.2262   1.1271866574e+02   5.9708138089e+01    0.2083499    0.1475508 -85.35 0.0004821708    1.515    0.340
        93  -8.8125      2.1644     73.1718   1.1317072021e+02   6.0537157531e+01    0.1830962    0.1264506 -48.13 0.0004869089    1.188    0.159
        94  -8.7630      3.6908     82.7024   1.1434654783e+02   5.8310806063e+01     0.195174    0.1284299 -47.22 0.0005775816    1.305    0.234
        95 -10.1741      6.9658     80.1792   1.1274288026e+02   5.8705741252e+01    0.2170611    0.1734695 -63.72 0.0003219569    1.068    0.064
        96  -9.3177     22.3356     80.6350   1.0731196253e+02   5.7577403168e+01    0.2920519    0.1996549 -54.60  0.001738885    1.160    0.138
        97  -9.3954    143.8411     80.6262   6.8761499840e+01   3.7556799682e+01    0.2135756    0.1943964  62.63 0.0006505965    1.150    0.130
        98  -9.1225    109.1211     87.8746   8.0158962923e+01   4.3724284355e+01     0.237486    0.2094974 -76.79 0.0006025428    1.327    0.247
        99  -9.3647    109.4684     80.4713   7.7787103327e+01   4.5190378192e+01    0.2223563    0.1461052  55.28  0.000738915    1.771    0.435
       100 -10.8034    104.4445     78.9281   7.8774640833e+01   4.6518408689e+01    0.4085979    0.3416748 -11.82  0.001215403    1.285    0.222
       101 -10.6810    108.4436     73.7861   7.5952168472e+01   4.6733227534e+01    0.5550286    0.3507032  -4.41  0.002096832    2.761    0.638
       102  -9.8976     55.4139     80.0765   9.5245384650e+01   5.4339542708e+01    0.3573865    0.2231112 -45.63  0.001418813    1.387    0.279
       103  -9.7385     49.9702     78.3693   9.6717223126e+01   5.5389104670e+01    0.4910619    0.2620261 -67.55  0.002099572    2.432    0.589
       104  -9.0644     53.4111     75.2920   9.4605461908e+01   5.5646285849e+01    0.3012356    0.1611236 -29.92  0.001313238    2.232    0.552
       105 -10.1838     58.0906     71.3076   9.1721410684e+01   5.5897287795e+01    0.3590744    0.2169614 -30.23  0.001381086    1.746    0.427
       106 -10.5462    154.5665     79.7896   6.6033125717e+01   3.5171154866e+01    0.2841773    0.2175382  56.05 0.0007175511    1.342    0.255
       107 -10.6724     97.2978     77.6142   8.0518968154e+01   4.8179447576e+01    0.5454326    0.3304295 -33.23  0.001639462    1.696    0.410
       108 -10.7678     97.4416     69.7878   7.7930800801e+01   4.9714505462e+01    0.5123699    0.2858936 -51.86  0.001947856    2.046    0.511
       109  -9.2128     43.4559     78.7660   9.9181184356e+01   5.6042626417e+01    0.1913805    0.1036718 -45.82 0.0006165524    1.566    0.361
       110 -10.8681    129.8477     75.8602   7.0756745940e+01   4.1690015930e+01    0.3771928    0.3296838 -30.07  0.001612546    1.131    0.116
       111 -11.5280     76.9928     75.0363   8.6254208853e+01   5.2304434934e+01    0.6918122    0.3390834  30.01  0.002098646    2.424    0.587
       112 -11.7854    138.5843     72.2915   6.7451165897e+01   4.0338251022e+01    0.6499637    0.4650703  28.25  0.001451434    1.647    0.393
       113 -11.1666    152.1671     73.2237   6.4589349591e+01   3.6940375970e+01    0.4176029    0.3579931  88.22  0.001345921    1.333    0.250
       114 -10.2383     45.5957     72.9070   9.6791647560e+01   5.7099809005e+01    0.3012216    0.2067624 -44.11 0.0007884496    1.233    0.189
       115  -8.8730     10.4554     73.9343   1.1024511452e+02   5.9908660200e+01     0.243375    0.1244315  59.38  0.001058136    3.646    0.726
       116  -9.0653     30.3258     72.8013   1.0249887762e+02   5.8672782640e+01    0.1914994    0.1683395  39.19 0.0007324226    1.406    0.289
       117 -11.0380     65.4807     71.1553   8.9018661060e+01   5.4894242392e+01    0.3637257    0.2603944  45.80 0.0005933123    1.672    0.402
       118 -11.2359    161.5772     68.8894   6.1264558634e+01   3.5410816914e+01    0.5008328    0.3311509   7.46  0.001965715    2.516    0.603
       119 -10.1169    166.0006     69.6553   6.0595777272e+01   3.4196904591e+01    0.2414026    0.2036478 -37.46   0.00054309    1.172    0.147
       120  -8.8134     39.0230     71.4605   9.8850680756e+01   5.8128318536e+01    0.1731453    0.1291855  17.66 0.0003845918    1.532    0.347
       121  -9.2033     17.7559     69.5139   1.0649204251e+02   6.0408823528e+01     0.313731    0.1359705 -50.22  0.001560615    1.746    0.427
       122  -8.7707     51.8937     68.8083   9.3238528559e+01   5.7229834379e+01    0.2121137    0.1548644 -31.35  0.001178049    1.270    0.213
       123  -8.1275     33.5355     69.5069   1.0040608894e+02   5.9099187008e+01    0.1322123    0.1060298 -41.81 6.937532e-05    1.033    0.032
       124  -9.5464    121.1622     68.1243   7.0544559455e+01   4.5078495709e+01    0.2447487    0.2042536   0.88  0.001236197    1.331    0.249
       125 -10.3165     89.2402     67.1635   7.9636070763e+01   5.1774442417e+01    0.3637862     0.290517 -85.13 0.0008952126    1.902    0.474
       126 -11.7607    153.2780     65.7905   6.2064552284e+01   3.7963497294e+01    0.5883908    0.3654484  48.10  0.002599862    1.614    0.380
       127  -9.5157     37.6324     79.8094   1.0156503133e+02   5.6414757302e+01    0.4100008    0.2305694 -85.13  0.001599705    3.538    0.717
       128  -9.2690    112.5310     63.4199   7.1335622758e+01   4.7815128595e+01    0.2435443    0.2289806  40.70 0.0005145874    1.101    0.092
       129 -10.3873    109.0223     63.0146   7.2192058749e+01   4.8635206743e+01    0.4986533    0.3202279 -63.84  0.002040079    2.473    0.596
       130  -8.4745     49.4946     65.5410   9.3134160576e+01   5.8213000589e+01    0.1356468    0.1136057 -32.45 0.0001054186    1.027    0.027
       131 -10.2509     44.3117     62.2357   9.4095435833e+01   5.9513884177e+01    0.4226822    0.2934393 -31.23  0.002389522    1.319    0.242
       132  -9.2335     32.4434     63.8565   9.9253266841e+01   6.0418086703e+01    0.2235492    0.1987812 -84.57  0.001444444    1.435    0.303
       133  -9.6678      2.4443     62.4604   1.1088348036e+02   6.2874851700e+01    0.2350504    0.1526867 -64.57 0.0004987424    1.284    0.221
       134  -9.8069      4.4491     59.5122   1.0941264040e+02   6.3405239230e+01    0.2103015    0.1731692 -43.38 0.0008323857    1.103    0.094
       135 -11.1849      7.8721     57.0152   1.0740263848e+02   6.3745708725e+01    0.2155056    0.1631163 -45.14  0.000264908    1.039    0.037
       136 -10.9925    172.1691     61.6656   5.7047710567e+01   3.3995820855e+01    0.5121067    0.2875468 -53.82  0.002087819    2.066    0.516
       137  -9.1896     66.8546     62.9070   8.5834907396e+01   5.6372237659e+01    0.2063647    0.1806896 -22.97 0.0002818511    1.014    0.014
       138  -9.4152     71.0255     61.9919   8.4032169092e+01   5.5905088036e+01    0.3409269    0.2358676  60.23  0.001233122    2.225    0.551
       139  -8.9969    120.8380     60.9459   6.8233817577e+01   4.6425972137e+01    0.2451657    0.1700534  -0.26   0.00106724    1.971    0.493
       140  -8.5494     97.4938     61.4587   7.5076653613e+01   5.1274612174e+01    0.1446919    0.1346995  -8.54 2.923649e-06    1.006    0.006
       141  -8.9842    103.0161     60.4879   7.3070394908e+01   5.0338100450e+01    0.2084297    0.1426799  45.88 0.0003931527    1.499    0.333
       142 -10.6482     95.1327     57.3498   7.4356376575e+01   5.2478515479e+01    0.5416626    0.3056998 -17.69  0.002148192    2.524    0.604
       143  -8.9697     87.9346     60.4764   7.7754039545e+01   5.3284363443e+01    0.2064083    0.1394088  41.19 0.0008194998    1.542    0.351
       144 -10.2057     50.7826     59.4915   9.0694189708e+01   5.9291717297e+01    0.2302712    0.1854815 -36.87 0.0002851932    1.073    0.068
       145 -10.4148    200.1765     56.0745   5.0843977362e+01   2.7990115237e+01    0.5293866    0.3661501  12.51  0.002280748    2.318    0.569
       146 -10.5969    203.6734     51.3529   4.9085319133e+01   2.7842413643e+01    0.6588343    0.3609897 -70.15  0.002621562    2.593    0.614
       147  -9.5476    207.4939     49.9566   4.8196648944e+01   2.7129314773e+01    0.3132399    0.2447954 -28.86 0.0007707539    1.346    0.257
       148 -10.7947    159.9252     56.7785   5.7913922043e+01   3.7798252172e+01    0.4464221    0.3277891  31.54  0.001754968    1.589    0.371
       149 -10.4524    162.9110     52.6981   5.6086487610e+01   3.7684531834e+01    0.4130428    0.3262911 -82.91  0.001367622    1.457    0.314
       150 -10.5961    150.8123     57.7666   6.0081708821e+01   3.9884142302e+01    0.2814074    0.2577564  51.27 0.0002539447    1.080    0.074
       151 -11.8987    146.9519     55.2772   6.0111270227e+01   4.1220301467e+01    0.9378584    0.5306108  -7.02  0.003277272    3.264    0.694
       152  -9.6498     69.2208     56.0270   8.2583586215e+01   5.7332168281e+01    0.4148191    0.2178499 -39.83  0.001922536    1.747    0.427
       153 -10.5927     59.2965     57.4741   8.6756129030e+01   5.8547208661e+01    0.4245979    0.2440201  23.27  0.001752367    2.017    0.504
       154  -9.3200    111.8568     56.1365   6.9007768180e+01   4.9227467732e+01    0.3150685    0.1991849  12.36  0.001275883    2.414    0.586
       155  -8.4211     90.2669     57.6257   7.5990126444e+01   5.3367906655e+01    0.1388148    0.1119374 -65.88 0.0006990451    1.673    0.402
       156  -9.0851    105.2739     56.1252   7.0872536097e+01   5.0633043969e+01    0.2401709    0.1796829  36.68 0.0006535806    1.338    0.252
       157  -9.4531     79.3191     55.2497   7.8755515498e+01   5.5791512165e+01    0.4055975    0.2419759  16.07  0.001745845    2.361    0.576
       158  -9.5708     81.7420     50.7478   7.6273538454e+01   5.6158193419e+01    0.3382255    0.2049882 -49.49   0.00105308    1.928    0.481
       159 -10.2754     84.4993     48.0260   7.4329373326e+01   5.6115592155e+01    0.3477056    0.2417715 -24.80  0.001017051    1.409    0.290
       160  -8.5431     25.8662     55.9266   9.9596733027e+01   6.2674024955e+01    0.1538697    0.1389538 -64.22 0.0005061361    1.310    0.236
       161  -9.0225     22.2605     55.6977   1.0103394730e+02   6.3023213481e+01    0.2289256    0.1052063 -42.50 0.0006343653    1.766    0.434
       162 -10.2761    173.8766     53.1831   5.4243713841e+01   3.4885125170e+01    0.4078433    0.2494698 -29.19   0.00183742    1.713    0.416
       163 -10.5825    136.1002     52.7504   6.1698359096e+01   4.4233081381e+01    0.4491757    0.3765867  -7.29   0.00225328    1.302    0.232
       164  -8.8250     85.5934     54.2424   7.6283919153e+01   5.4844717044e+01    0.1991892    0.1261793 -28.08  0.000642304    1.581    0.367
       165  -9.1718     36.0656     52.9196   9.4404939851e+01   6.2307693183e+01    0.3034088    0.1653294 -59.98 0.0009154308    2.123    0.529
       166  -9.1560     34.3377     57.6969   9.6650007213e+01   6.1519815829e+01    0.2231225    0.1416076 -60.01 0.0006973728    1.646    0.392
       167  -9.8611     43.1077     52.0000   9.1198758082e+01   6.1707178532e+01    0.3191099    0.2425414  42.26  0.001533348    1.682    0.405
       168 -11.0927    106.8316     50.8110   6.8520587118e+01   5.1188638472e+01    0.3231713    0.2543074  47.85 0.0003048369    1.292    0.226
       169  -8.8500    112.0242     49.0000   6.6424719121e+01   5.0353318064e+01     0.321121    0.1726715  61.78  0.001293863    2.377    0.579
       170  -8.4035     29.4830     52.4613   9.7007196776e+01   6.3052856662e+01    0.1269861    0.1022051 -35.30 0.0001548555    1.006    0.006
       171 -10.3727     17.4138     51.2110   1.0177267004e+02   6.4320471572e+01     0.360532    0.1913226  10.78  0.001936155    2.265    0.559
       172 -10.2411    126.5627     50.3535   6.3150075955e+01   4.6852230579e+01     0.487663    0.2942331  22.81   0.00168701    2.368    0.578
       173  -9.5257    121.6763     48.4297   6.3694245613e+01   4.8275796941e+01    0.3274289    0.2542853 -72.14  0.001357544    1.743    0.426
       174  -9.0101    212.0646     49.8200   4.7558550024e+01   2.6065447774e+01     0.224028    0.1739177 -68.99  0.001212916    1.276    0.216
       175 -10.9781     58.5980     47.8057   8.3520344407e+01   6.0458423227e+01    0.4636853    0.3001226   3.99  0.001921241    1.916    0.478
       176  -9.6323     49.4758     49.4924   8.7733847185e+01   6.1401690799e+01    0.2577864    0.1819213  -9.83 0.0006645758    1.500    0.333
       177 -10.1530     46.0263     47.0903   8.8252819701e+01   6.2288113921e+01     0.206627    0.1727872 -36.19 0.0002898555    1.146    0.127
       178  -9.7531     96.2403     47.7389   7.0500748394e+01   5.3884879173e+01    0.3390274    0.2746403 -10.12  0.001855307    1.235    0.190
       179  -9.9618      6.0748     48.0280   1.0581086528e+02   6.5715224058e+01    0.1758379     0.140487 -35.55 0.0003226934    1.102    0.093
       180 -10.0815    152.9880     46.1956   5.5962747462e+01   4.1101802162e+01     0.247055    0.2137034 -27.48 0.0005018056    1.200    0.167
       181 -10.8222    143.0528     43.2601   5.7014793611e+01   4.3961062597e+01    0.5261126    0.3393395  17.88  0.001744907    2.207    0.547
       182  -9.7921     33.6197     46.2217   9.3148525596e+01   6.3868059987e+01    0.2890131    0.2246265 -88.78  0.001613975    2.329    0.571
       183  -8.7451    186.4402     46.4736   5.0260323018e+01   3.2742500476e+01    0.1431162      0.13253 -72.59 0.0001023023    1.025    0.025
       184  -8.5291    175.0167     44.9256   5.1620506158e+01   3.5796589105e+01    0.1693539    0.1617886 -71.66 0.0003593165    1.024    0.023
       185 -10.2690    167.2427     43.6890   5.2560208347e+01   3.7908832873e+01    0.3868216     0.283052  38.59  0.001229346    1.515    0.340
       186  -9.8322    109.1055     44.0954   6.5432967739e+01   5.1745985308e+01    0.2883112    0.2685665  88.50  0.001040023    1.295    0.228
       187  -9.8955     55.5828     42.1832   8.2532066404e+01   6.1887113196e+01    0.4434823    0.2806418 -12.52  0.001277763    1.813    0.448
       188 -11.0478     62.7670     40.2613   7.8985237076e+01   6.1133258038e+01    0.5237303    0.3977847 -16.54  0.001591953    1.208    0.172
       189  -9.4377     19.5993     43.2506   9.8304460375e+01   6.5734427571e+01    0.2142306    0.1929382  87.21 0.0008954642    1.627    0.385
       190  -8.6062    217.7975     42.8143   4.5073205136e+01   2.5697185236e+01    0.1924799    0.1383557 -59.75 0.0002662317    1.320    0.243
       191  -9.0594      8.8181     42.8167   1.0306480220e+02   6.6596294088e+01    0.2227655    0.1394438 -12.24  0.001113589    1.700    0.412
       192  -9.8672    204.8641     41.6337   4.6364856123e+01   2.8916233425e+01    0.2796465    0.2083976 -66.04 0.0002241862    1.334    0.250
       193  -8.3303    187.4837     42.5606   4.9004721750e+01   3.3027555792e+01    0.1396561     0.132866  88.84 0.0004593309    1.042    0.040
       194  -8.9072     99.5231     41.7267   6.7251443987e+01   5.4145914732e+01    0.3174282    0.2188745 -87.71  0.001309819    3.040    0.671
       195 -10.0975     36.4613     38.7382   8.9151134007e+01   6.4946232469e+01    0.4053705    0.2135872 -45.21    0.0020543    1.690    0.408
       196  -9.8347     32.4225     38.5124   9.0847324378e+01   6.5427989780e+01    0.2173191    0.1868599 -38.06 0.0007273746    1.231    0.188
       197 -10.1668     33.8017     34.8327   8.8795386666e+01   6.5933167925e+01    0.2610296    0.1899519 -16.34 0.0006124987    1.222    0.181
       198 -10.7206    149.6796     39.5630   5.4473686134e+01   4.2841868272e+01    0.5026451    0.2824511 -48.00  0.001551052    1.990    0.498
       199  -8.7857    150.0126     34.0367   5.2616957348e+01   4.3481515259e+01    0.2195361    0.1624942 -63.36 0.0005033722    1.575    0.365
       200  -8.6669    151.0000     30.5152   5.1295284869e+01   4.3674405947e+01     0.247933    0.1559673  35.56  0.001147503    1.823    0.452
       201  -8.6382     28.0664     41.1219   9.3760468371e+01   6.5388418140e+01    0.1884065    0.1306371 -27.26 0.0002630189    1.232    0.188
       202  -8.7952    110.6131     36.1827   6.2083660551e+01   5.2547470878e+01    0.1972708     0.174138  -3.25 0.0004881869    1.120    0.107
       203 -10.0149    160.7081     38.0614   5.1969456609e+01   4.0301763880e+01     0.498637     0.191827  59.86  0.001262267    2.409    0.585
       204  -8.6981    133.4060     38.2385   5.7373900620e+01   4.6987343155e+01    0.2030075    0.1285826 -41.01 0.0009503029    1.668    0.400
       205 -10.1294    127.3030     36.7513   5.8216144423e+01   4.8639071809e+01    0.3279789    0.2773969  70.23  0.001098276    1.270    0.212
       206  -9.2631     74.9768     37.7981   7.3543591323e+01   5.9487402979e+01    0.2104473    0.1821302  58.48 0.0006845216    1.519    0.342
       207  -9.8583     82.6115     35.7793   7.0142745502e+01   5.8392247872e+01    0.2752977    0.2400416 -42.32 0.0007996647    1.344    0.256
       208 -10.8187     78.4976     31.7453   6.9846112272e+01   5.9744349975e+01    0.4072919     0.263171 -10.32    0.0011642    1.704    0.413
       209  -9.8492     47.8527     37.7618   8.3901642833e+01   6.3715928073e+01    0.3656779    0.2590727  13.73  0.002154633    1.442    0.307
       210  -8.7946    247.1577     34.3192   4.0030234183e+01   2.0278276338e+01    0.1845163    0.1528751 -67.01 0.0008908174    1.048    0.046
       211 -10.5876    192.8132     34.3601   4.5990706261e+01   3.2798778787e+01    0.4457607    0.3360201  65.71   0.00153087    1.289    0.224
       212  -9.5650     69.2910     36.3677   7.4978944688e+01   6.0693531673e+01    0.3565022    0.2129945 -27.36  0.001709091    1.606    0.377
       213  -9.0919    112.4865     40.0263   6.3025918019e+01   5.1594860275e+01    0.3841928    0.1561092 -37.61  0.001252258    2.494    0.599
       214  -9.1143    216.0585     34.9359   4.3305956488e+01   2.7146967289e+01    0.2024425    0.1887464 -88.39 0.0006801933    1.108    0.097
       215  -9.5519    106.9745     35.0160   6.2604444920e+01   5.3508982781e+01    0.2046719    0.1864662  20.45            0    1.009    0.009
       216  -8.5589     86.3668     34.1496   6.8272182942e+01   5.7905959699e+01    0.1871024    0.1187807 -39.16 0.0009387294    1.674    0.403
       217 -13.0791     76.4310    218.8960   1.1328351011e+02   1.9155587459e+01     1.980916    0.7610444  45.53  0.006762993    2.212    0.548
       218 -10.1171    238.6964     22.1445   3.8054382560e+01   2.3611885888e+01    0.3377411    0.2372345  89.89  0.001247615    1.364    0.267
       219  -8.7219    184.9608     33.2945   4.6762340046e+01   3.4868942303e+01    0.1958558    0.1808914  81.21  0.000953422    1.043    0.041
       220  -9.7120    114.5075     32.5148   5.9717719514e+01   5.2159480026e+01    0.2443115    0.2309228  70.02 0.0005138284    1.178    0.151
       221 -10.0137    110.5747     29.2160   5.9455416694e+01   5.3464945044e+01    0.3445849    0.2663039  68.09  0.001039477    1.477    0.323
       222  -9.7601     47.2110     28.7951   8.0406837633e+01   6.5264695223e+01    0.2906357    0.2196043 -24.43  0.001463589    1.147    0.128
       223  -9.6682     42.8804     29.1815   8.2427792465e+01   6.5784747798e+01    0.4290562    0.1827909 -36.14  0.001725076    2.091    0.522
       224  -7.9467     37.2595     32.3176   8.6227126028e+01   6.5969236147e+01    0.1259106   0.07931567 -18.61 0.0001841795    1.541    0.351
       225  -9.2119    249.6698     37.3200   4.0467279783e+01   1.9359202904e+01    0.2647265    0.1244194 -60.59   0.00120118    2.267    0.559
       226  -8.9403     21.8030     30.7018   9.2714494431e+01   6.7869380031e+01    0.2067465    0.1286574 -33.37 0.0006260929    1.288    0.223
       227  -8.3210    221.6366     30.7303   4.1667886326e+01   2.6387670051e+01    0.1274088   0.09794411  41.58 0.0006996561    1.654    0.395
       228  -8.7099     65.4026     29.8949   7.3676927821e+01   6.2320020498e+01    0.2485457    0.1089971 -42.57  0.001071314    2.555    0.609
       229  -9.0968    215.2197     28.6628   4.1836537623e+01   2.8134884153e+01    0.2399229    0.1758361  14.40  0.001236345    2.106    0.525
       230  -8.6141    201.1769     29.1736   4.3550595571e+01   3.1412605305e+01    0.1891604    0.1417179 -72.02 0.0003486356    1.311    0.237
       231 -10.2541    182.0739     27.7552   4.5594671295e+01   3.6265004327e+01    0.6034687    0.2510965  47.69  0.002349911    2.692    0.629
       232  -8.5866    158.4734     29.0766   4.9545433314e+01   4.1989842570e+01    0.1928423    0.1393246 -27.28 0.0004142866    1.476    0.322
       233  -9.3434     16.4794     27.6937   9.4110101195e+01   6.8864698473e+01    0.3280703    0.1595268 -29.39  0.001359213    1.885    0.470
       234  -9.3523     14.7513     24.2930   9.3599148585e+01   6.9597912832e+01    0.2954282    0.1179392 -45.38  0.001354933    1.999    0.500
       235  -9.4237    206.5117     26.5502   4.2254924579e+01   3.0451264906e+01    0.2761894    0.2376402  -5.75  0.001599068    1.466    0.318
       236  -9.3833     54.1558     27.9470   7.7171759426e+01   6.4392608225e+01    0.3024331    0.1325294 -18.75  0.001025106    3.994    0.750
       237  -8.5216    154.5371     27.4658   4.9698524662e+01   4.3161004404e+01    0.1392704    0.1291734  55.77 5.052525e-05    1.044    0.043
       238 -10.4391    120.7017     25.7593   5.5743742027e+01   5.1563558086e+01    0.3650725    0.2962829  60.30 0.0007105196    1.219    0.180
       239  -9.8690     81.4517     26.5606   6.6693741788e+01   5.9891706166e+01     0.253755    0.2398454  15.75 0.0008159778    1.173    0.148
       240 -10.8874     69.1863    217.2133   1.1457100255e+02   2.0488527119e+01      0.37832    0.2435997  67.65  0.001114655    1.443    0.307
       241 -10.0159    131.2463    205.3430   1.0006939084e+02   1.3348546281e+01     0.496519    0.1717845  46.66  0.001843064    2.799    0.643
       242  -9.2259      1.3815    185.6547   1.2568289964e+02   3.4682691489e+01    0.2802832   0.08274581 -75.56  0.001279715    2.636    0.621
       243  -9.7449    229.9257     29.7233   4.0593936195e+01   2.4627894094e+01    0.2387096    0.1595664 -47.85 0.0002618164    1.321    0.243
       244  -8.6993    196.8934     25.6385   4.3125943506e+01   3.2877101006e+01    0.1950754    0.1181135  86.71 0.0009328356    1.753    0.430
       245  -8.6766     95.2015     24.7480   6.1791258598e+01   5.7352876392e+01    0.1820796    0.1382549  18.50 0.0002850756    1.299    0.230
       246  -9.0513    227.3119     22.9372   3.9248718312e+01   2.6046330998e+01    0.2438353     0.175531  69.54  0.001360427    1.400    0.285
       247  -9.5897    179.0208     22.4289   4.4489408230e+01   3.7641948575e+01    0.2983501    0.2026124 -30.16  0.001560322    1.553    0.356
       248 -10.1593    164.1012     22.3738   4.6581726791e+01   4.1361002197e+01    0.2995409    0.2291479  52.30 0.0008251314    1.272    0.214
       249 -10.0794    142.0397     21.1738   4.9823698066e+01   4.6958975306e+01    0.3708962    0.2584658 -25.06  0.001714267    1.543    0.352
       250 -10.7338      6.0961    169.2716   1.2357802008e+02   3.7931468582e+01    0.3490855    0.1541773  83.76  0.001721277    2.177    0.541
       251  -9.7165      1.5962    162.6695   1.2407155409e+02   3.9780812368e+01    0.2366104   0.08521837 -73.26  0.001143056    2.115    0.527
       252  -8.8414    218.0587     21.7467   3.9847393612e+01   2.8305871112e+01    0.1746604    0.1529289  88.21 0.0002313284    1.103    0.094
       253  -8.7073     19.1964     21.7615   9.0283645270e+01   6.9631224633e+01    0.1630303    0.1054124 -19.48 0.0003442843    1.338    0.252
       254  -9.7094      1.9682     21.5267   9.9132485811e+01   7.1003379909e+01    0.2282087    0.1313471 -44.05  0.001403554    1.320    0.242
       255  -9.0234    131.5257     20.0689   5.1415630157e+01   4.9631882602e+01    0.3100607    0.1966708 -69.24  0.001404374    2.307    0.566
       256  -9.1283     51.2555     20.1065   7.4794912858e+01   6.5950303445e+01    0.2110457    0.1918288  66.41 0.0007542246    1.781    0.439
       257 -10.1864     55.4797     17.9678   7.2095473419e+01   6.5579419586e+01    0.3299361    0.2096843  32.43 0.0005294894    1.495    0.331
       258  -8.8756     22.9905    162.0750   1.1913166982e+02   3.8124601623e+01    0.1538947    0.1177089 -85.11 0.0004918367    1.047    0.045
       259  -9.1587    222.3706     20.1625   3.9053424751e+01   2.7497782625e+01    0.2339702    0.1593737  58.24 0.0008613111    1.585    0.369
       260  -8.5841     26.0478    157.9924   1.1798936963e+02   3.8798896130e+01    0.1485458    0.1230562  89.28 0.0003106543    1.045    0.043
       261 -10.7621      2.6352    152.7746   1.2305555705e+02   4.1974881827e+01    0.3048186    0.2378714 -32.22  0.001723519    1.782    0.439
       262  -9.1629     11.3534    151.4105   1.2086904549e+02   4.1631047010e+01      0.19258    0.1251664  14.72  0.001083651    2.192    0.544
       263  -9.6346     63.6555     19.4589   6.9678209648e+01   6.4037997759e+01    0.2181324    0.1870067 -23.74 0.0004918008    1.265    0.209
       264  -9.8806    119.8549     18.9972   5.3428434709e+01   5.2513632605e+01    0.2662115    0.1831959  59.13 0.0005923208    1.369    0.269
       265  -9.4326     35.9868    141.6053   1.1352002173e+02   4.1764303767e+01    0.2705327    0.1599704  28.40  0.001044479    2.017    0.504
       266 -10.0803     21.9229    141.9303   1.1724154350e+02   4.3005961524e+01     0.198717     0.170845  58.99 0.0003526853    1.267    0.210
       267  -8.5123     51.3218    140.9610   1.0931762273e+02   4.0240736782e+01    0.2322375    0.1025715 -87.29 0.0007042732    4.461    0.776
       268 -10.2144      6.4191    140.1680   1.2100430384e+02   4.4648538491e+01    0.3275238    0.1635792 -44.59  0.001161499    2.391    0.582
       269 -12.3301    232.4704    116.9310   6.1152225801e+01   1.0664494000e+01    0.6142987    0.3583975 -38.03  0.002319533    1.513    0.339
       270 -12.8375    229.2280    135.6009   6.6003618982e+01   8.0682879424e+00    0.9693397    0.6257043  37.53  0.004772464    1.719    0.418
       271 -13.1722    232.5785    126.4638   6.3348755757e+01   8.9993261634e+00    0.9557586    0.7778556  72.93  0.005197896    1.607    0.378
       272 -12.3553    221.3817    116.2684   6.2818134814e+01   1.3054331632e+01     1.508954    0.7064816 -25.27  0.005438273    2.780    0.640
       273  -8.0890     69.4971     20.4494   6.8033399419e+01   6.2891344281e+01    0.1300038    0.1086356   9.02 0.0001926777    1.016    0.015
       274  -8.1254     15.6488    131.3124   1.1764564757e+02   4.6070261172e+01    0.1302238   0.08094215  70.40 0.0007045623    1.724    0.420
       275  -9.1394      4.9375    130.9957   1.2045832732e+02   4.6917395498e+01    0.1866741    0.1391524 -76.42 0.0003788797    1.039    0.037
       276  -8.9218     33.0182    127.6792   1.1236210032e+02   4.5452895760e+01    0.1786157    0.1551889 -74.54 0.0004694645    1.055    0.052
       277  -8.8038     12.5337    128.0612   1.1810151577e+02   4.7083768275e+01    0.1910743   0.09783498 -70.45 0.0008590794    1.521    0.343
       278  -8.7495    144.4846     14.1476   4.7058123629e+01   4.7085309379e+01    0.1839583    0.1358964 -18.20 0.0008129568    1.509    0.337
       279  -9.9114     48.1508    125.6571   1.0769987692e+02   4.4371341678e+01    0.3040054    0.2399605 -17.97  0.001613942    1.647    0.393
       280  -9.3034     28.3011    125.3350   1.1335501701e+02   4.6460355347e+01    0.2375772    0.1281564 -62.52 0.0008532797    1.498    0.332
       281  -9.0766     31.0000    124.0059   1.1238686750e+02   4.6538195424e+01    0.2074185    0.1132905 -53.74 0.0005084133    1.613    0.380
       282  -8.6647    129.5053     10.4527   4.8397246049e+01   5.1072917977e+01     0.133659    0.1193335  51.98 0.0001617421    1.005    0.005
       283 -10.0038     86.9764     17.3169   6.1044526790e+01   5.9914302448e+01     0.281874    0.2183177 -16.42  0.001061245    1.286    0.222
       284  -8.8901     38.6291    125.2026   1.1037715047e+02   4.5505728102e+01      0.17046    0.1511487  88.44 0.0003143288    1.125    0.111
       285  -8.5050     23.4715    125.4653   1.1474042638e+02   4.6848353655e+01    0.1297229    0.1049585 -75.29 6.427212e-05    1.016    0.015
       286  -9.5873      7.8667     22.4054   9.6370410772e+01   7.0456269891e+01     0.205698    0.1616317 -23.17 0.0007650665    1.088    0.081
       287  -9.2024      9.0252    123.1107   1.1847604421e+02   4.8513957153e+01    0.2996382    0.1109025 -48.70   0.00114868    2.670    0.625
       288  -9.4507     93.9521    122.5042   9.3773420096e+01   3.8629524583e+01    0.2784111    0.2066346 -54.82 0.0004565553    1.261    0.207
       289  -9.1900     90.1383    121.9514   9.4736593428e+01   3.9406101122e+01    0.2358911    0.2109611  46.74 0.0003200387    1.193    0.162
       290  -8.8307     78.2639    123.0542   9.8413550344e+01   4.1027180953e+01    0.1990858    0.1734737 -61.79 0.0002807372    1.047    0.045
       291  -8.3091     60.4734    121.4630   1.0331180874e+02   4.3911627807e+01    0.1413567    0.1242967 -63.37 0.0002825685    1.012    0.012
       292  -9.9359     98.5096    117.2238   9.1222286064e+01   3.9096139107e+01    0.2539528    0.2314691  -0.17 0.0003683536    1.241    0.194
       293  -9.0071     70.1066    118.1328   9.9761708376e+01   4.3423934557e+01    0.2231459    0.1854754 -40.01 0.0005836525    1.229    0.186
       294  -9.5961     58.0174    117.5985   1.0327903591e+02   4.5171146147e+01    0.2733893    0.1809389 -53.47 0.0007043084    1.334    0.251
       295 -10.4725     26.0853    116.4657   1.1266957461e+02   4.8806406345e+01    0.3042011    0.2778825  18.99  0.001283376    1.361    0.265
       296 -11.5188     11.5167    114.4829   1.1667724201e+02   5.0401322312e+01    0.2486244    0.2195424 -51.62  0.000266251    1.224    0.183
       297  -9.9286     38.5919    114.6146   1.0860188418e+02   4.8095698298e+01    0.2511047    0.1921293  62.00 0.0008730912    1.496    0.332
       298  -9.2129      2.4095    112.7668   1.1910373978e+02   5.1385278355e+01    0.3070984    0.1829164 -86.44  0.001765195    1.508    0.337
       299  -8.7629     62.5090    111.8459   1.0071163856e+02   4.5993550553e+01    0.2218657    0.1241472 -56.30  0.001017652    1.559    0.359
       300  -9.3958     49.8852    111.8934   1.0462278995e+02   4.7542214812e+01     0.249545    0.1843376 -75.28 0.0009342805    1.327    0.246
       301  -9.6816     29.7387    137.9963   1.1470339649e+02   4.3250849326e+01    0.2484449    0.1960261  21.64 0.0008202663    1.611    0.379
