#   1 NUMBER                 Running object number                                     
#   2 MAG_AUTO               Kron-like elliptical aperture magnitude                    [mag]
#   3 X_IMAGE                Object position along x                                    [pixel]
#   4 Y_IMAGE                Object position along y                                    [pixel]
#   5 X_WORLD                Barycenter position along world x axis                     [deg]
#   6 Y_WORLD                Barycenter position along world y axis                     [deg]
#   7 A_WORLD                Profile RMS along major axis (world units)                 [deg]
#   8 B_WORLD                Profile RMS along minor axis (world units)                 [deg]
#   9 THETA_WORLD            Position angle (CCW/world-x)                               [deg]
#  10 FWHM_WORLD             FWHM assuming a gaussian core                              [deg]
#  11 ELONGATION             A_IMAGE/B_IMAGE                                           
#  12 ELLIPTICITY            1 - B_IMAGE/A_IMAGE                                       
         1 -15.0584    198.9944     30.3305   5.2164884591e+01   3.0962790378e+01     6.749458     2.906089  -2.10   0.01899227    5.229    0.809
         2 -13.5825    231.8528      7.0285   4.2653155172e+01   2.5446229048e+01     1.188025    0.5702576  59.92  0.003212755    2.234    0.552
         3 -15.0175    222.2015     81.3558   6.3344415181e+01   1.9192522516e+01     2.332899    0.6048771 -43.71  0.006421315    5.359    0.813
         4 -18.6336    242.0204     54.1684   5.4011866322e+01   1.8333877076e+01     6.337468     4.584777  -8.75   0.02237795    1.398    0.285
         5 -12.2493    132.5969     19.7084   5.8318788479e+01   4.9588359305e+01     1.166438    0.6367956  35.09  0.004686076    2.183    0.542
         6 -11.9745    141.4454     16.8651   5.5585310716e+01   4.7563689555e+01     2.122182    0.6586099 -12.11   0.00484762    6.929    0.856
         7 -11.4735    133.6784     30.2581   6.2308726207e+01   4.7970087715e+01     0.566553    0.3980625  -1.11 0.0007165964    1.717    0.418
         8 -13.4098    164.9031     53.2840   6.4411032817e+01   3.6642306841e+01     2.618255     1.221473 -55.08  0.008635185    3.254    0.693
         9 -13.0215    152.6740     47.1257   6.4662729920e+01   4.0668210559e+01     1.473591    0.9817692  41.42  0.005921825    1.598    0.374
        10 -12.9928    139.6808     41.8768   6.5441920579e+01   4.4775723153e+01     1.206044    0.7646152 -18.20   0.00468621    1.769    0.435
        11 -12.3292    133.3853     39.0863   6.5766155788e+01   4.6797009198e+01     1.033075    0.5123108 -20.00  0.002347469    2.443    0.591
        12 -12.3941    122.8319     30.0999   6.4623213350e+01   5.0777494265e+01    0.7725499    0.4776988 -29.50  0.002528547    1.600    0.375
        13 -12.6935    119.0555     10.0129   5.6857041175e+01   5.4228213850e+01    0.8424868    0.6915883  44.28  0.003071422    1.185    0.156
        14 -10.8502    125.5507     14.2361   5.7408299696e+01   5.2070640568e+01    0.3665028    0.3326474 -78.70  0.001489196    1.182    0.154
        15 -10.1238     92.6919      6.7212   6.1403092582e+01   6.1216656005e+01    0.3614422    0.2052387   7.52  0.001488498    2.374    0.579
        16  -8.7100    156.9909      7.2054   4.9608006978e+01   4.4363976032e+01    0.2098843    0.1502073  16.22  0.000642644    1.631    0.387
        17  -9.0560    138.1566      2.9236   5.0535663614e+01   4.9836365154e+01    0.3995206    0.1741475  -2.03  0.001154814    3.258    0.693
        18  -9.9858    225.3812    187.4245   8.5409654582e+01   5.2390985393e+00    0.2047805    0.1700701  16.77 0.0005898745    1.156    0.135
        19 -11.0173    127.3416    248.9506   1.1032031258e+02   1.1905158910e+01    0.3572688    0.2010729  38.14  0.002494995    1.275    0.216
        20  -9.2986    191.6023    181.6352   9.0148822955e+01   1.1202227043e+01     0.202207    0.1449953 -34.89 0.0009910255    1.587    0.370
        21 -11.9374    195.3454    168.6958   8.7210906893e+01   1.2305141472e+01    0.4929326    0.3373499  50.57  0.002834565    1.663    0.399
        22  -9.9497    196.2885    180.1289   8.9059520311e+01   1.0638784501e+01    0.5271113    0.2096072  41.49  0.002482365    2.208    0.547
        23 -10.6432    202.1975    176.3869   8.7374264046e+01   1.0159359713e+01    0.2842011    0.2358522  36.64  0.001478082    1.250    0.200
        24 -11.4918    195.3611    174.4664   8.8240656228e+01   1.1530963512e+01    0.5266091    0.2983172  38.51 0.0008189881    1.548    0.354
        25 -12.3323     45.7672    199.4233   1.2164176417e+02   2.9531607233e+01     1.565886    0.7586328 -86.64  0.009103794    2.229    0.551
        26 -10.6814    178.9164    172.8533   9.0971325611e+01   1.4510734792e+01    0.3843862    0.2707537  63.95  0.002070518    2.150    0.535
        27 -10.9412    184.9595    168.1969   8.9016469814e+01   1.4144107314e+01    0.2300625    0.2011084 -83.20  0.001426983    1.763    0.433
        28  -8.3832    154.4447    168.4887   9.5012330147e+01   1.9365073411e+01    0.1281271    0.1130364  39.39 0.0001706146    1.071    0.066
        29 -11.3328    200.1419    164.5870   8.5600594328e+01   1.2043205187e+01    0.4874692    0.3777086  82.10  0.001929729    2.587    0.614
        30 -10.5914    204.2022    161.8154   8.4366702209e+01   1.1719326321e+01    0.3783381     0.257614 -52.29  0.001539749    2.248    0.555
        31  -9.0323     93.9064    161.7102   1.0728678628e+02   3.0521000568e+01    0.2477216    0.1521919  78.85  0.001204095    2.235    0.553
        32 -12.9468     26.2093    156.6638   1.2309592271e+02   3.9907211638e+01    0.8808467    0.6688861  38.43  0.004486983    1.352    0.260
        33 -12.4718     12.4996    145.8222   1.2576992128e+02   4.3419595855e+01    0.9266644    0.3631818  86.53  0.004463133    2.448    0.591
        34 -11.5950    188.8441    157.3887   8.6284706134e+01   1.5011436424e+01    0.4235069     0.303581 -38.87 0.0008789988    1.555    0.357
        35 -11.8920    191.7083    151.6192   8.4630295257e+01   1.5330498760e+01    0.7705668    0.3869663 -49.14  0.003360361    2.876    0.652
        36  -8.1571     80.4746    159.5832   1.1019521166e+02   3.2900229198e+01    0.1257384    0.1097505  59.11 0.0001883235    1.027    0.026
        37  -9.6035    215.3941    157.9488   8.1713542772e+01   1.0316946592e+01    0.2293702    0.1648635  34.92            0    1.287    0.223
        38  -9.1195    249.6432    156.5386   7.6093267832e+01   4.9436751392e+00    0.2253036    0.1058671  43.04  0.001198341    2.134    0.531
        39 -10.8025    198.5381    153.9079   8.3842869808e+01   1.3780650345e+01    0.3227146    0.2504737 -44.00   0.00157413    1.576    0.366
        40 -11.7228    149.8200    147.2339   9.2125349116e+01   2.3766998158e+01    0.6870627    0.4394625 -77.23  0.002440946    3.355    0.702
        41 -10.2793    143.5346    147.2459   9.3494886668e+01   2.4923853376e+01    0.5008237    0.2914255 -37.14  0.002405356    1.970    0.492
        42 -10.6506    204.2159    152.1152   8.2483892759e+01   1.3020354314e+01     0.326276    0.2582879  69.85  0.001850931    1.980    0.495
        43 -10.2192    223.1690    150.7795   7.9026507984e+01   9.9009903329e+00    0.3521767    0.2592354  76.33  0.001370157    2.893    0.654
        44  -8.8324    158.4803    161.4635   9.2961888083e+01   1.9796876259e+01    0.1307493    0.1159787  34.28 2.004356e-05    1.036    0.035
        45  -8.9630    209.9156    150.4358   8.1162929120e+01   1.2240226942e+01    0.1870162    0.1158305  42.70 0.0009299526    1.564    0.360
        46 -12.8747    185.5522    123.6295   7.9813419639e+01   2.0740690538e+01     1.270552    0.9754972  61.47  0.006772902    1.576    0.365
        47 -11.6654    190.3206    131.8654   8.0764590690e+01   1.8522910377e+01     0.733458    0.3894682  61.73  0.002918768    3.060    0.673
        48 -13.7014    187.3841    138.5849   8.2762965762e+01   1.8068586169e+01     1.741111    0.8519842  50.80  0.006452869    2.187    0.543
        49 -12.7194    166.4153    116.0898   8.1845112488e+01   2.5926178698e+01     1.221495    0.7328237  38.87  0.004983397    1.671    0.401
        50 -13.3141    164.9901    138.1212   8.7082462289e+01   2.2457484885e+01     1.242328    0.7665014  35.44  0.006110101    1.584    0.369
        51 -13.4290    160.5286    128.1172   8.5856882013e+01   2.5049403519e+01     1.901508    0.7770561  43.51  0.007462443    2.337    0.572
        52 -13.9001     64.5019    141.6321   1.1187652661e+02   3.8870618162e+01     1.532182      1.29457   1.43  0.003695663    1.629    0.386
        53 -11.0346    199.4074    145.5185   8.2003825510e+01   1.4802116001e+01    0.4142697      0.26222 -50.96  0.002062156    2.237    0.553
        54  -9.4365    250.1934    149.1082   7.4569713064e+01   5.6726174792e+00    0.1864994    0.1340694   4.79 0.0006422878    1.199    0.166
        55 -10.9074    200.4927    134.1267   7.9410751860e+01   1.6228463515e+01    0.4292451    0.2953154 -56.70  0.002135989    2.201    0.546
        56  -8.8143    221.0382    132.7671   7.5642153338e+01   1.2584879945e+01    0.1750789    0.1509416  15.56 0.0003995432    1.071    0.066
        57 -11.0265    222.1839    128.5321   7.4541372830e+01   1.2930872116e+01    0.7164169    0.3675545  53.48  0.003380766    2.296    0.565
        58  -9.6391    217.4214    125.2169   7.4576676861e+01   1.4259931662e+01    0.2148062    0.1546459 -42.61  0.001021323    1.592    0.372
        59  -9.0142    199.9476    188.1582   8.9768365318e+01   9.0436662569e+00    0.1713766    0.1432304  37.46 0.0005391825    1.285    0.222
        60 -11.0742    203.4292    126.9866   7.7324404130e+01   1.6692553374e+01    0.4302136    0.2739102 -28.66  0.002231131    1.534    0.348
        61 -10.9466    206.2399    122.8879   7.5916661239e+01   1.6731936482e+01    0.4372745    0.2963821  34.07  0.002290641    1.452    0.311
        62 -10.4780    204.8060    146.8588   8.1324004444e+01   1.3634634275e+01    0.3639016    0.2703173  77.97  0.001830442    2.586    0.613
        63 -12.0068     52.2592    146.1531   1.1561791515e+02   3.9405562861e+01    0.4033099    0.3510127  40.33  0.000973298    1.242    0.195
        64 -11.6451    143.2116    122.2593   8.8367537088e+01   2.9591450647e+01    0.5750171    0.2955124  56.79  0.002286963    2.401    0.583
        65 -11.5195    146.8681    116.2920   8.6148628906e+01   2.9965408356e+01    0.4581012    0.3436271  53.47  0.002331329    1.365    0.268
        66  -9.3057     39.9302    115.2263   1.1531780080e+02   4.7811332092e+01    0.2285642    0.1602437 -79.27 0.0007236782    1.285    0.222
        67  -9.4095    117.0831    114.5518   9.2992471358e+01   3.6266338947e+01    0.2180529    0.1371691  44.49 0.0007354273    1.549    0.354
        68  -9.1576    179.4269    110.1847   7.7798594061e+01   2.4161097615e+01    0.2565005    0.1919285  45.51 0.0008543077    1.325    0.246
        69 -12.4160    172.1406    145.4314   8.7137997211e+01   1.9891959553e+01    0.7541041    0.6035417 -55.54  0.004281818    1.567    0.362
        70  -9.9702    110.8449    110.3032   9.3659801649e+01   3.8344450466e+01    0.2310413    0.1737753  58.36  0.000578807    1.398    0.285
        71  -8.6402    158.9624    108.3251   8.1523342390e+01   2.8867238145e+01    0.1977653    0.1773241  36.86 0.0003716117    1.088    0.081
        72 -10.5523    145.2879    105.3858   8.3836426091e+01   3.2340898129e+01     0.289908    0.2643295   5.38 0.0007735117    1.160    0.138
        73 -11.2837    154.4492    101.4418   8.0750119778e+01   3.1081706187e+01    0.5329453     0.425862  52.52  0.002301658    1.272    0.214
        74 -11.5024    167.6087     96.2584   7.6587528022e+01   2.9066239572e+01    0.5825315    0.5191149  44.57  0.001178516    1.125    0.111
        75 -10.5647    173.2280     93.2377   7.4653654246e+01   2.8305489135e+01    0.2946385    0.2698317  -1.71 0.0003624592    1.085    0.079
        76  -9.0447     85.4238     96.2386   9.7635994223e+01   4.6015695743e+01    0.1993751    0.1334462 -68.30 0.0008516317    1.628    0.386
        77 -11.2270    150.9591     93.4168   7.9382780080e+01   3.3311260415e+01    0.3525176    0.2696543 -44.99 0.0005475503    1.336    0.252
        78  -9.1283    103.9995     86.8583   8.9616633395e+01   4.4672355924e+01     0.265433    0.1708563  52.15  0.001204238    1.637    0.389
        79 -10.7228    132.6166     78.6625   7.9465511582e+01   4.0210212800e+01    0.4786067    0.2473142 -50.45  0.001814325    2.176    0.540
        80 -12.8281     62.5249    205.7966   1.1870546136e+02   2.6500940250e+01     1.424598     1.285706  46.28   0.01129705    1.268    0.211
        81 -12.6895    137.5596     63.6339   7.3504711323e+01   4.1783013625e+01     1.162599    0.6852549 -45.67  0.004917846    1.751    0.429
        82 -12.1043    165.5559    207.5665   9.8844976056e+01   1.1863118252e+01    0.3812396    0.3340437 -24.72  0.002847581    1.365    0.267
        83  -9.1946    239.8251    211.4469   8.7034964553e+01   7.8081831168e-01    0.1770626    0.1318519 -34.75   0.00129695    1.936    0.483
        84 -12.2020    136.7979     53.7173   7.0313578093e+01   4.3648854417e+01    0.8785586    0.4874462 -32.46  0.002093342    1.791    0.442
        85 -12.6634    147.0559    206.1930   1.0209211408e+02   1.4830794436e+01    0.7253983    0.3776063  44.11  0.004104715    1.613    0.380
        86 -11.5848    135.5170    200.5665   1.0357841400e+02   1.7391390201e+01    0.7450392    0.3795476  37.34  0.004086813    1.619    0.382
        87 -10.5897    192.3022    193.7846   9.2010324679e+01   9.5378041092e+00    0.7094181    0.3850276 -58.93  0.002593087    6.554    0.847
        88  -8.6053    237.7806    192.7969   8.4369574256e+01   2.8731850898e+00    0.1367007    0.1207744  15.72 0.0009178779    1.382    0.276
        89  -9.9627    125.4155     67.7663   7.7861508967e+01   4.3908575546e+01    0.2957847    0.1418514 -42.25 0.0009969121    2.056    0.514
        90 -12.5771    160.4812     62.9845   6.8352911540e+01   3.6268030377e+01     1.699103    0.9984993 -65.41  0.006273643    2.765    0.638
        91 -10.2819    117.9716     65.3758   7.9044143863e+01   4.6060449971e+01     0.263992    0.2124345 -40.07 0.0002641627    1.222    0.182
        92  -8.9664    170.0845     44.3765   6.0611125190e+01   3.6580900163e+01     0.453948    0.2653476   9.58  0.001677703    2.782    0.640
        93 -11.9113    125.2225     39.9594   6.7975870360e+01   4.8724754521e+01    0.7094012    0.3839006 -39.07  0.002733824    1.819    0.450
        94  -9.6816    163.9288     40.9656   6.0511732211e+01   3.8632730626e+01    0.3394072    0.2238774 -13.47   0.00133578    1.705    0.414
        95  -8.5929     91.7860     37.9654   7.6509523068e+01   5.6915746867e+01    0.1886836    0.1150418 -35.28 0.0003140741    1.592    0.372
        96 -10.0113    170.4440     34.1137   5.7159672311e+01   3.7826514145e+01    0.4260341    0.3559698 -37.30  0.001587317    1.164    0.141
        97 -10.6450    116.2256     34.4654   6.8007395834e+01   5.1794461736e+01    0.2861607    0.2059645 -30.25 0.0006073439    1.374    0.272
        98 -12.6378    214.7714    237.7435   9.4625724793e+01   1.6131347735e+00    0.8224809    0.4961495  -4.41  0.005786682    1.829    0.453
        99  -9.9465    112.7873     29.8030   6.6941491805e+01   5.3332366130e+01    0.2049174    0.1759299 -66.41 0.0005338367    1.329    0.248
       100 -10.7829    160.5628     25.2815   5.5633588497e+01   4.1500693137e+01    0.3146758    0.2805121 -19.01 0.0005689304    1.137    0.120
       101 -12.9031    214.9032    219.9642   9.2168031047e+01   3.3098212809e+00     1.216774    0.6953176   5.57   0.00752504    1.990    0.498
       102 -10.2410    129.0209    237.3888   1.0893773416e+02   1.3144434935e+01    0.1595422    0.1459176  41.55 0.0001798164    1.238    0.192
       103 -15.4273    249.7733     82.1210   5.9997709511e+01   1.3533481599e+01     1.690333    0.3807107 -23.38  0.004815622    5.222    0.808
       104 -12.8263    180.2656    214.6901   9.7205241011e+01   8.7909996143e+00     1.266935    0.7894118  -5.42  0.007548816    2.210    0.548
