#   1 NUMBER                 Running object number                                     
#   2 MAG_AUTO               Kron-like elliptical aperture magnitude                    [mag]
#   3 X_IMAGE                Object position along x                                    [pixel]
#   4 Y_IMAGE                Object position along y                                    [pixel]
#   5 X_WORLD                Barycenter position along world x axis                     [deg]
#   6 Y_WORLD                Barycenter position along world y axis                     [deg]
#   7 A_WORLD                Profile RMS along major axis (world units)                 [deg]
#   8 B_WORLD                Profile RMS along minor axis (world units)                 [deg]
#   9 THETA_WORLD            Position angle (CCW/world-x)                               [deg]
#  10 FWHM_WORLD             FWHM assuming a gaussian core                              [deg]
#  11 ELONGATION             A_IMAGE/B_IMAGE                                           
#  12 ELLIPTICITY            1 - B_IMAGE/A_IMAGE                                       
         1 -14.2328     68.6143    144.2904   9.8549272438e+01   3.7381528654e+01     4.377279     2.343203  76.27  0.002979018    4.179    0.761
         2 -13.5668    203.7304     41.8697   3.9378893963e+01   2.9565477695e+01     1.439723     1.266093  21.63  0.007449739    1.546    0.353
         3 -13.4888    215.4644     30.7665   3.5531087196e+01   2.8378550876e+01    0.9266349    0.8085314  34.51  0.003250174    1.581    0.367
         4 -12.6887    241.4344      5.7235   2.8255610381e+01   2.5841950726e+01    0.7643406    0.5354347 -84.48  0.005114492    1.201    0.168
         5 -10.6798      2.2476      3.9595   8.5337491266e+01   7.4266135547e+01    0.4449429    0.1189446 -46.61  0.001883303    3.979    0.749
         6  -8.4210    168.8452    235.8261   8.8959454054e+01   6.6094024487e-01    0.1559297     0.149382  35.50 0.0004927209    1.277    0.217
         7 -10.1208    102.2087    249.3741   1.0503061110e+02   8.2213821853e+00    0.2970001    0.1949504 -84.28  0.001309079    2.032    0.508
         8 -15.2218      7.2935    156.6635   1.1780087881e+02   4.0523064309e+01     7.164089     1.457412 -75.54   0.02263275    4.246    0.764
         9 -10.5360     81.4789    182.3935   1.0127642258e+02   2.5866360478e+01    0.4973384    0.3663183  78.17  0.002319239    1.533    0.348
        10  -9.3530     99.3384    180.9074   9.6364779180e+01   2.3467499482e+01    0.2651621    0.2156434  25.26   0.00054183    1.303    0.233
        11  -8.3744     87.4321    177.4480   9.8936299623e+01   2.6190674782e+01    0.1448344    0.1377971  81.92 7.837596e-05    1.010    0.010
        12 -12.6147     78.4719    158.7124   9.8253255823e+01   3.2258893359e+01     1.775351    0.7415142  56.76 0.0006856413    4.525    0.779
        13 -12.7978     66.7642    154.7557   1.0093686624e+02   3.4935413428e+01    0.5866089    0.4317518 -45.22  0.001053258    1.393    0.282
        14  -9.8627    119.5688    245.3438   1.0086886686e+02   6.4395380049e+00    0.2728005    0.1229176 -52.61  0.001269516    2.540    0.606
        15 -11.4328     70.1294    167.8477   1.0209928897e+02   3.1125010252e+01    0.5510175     0.309896 -49.42  0.000669507    1.804    0.446
        16 -10.0294    186.8982    175.2966   7.3984318763e+01   9.0004964801e+00    0.3521001    0.3119988 -33.81  0.001313759    1.125    0.111
        17  -9.0069     90.4877    175.0678   9.7730762955e+01   2.6306377350e+01    0.2260747    0.1436985 -61.66   0.00102509    1.571    0.363
        18 -10.9498    113.6525    172.9732   9.1194743143e+01   2.2980174636e+01    0.6379261    0.1963643  39.13  0.002009839    3.090    0.676
        19 -10.4407    240.1491    169.5855   6.2552424999e+01   1.0624405112e+00    0.2295446    0.1586155 -40.53 0.0005775537    1.347    0.258
        20 -13.6378     16.6015    216.7154   1.2020702436e+02   2.5591644657e+01    0.9441288    0.5630693  34.85    0.0049365    1.705    0.413
        21  -9.7268     36.2532    161.4648   1.1053944180e+02   3.6823864072e+01     0.409441    0.1963098  38.68  0.001866288    2.122    0.529
        22 -10.8792     31.9308    154.5937   1.1088615245e+02   3.8999206516e+01    0.4815134    0.2861656  81.64  0.002287152    1.891    0.471
        23 -11.4172     86.3642    152.8276   9.4911079398e+01   3.2555074440e+01     0.650683     0.461555 -17.95  0.001700533    1.935    0.483
        24  -9.0629    174.9142    149.3328   7.0952015574e+01   1.6645807041e+01    0.2715112    0.2089148 -53.28 0.0008615786    1.388    0.280
        25 -10.4640    133.6549    144.5107   7.9911675299e+01   2.6071802061e+01     1.123056    0.2858628 -53.70  0.002581547    5.509    0.818
        26 -11.5110     65.3966    172.6043   1.0410261716e+02   3.0564022745e+01    0.5280121    0.3205991 -37.75  0.002350345    2.091    0.522
        27 -11.0223     54.4586    148.5114   1.0351194839e+02   3.8127941993e+01    0.7635436    0.3283699 -61.81  0.003065014    2.061    0.515
        28  -9.0623     48.0385    144.8046   1.0483177202e+02   3.9838318312e+01    0.2304765    0.1554801 -23.08  0.001084524    1.960    0.490
        29 -10.2524    100.8151    138.7468   8.7774354735e+01   3.3698260560e+01    0.5976293    0.3735832 -20.26  0.002233452    2.521    0.603
        30 -11.7260     88.0352    138.1829   9.1459005300e+01   3.6015322240e+01    0.3258316    0.2696942 -41.44   0.00041169    1.198    0.166
        31 -14.5461     36.6540    193.8366   1.1394618095e+02   2.8784257885e+01      3.76688     1.525461  68.38  0.007281785    3.735    0.732
        32 -13.5968     49.6902    187.5244   1.1010805266e+02   2.8832236918e+01     1.568408     1.110397  75.68  0.006937793    1.409    0.290
        33  -9.9229    105.9129    130.9017   8.4466793945e+01   3.4717418984e+01    0.4248818    0.3151163 -56.43  0.001733534    1.361    0.265
        34  -9.4466    110.2425    129.5912   8.2883414363e+01   3.4225602729e+01    0.3557813    0.2614282  14.95 0.0008169092    1.665    0.400
        35 -16.7827     15.9246    242.7038   1.2186015536e+02   2.0222799261e+01     6.427278     2.389424  23.85   0.02789556    4.001    0.750
        36 -10.0996     44.1378    129.1115   1.0343213701e+02   4.4315932018e+01    0.2706361    0.1724005 -52.40  0.001185545    1.400    0.286
        37 -10.5127     46.5193    124.6598   1.0185696632e+02   4.5197838480e+01    0.3283918    0.2266143 -43.35 0.0008768101    1.396    0.284
        38  -9.9486    134.9374    128.6931   7.5770661791e+01   2.9504230609e+01    0.3234768    0.2771735 -22.35  0.001568963    1.234    0.190
        39 -10.6712    192.9910    194.6581   7.6581446990e+01   4.2032995955e+00    0.9139656    0.4978882 -64.38  0.002704329    5.860    0.829
        40 -10.3461     97.6161    125.4166   8.5643301460e+01   3.7573383225e+01    0.3292799     0.269591   2.55 0.0009205167    1.420    0.296
        41 -10.0687     24.9075    120.1952   1.0819111081e+02   4.8394231664e+01    0.4932822    0.1582977  41.81  0.001773428    3.771    0.735
        42  -9.2224    135.0000    119.9450   7.3526655747e+01   3.1487695520e+01    0.2661542   0.08964118 -45.52 0.0007987719    2.917    0.657
        43  -9.0094    107.0724    118.5305   8.1065606454e+01   3.7491531271e+01    0.2220542    0.2024542 -37.62 0.0003441696    1.064    0.060
        44  -9.0830     82.3157    116.9462   8.8408047708e+01   4.2269022309e+01    0.2148374    0.1928886 -41.28 0.0006505111    1.052    0.049
        45 -10.2175    231.1850    113.6687   5.2155692958e+01   1.2402630508e+01    0.2803457    0.2563033 -39.41 0.0007665661    1.060    0.057
        46  -9.5727     39.9593    113.0871   1.0185609960e+02   4.8825232221e+01    0.2122834    0.1895581 -58.71 0.0004919445    1.043    0.041
        47 -10.2401     33.3178    109.6957   1.0350938602e+02   5.0312459679e+01    0.3305472    0.2174719 -77.21 0.0005643353    1.612    0.380
        48  -9.1312    205.5508    110.1817   5.5547582198e+01   1.8139457739e+01     0.236232    0.2115424  52.73 0.0006337349    1.220    0.180
        49 -10.4928    245.8111    106.8181   4.8573162088e+01   1.0865820669e+01    0.1900901    0.1418023 -59.39  0.001090162    1.363    0.266
        50  -9.4515    119.2989    103.9388   7.3548069477e+01   3.8388882375e+01    0.2245619    0.2025439 -34.98 0.0004751738    1.090    0.082
        51 -10.1594     38.9540    101.7868   9.9887092380e+01   5.1728998529e+01    0.3290284    0.1966766  42.41  0.001574704    1.996    0.499
        52  -9.4162    120.8306     98.4991   7.1570680122e+01   3.9247443716e+01    0.3159377    0.2096673 -61.40  0.001138407    1.918    0.479
        53  -9.3502     32.9614     96.9395   1.0105031428e+02   5.3480564648e+01     0.207063    0.1616842  73.52 0.0006926979    1.670    0.401
        54  -9.2779     45.1591    104.9383   9.8332103539e+01   5.0306022015e+01    0.2060474    0.1877142 -88.68   0.00048791    1.244    0.196
        55  -9.7763    122.1572    198.3898   9.3516369900e+01   1.5616408187e+01    0.3497173     0.258983 -72.23  0.001507876    1.625    0.385
        56  -9.6186     53.0097     90.9804   9.2071475604e+01   5.2739429457e+01     0.243722    0.1536388 -27.68  0.000933642    1.718    0.418
        57  -8.4467    151.7048     83.9976   5.9481138134e+01   3.5175048316e+01    0.2440892    0.1062976 -56.17 0.0005593349    3.966    0.748
        58  -9.7943     72.5281     83.2932   8.2637337668e+01   5.1695473079e+01     0.416657    0.2514743  55.10  0.001721731    2.483    0.597
        59  -8.0067    107.3654     77.6742   6.9231392613e+01   4.6363094967e+01    0.1531022    0.1228546  89.24  0.000703816    1.799    0.444
        60  -8.4005     93.3148     67.6690   7.0372074892e+01   5.1124355554e+01    0.1413955     0.119975 -86.39 0.0004243615    1.680    0.405
        61 -14.6817      9.3143    207.5650   1.2114896041e+02   2.8293412031e+01     1.358252     1.095083 -25.93   0.00815168    1.864    0.464
        62  -8.7216     50.1281     63.3798   8.5031683081e+01   5.9117038015e+01    0.1829893    0.1201017  39.44 0.0006916382    1.768    0.434
        63 -10.4624     13.4445     60.0235   1.0021858430e+02   6.3404951883e+01    0.2518265    0.2104557 -64.41 0.0005124557    1.348    0.258
        64 -12.8420    193.8416     48.4579   4.2252471037e+01   3.0932500824e+01    0.9080083    0.7781495  25.34 0.0009970641    1.530    0.346
        65 -10.8139     94.9755    241.8122   1.0573261080e+02   1.0695928239e+01    0.4858699    0.1871371 -60.30   0.00212407    2.895    0.655
        66  -9.6093    111.0093    203.2907   9.7013009749e+01   1.6356435264e+01    0.2024972    0.1746747  40.96  0.000400762    1.087    0.080
        67  -8.9261     89.0588    210.6156   1.0333076605e+02   1.8102849288e+01    0.2197464    0.1777664 -87.42  0.001235204    1.304    0.233
        68  -9.8807    147.4822    187.3878   8.5411475178e+01   1.3634481000e+01    0.4791658    0.3013459 -69.77  0.001940587    2.478    0.596
        69  -8.0345     74.0150     56.0000   7.2991091884e+01   5.6838139607e+01    0.2196973   0.07608885  40.23  0.000425273    2.840    0.648
        70 -10.6755      2.2121     24.3722   9.4513206173e+01   7.1022618653e+01    0.2991561    0.1528368 -48.70  0.001402964    1.693    0.409
        71  -8.8711    197.9574     23.6671   3.5708813604e+01   3.3127278519e+01    0.1928917    0.1743972 -31.86 0.0005825708    1.326    0.246
        72  -8.8306    189.2791     15.0140   3.4554028257e+01   3.6066798836e+01    0.1738425    0.1493721 -70.57  0.000629665    1.090    0.083
        73 -10.5136    117.9399    237.1169   1.0017884635e+02   8.2312508322e+00    0.2518823    0.1852574 -58.05  0.001446238    1.562    0.360
