#   1 NUMBER                 Running object number                                     
#   2 MAG_AUTO               Kron-like elliptical aperture magnitude                    [mag]
#   3 X_IMAGE                Object position along x                                    [pixel]
#   4 Y_IMAGE                Object position along y                                    [pixel]
#   5 X_WORLD                Barycenter position along world x axis                     [deg]
#   6 Y_WORLD                Barycenter position along world y axis                     [deg]
#   7 A_WORLD                Profile RMS along major axis (world units)                 [deg]
#   8 B_WORLD                Profile RMS along minor axis (world units)                 [deg]
#   9 THETA_WORLD            Position angle (CCW/world-x)                               [deg]
#  10 FWHM_WORLD             FWHM assuming a gaussian core                              [deg]
#  11 ELONGATION             A_IMAGE/B_IMAGE                                           
#  12 ELLIPTICITY            1 - B_IMAGE/A_IMAGE                                       
         1 -14.3296    163.8960     57.6784   6.9055187778e+01   3.7103429423e+01      1.54045      1.23065  33.64   0.00506453    1.394    0.283
         2 -14.4936    177.8267     42.8963   6.2638738892e+01   3.5986573140e+01    0.9927818    0.9036765  39.48  0.003917922    1.228    0.185
         3 -15.0908    201.8486     10.5969   5.1529505767e+01   3.4347870505e+01     2.639798    0.9850649  60.50  0.009482568    2.235    0.553
         4 -12.7694    203.7235    199.8434   9.3734483246e+01   5.1189757143e-01    0.7139525    0.2823844  33.65  0.002510066    3.092    0.677
         5 -14.2284    246.7590    240.3934   9.2873809558e+01  -1.3345756367e+01     1.696234    0.6603094 -35.43  0.007887315    2.614    0.617
         6 -17.6918     61.9866    230.3070   1.2747696594e+02   1.8811464334e+01     10.40567     7.024869 -78.12    0.0643235    1.341    0.254
         7 -19.0287     40.7592     98.2225   1.1335885931e+02   5.1056186378e+01     14.68485    0.7510923 -57.99   0.02431934   16.292    0.939
         8 -12.2473    188.5560    176.0396   9.2168407711e+01   8.1966365713e+00    0.7971033    0.4513142 -60.26  0.002160947    2.304    0.566
         9 -10.1105    194.5050    172.5480   9.0195396118e+01   7.7131122659e+00    0.2495468    0.1406538 -55.17 0.0006578128    2.027    0.507
        10  -9.7974    207.9951    171.8979   8.7290801815e+01   5.1326552896e+00    0.2146087    0.1489705 -58.01 0.0004978231    1.650    0.394
        11 -13.2650    238.4745    174.6565   8.2001981379e+01  -1.2015110762e+00    0.6482171    0.3086822  33.85  0.002657918    2.561    0.610
        12 -10.9232    223.0321    198.3066   8.9615183300e+01  -2.7331135061e+00    0.1853033    0.1730434  15.31 0.0004454824    1.053    0.050
        13 -10.5245    187.0635    165.8334   9.0362712287e+01   1.0643177909e+01    0.3693266    0.2099517 -55.90  0.001166733    1.992    0.498
        14 -12.0572    124.1661    161.3654   1.0386573274e+02   2.4396301970e+01    0.3123747    0.2356086 -75.52 0.0005677731    1.454    0.312
        15 -10.6346    186.7847    186.5595   9.4658916563e+01   6.3829871001e+00    0.2513497     0.230846 -69.32 0.0006830614    1.179    0.152
        16 -12.3948    193.2894    195.5049   9.5039397733e+01   3.3228517524e+00     1.327222    0.6573576 -64.44  0.004065839    4.665    0.786
        17 -13.3302    134.0126    146.2097   9.8315005934e+01   2.6021759227e+01     1.562932    0.3976265 -55.82   0.00356267    6.027    0.834
        18 -11.0141    128.6027    140.0864   9.8310421247e+01   2.8504173221e+01    0.3060739    0.2920297   9.15  0.001655018    1.167    0.143
        19 -11.0258    187.2655    153.5952   8.7684660864e+01   1.3199750347e+01    0.4158279    0.2216592  34.18  0.001580041    2.312    0.568
        20 -11.7135    123.6606    151.8619   1.0206385168e+02   2.6718157498e+01    0.2842363    0.2541854  48.45 0.0006314398    1.144    0.126
        21 -11.3568    174.5976    149.2775   8.9489831566e+01   1.6844438845e+01    0.3096316     0.266238 -59.02 0.0008260248    1.174    0.148
        22 -12.9840    144.0422    147.0800   9.6070968617e+01   2.3794130454e+01    0.6862254    0.3705573 -62.08  0.002579574    2.292    0.564
        23 -12.0896    141.6509    138.5722   9.4750010432e+01   2.6224998390e+01     0.361115    0.3036878 -33.10  0.001799168    1.295    0.228
        24 -11.3664    119.1189    149.3808   1.0267538924e+02   2.8153021276e+01    0.3451332    0.2069524 -49.36  0.001003393    1.626    0.385
        25 -11.2869    159.2261    146.4127   9.2338587568e+01   2.0768664386e+01     0.360249    0.2528353 -80.09  0.001190818    1.984    0.496
        26 -11.7766    134.8791    111.6183   8.9996818415e+01   3.3593271021e+01     0.521783    0.1473769 -46.28  0.001544074    3.506    0.715
        27 -10.8375    134.5622    105.2112   8.8452832096e+01   3.5010184287e+01    0.4904924    0.1472021 -44.75  0.001508382    3.308    0.698
        28 -12.9255    135.8187    128.0621   9.3758125634e+01   2.9795781214e+01     1.491663    0.2565916 -50.47  0.003116091    6.961    0.856
        29 -11.8973    160.6440    128.0452   8.7778703094e+01   2.4522279240e+01     0.400927     0.317234 -67.27  0.001566555    1.387    0.279
        30 -11.3596    106.2018    123.6214   1.0038042183e+02   3.6469926542e+01    0.2769935    0.2440127 -11.62 0.0004672747    1.302    0.232
        31 -11.2821    121.4864    122.8114   9.6163644515e+01   3.3824428568e+01    0.3150713    0.2348551  -6.62  0.001044489    1.948    0.487
        32 -10.8043    112.4996    118.0141   9.7384029911e+01   3.6591621901e+01    0.2647431    0.2531981  26.94 0.0007839724    1.098    0.089
        33  99.0000     11.5040    206.1296   1.3459419592e+02   2.9795302787e+01    0.3055886    0.1947022  60.58  0.002044969    1.441    0.306
        34 -10.8354    231.3453    113.7518   7.0318692274e+01   1.1757382571e+01    0.2583013    0.2438234 -82.93 0.0007762678    1.065    0.061
        35 -11.5036    168.1557    113.1241   8.2460582870e+01   2.6020099094e+01    0.3911083    0.2950129 -84.14   0.00101025    1.702    0.412
        36 -12.1498    121.5237    111.6614   9.3444487395e+01   3.6272199940e+01    0.3322356    0.2928118  54.04  0.001308415    1.183    0.155
        37 -10.9604    205.3823    110.1568   7.4105639029e+01   1.8144749692e+01    0.3394111    0.2809483  37.27  0.001146525    1.379    0.275
        38 -10.1986     91.5824    112.2456   1.0172426500e+02   4.1485108950e+01    0.1936667    0.1254223 -42.25 0.0003250231    1.488    0.328
        39 -10.0868    150.0476     82.2539   7.8641036963e+01   3.6149304593e+01    0.2039095    0.1897121  52.71 0.0004298842    1.046    0.044
        40 -10.7369     83.9225     76.9225   9.4839905173e+01   4.9928663187e+01    0.1975494    0.1814877 -15.24 0.0003624753    1.024    0.024
        41  -9.4729    166.5100    235.5005   1.0753184879e+02   7.0213861917e-01    0.1341838    0.1185597  47.26 0.0001163756    1.028    0.027
        42 -11.3091    238.8041    186.1678   8.4250344913e+01  -3.3455525995e+00    0.1952548     0.155083  -4.72 0.0007266802    1.356    0.263
        43 -13.5000    182.3924     36.1764   6.0203412581e+01   3.5812237735e+01    0.6721185    0.3922823  47.16  0.000998411    1.779    0.438
        44 -10.4673     13.4069     59.8765   1.1346981368e+02   6.0771764467e+01    0.1552394    0.1383677 -25.13 0.0004266814    1.207    0.172
