#   1 NUMBER                 Running object number                                     
#   2 MAG_AUTO               Kron-like elliptical aperture magnitude                    [mag]
#   3 X_IMAGE                Object position along x                                    [pixel]
#   4 Y_IMAGE                Object position along y                                    [pixel]
#   5 X_WORLD                Barycenter position along world x axis                     [deg]
#   6 Y_WORLD                Barycenter position along world y axis                     [deg]
#   7 A_WORLD                Profile RMS along major axis (world units)                 [deg]
#   8 B_WORLD                Profile RMS along minor axis (world units)                 [deg]
#   9 THETA_WORLD            Position angle (CCW/world-x)                               [deg]
#  10 FWHM_WORLD             FWHM assuming a gaussian core                              [deg]
#  11 ELONGATION             A_IMAGE/B_IMAGE                                           
#  12 ELLIPTICITY            1 - B_IMAGE/A_IMAGE                                       
         1 -14.5307     68.3619    144.2741   1.1002198317e+02   3.7450065706e+01     4.838043     2.349571  71.41    0.0080739    3.931    0.746
         2 -11.7278      1.9336     88.2939   1.2053858515e+02   5.6941647062e+01    0.5879025    0.1624395 -75.38  0.002266854    3.357    0.702
         3 -13.9507    193.5285     39.4291   5.1675487901e+01   3.1616909500e+01     1.595896     1.198458  19.61  0.003637993    1.749    0.428
         4 -14.2118    202.2463     32.9322   4.8636887875e+01   3.0225762859e+01     1.678564     1.435771   6.11  0.007158989    1.443    0.307
         5 -12.6084    210.4042     24.3390   4.5309120544e+01   2.9219550671e+01    0.5859072    0.4102761  53.96  0.001076667    1.500    0.333
         6 -14.1931    216.6161     17.2625   4.2792488031e+01   2.8496772146e+01     1.429728     1.085731  40.47  0.004499846    1.617    0.382
         7 -12.4529      4.4590      3.3235   9.6219175979e+01   7.3854260426e+01    0.5497251    0.3567482 -30.21  0.003924582    1.123    0.109
         8  -9.2726     59.1958      7.3738   7.1358089132e+01   6.6702636027e+01    0.1593003    0.1133339  49.15 0.0005891243    1.686    0.407
         9 -10.8309     43.6999      4.0044   7.6043513889e+01   6.9510587478e+01    0.1964965    0.1497149  17.90 0.0004759248    1.185    0.156
        10  -9.6259     96.4604    201.0889   1.1145893996e+02   2.0619398635e+01    0.1890332    0.1518639  56.02 0.0003445326    1.087    0.080
        11 -15.5644     87.2331    245.4098   1.1785786465e+02   1.3793891338e+01     7.978277     2.566724  34.69   0.02002896    4.001    0.750
        12 -13.8934     28.6113    220.3402   1.2640026381e+02   2.5762798672e+01     1.090422    0.7405666  76.22  0.006411444    1.108    0.098
        13 -14.0374     33.1003    246.7905   1.2715458404e+02   2.0469699971e+01    0.9246784    0.8826658  84.66  0.008028745    1.651    0.394
        14 -15.9363      9.5047    240.6594   1.3061610273e+02   2.4044981963e+01     1.714388     1.119143 -89.28  0.007839577    1.327    0.246
        15 -16.2174      7.4798    199.3690   1.2897853576e+02   3.1987963351e+01     6.972111    0.9480987 -75.85  0.007517341    5.496    0.818
        16 -11.5962    193.2985    193.5545   9.0095825971e+01   4.7839210145e+00    0.7591841     0.454265 -55.89  0.003485778    2.478    0.596
        17  -9.2683    141.2831    198.0205   1.0155711369e+02   1.3624641271e+01     0.178351    0.1658139  78.11 0.0003945256    1.130    0.115
        18  -9.4542     82.1074    195.1528   1.1376614568e+02   2.4018262232e+01    0.1794662    0.1694336  64.58 0.0005861563    1.239    0.193
        19  -8.9788    151.7262    193.3653   9.8591422926e+01   1.2587335767e+01    0.1364017    0.1051476  79.60 0.0007003674    1.667    0.400
        20  -8.9845     96.5993    189.8075   1.0997177283e+02   2.2922567759e+01    0.1803932    0.1193278 -80.45 0.0005243021    1.644    0.392
        21 -10.3662     73.4673    188.1157   1.1479105334e+02   2.6754254343e+01    0.2412599    0.1644869  62.36 0.0007670278    1.326    0.246
        22  -9.1130     98.9461    186.5028   1.0900328420e+02   2.3245078437e+01    0.1942309    0.1210856  44.46 0.0004686895    1.483    0.326
        23 -12.1722     66.7580    180.3775   1.1535360359e+02   2.9365264260e+01    0.3965557    0.2830499 -41.01  0.001425111    1.989    0.497
        24 -12.0214     71.4800    174.8558   1.1361745067e+02   2.9940370356e+01    0.3122986    0.2511299 -45.84 0.0009097658    1.566    0.361
        25 -10.2074    207.1613    180.0678   8.4780524928e+01   4.3935415255e+00    0.4527394    0.2314091  26.88  0.001737161    2.398    0.583
        26  -9.6486     99.6739    180.6367   1.0800263830e+02   2.4383245977e+01    0.2057267    0.2039582  26.15 0.0005764317    1.251    0.200
        27 -10.4779     39.5203    177.4433   1.2100303904e+02   3.3373839441e+01      0.24869    0.1652228  69.76 0.0005772603    1.325    0.245
        28 -13.5223     68.0320    161.3046   1.1262967232e+02   3.3499318054e+01    0.5515618    0.4480663 -40.40  0.001295027    1.573    0.364
        29 -10.1351    174.4493    249.0084   1.0245921940e+02  -2.2848785375e-01     0.228132    0.1358632  49.65 0.0008300281    1.585    0.369
        30 -10.4550    137.9547    170.9525   9.7662540305e+01   1.9626147467e+01    0.2293349    0.2115266  59.22  0.000895846    1.025    0.024
        31 -10.7050    194.3077    167.5296   8.4765350630e+01   9.0379709011e+00    0.3280672    0.3174129 -52.85  0.001101563    1.198    0.165
        32  -9.6642    145.6325    168.2353   9.5405307105e+01   1.8698662060e+01    0.1975871    0.1368602 -38.97 0.0005581373    1.620    0.383
        33 -11.1071     35.2183    167.1814   1.2095988174e+02   3.6121992514e+01     0.287901    0.2324001  28.72 0.0008669682    1.601    0.375
        34 -10.3736    230.8208    167.3953   7.7740925217e+01   1.9880995127e+00    0.3095751    0.1479538 -47.52  0.001245486    2.794    0.642
        35 -13.4015     41.1677    208.5714   1.2330111049e+02   2.6645356502e+01    0.4151093    0.3525233 -79.80  0.001353226    1.336    0.251
        36 -11.0073    133.6300    144.0176   9.3298272381e+01   2.6295345189e+01     1.149133    0.2735574 -54.19  0.002630693    6.247    0.840
        37 -11.6605     54.2706    147.7621   1.1414425738e+02   3.8444586928e+01    0.5010776    0.2416984 -66.52  0.002373353    1.822    0.451
        38 -10.2734    174.2817    148.0904   8.4760209200e+01   1.6872725394e+01    0.4247509    0.2704885 -59.42  0.001645732    2.043    0.510
        39 -10.5267     39.1786    146.3515   1.1774093423e+02   4.0488007300e+01    0.2823741    0.1956549 -83.57  0.000872057    1.242    0.195
        40 -12.4325     88.5091    142.4678   1.0446747514e+02   3.4887789929e+01    0.3916573    0.3181079   8.09 1.124549e-06    1.694    0.410
        41 -10.7440     33.3086    144.0302   1.1892292866e+02   4.1630172939e+01    0.2505272    0.1339272 -74.82  0.001315966    1.580    0.367
        42 -11.3246     28.5324    143.7348   1.2007353898e+02   4.2159363530e+01    0.2806817    0.2101419 -74.40  0.001794636    1.121    0.108
        43 -10.0027    100.5017    143.4915   1.0154755116e+02   3.2651922351e+01    0.2784572    0.2481457  64.00 0.0008211331    1.102    0.093
        44  -9.9423    103.2384    140.1415   1.0017924376e+02   3.2958164758e+01    0.3793113    0.2725806 -17.31  0.001681906    2.221    0.550
        45  -9.3637     79.5426    139.6971   1.0632248326e+02   3.6935735284e+01    0.1914147      0.12742 -75.46 0.0009307502    1.537    0.349
        46  -9.4393     36.0023    140.4449   1.1781011231e+02   4.2201561148e+01    0.1607901    0.1233004  38.28 0.0004070585    1.495    0.331
        47 -11.1979     25.8297    137.3779   1.2002789724e+02   4.3888684541e+01    0.3341826    0.1627376  42.62  0.001135425    2.157    0.536
        48 -10.2280    110.8793    131.6149   9.6382747917e+01   3.3560723567e+01     0.328905     0.255877  -0.70 0.0009567404    1.856    0.461
        49  -9.9628    105.9628    130.6992   9.7488846801e+01   3.4681388049e+01     0.345562     0.296432 -89.58   0.00121069    1.228    0.185
        50 -11.0706    135.7739    127.0403   8.8883205676e+01   2.9629262298e+01    0.7047722    0.1376727 -47.67  0.001677955    5.204    0.808
        51 -11.0396     98.2077    128.0672   9.9012027465e+01   3.6680843617e+01    0.3017166    0.2499486 -32.40 0.0006087375    1.387    0.279
        52 -11.8336     80.5738    165.0282   1.1015417072e+02   3.0850754424e+01    0.3934268    0.2929287 -84.07 0.0004100323    1.297    0.229
        53 -10.0437    160.9877    127.9637   8.3006981480e+01   2.3909031706e+01    0.2583781    0.1995999 -85.11  0.001143849    1.760    0.432
        54  -9.7176    125.8310    127.3103   9.1486526687e+01   3.1631297905e+01    0.3036016     0.206158 -75.00  0.001183877    2.001    0.500
        55 -10.4164    117.1307    125.9980   9.3456257076e+01   3.3665660430e+01    0.3581529    0.2201127 -50.73  0.001287382    1.593    0.372
        56 -12.6951     87.0455    158.0512   1.0751562033e+02   3.1468832914e+01     1.138744    0.6731845 -60.03  0.002110702    1.626    0.385
        57  -8.9592    239.6560    126.7091   6.7152857350e+01   6.8171256869e+00    0.1448983    0.1051814   9.59  0.000702642    1.656    0.396
        58 -15.4815     50.2054    199.8680   1.2083090957e+02   2.7334615750e+01     4.194451     1.670522  66.16   0.01763444    3.077    0.675
        59  -9.8892    107.6886    120.0194   9.4599213802e+01   3.6857229710e+01    0.2194615    0.2097774  49.85 0.0003464196    1.087    0.080
        60 -11.7379     22.9045    117.8104   1.1836889147e+02   4.8730398021e+01    0.4662732    0.2170271 -52.87  0.001739652    1.942    0.485
        61 -11.0985    126.3286    173.5471   1.0078518196e+02   2.1266964589e+01    0.4483272     0.128216  42.64  0.001458179    3.226    0.690
        62  -9.9064     47.0433    172.1792   1.1882556509e+02   3.3682295994e+01    0.2246137    0.1568217 -81.98 0.0007191417    1.234    0.190
        63  -9.9450    168.0623    112.7913   7.7509207188e+01   2.5405789590e+01    0.3711929    0.2671061 -72.16  0.001349489    1.928    0.481
        64  -9.9990    134.6467    112.5544   8.5524383224e+01   3.3074790401e+01    0.3102729    0.1883408 -42.34 0.0009612365    1.644    0.392
        65 -11.4042     23.0660    109.6581   1.1717575457e+02   5.0634105347e+01     0.366792    0.2585806 -76.37  0.002009132    1.187    0.157
        66 -10.1152    205.4713    110.2564   6.9136202972e+01   1.7087728101e+01    0.3242669    0.2390747  40.66 0.0009702511    1.423    0.297
        67 -10.5178    134.5250    104.1449   8.3296240789e+01   3.4931301118e+01    0.6340517    0.1524878 -44.59  0.001664402    4.098    0.756
        68 -11.3720     41.1800    103.9393   1.1075672418e+02   5.0354346144e+01    0.4205089    0.2073733  47.89  0.001953794    2.470    0.595
        69  -9.6376     66.7727    103.6134   1.0274350323e+02   4.7396366602e+01    0.2456315    0.1809376  46.18  0.001306771    1.512    0.339
        70  -9.5334     91.7562    102.7951   9.4928288352e+01   4.3729112829e+01    0.1951867    0.1668959 -89.92 0.0005033907    1.334    0.251
        71 -11.9915    242.5359    101.8857   6.0817155271e+01   1.0253591511e+01    0.3240265    0.2510914 -54.13  0.001720861    1.367    0.269
        72  -9.9215    121.4288     98.7943   8.5308822695e+01   3.8925665594e+01    0.2223483    0.1455558 -34.88 0.0005280513    1.619    0.383
        73 -10.3681     76.7927    234.4737   1.1878567221e+02   1.7152326540e+01      0.26592    0.1490719 -70.23  0.001093159    1.913    0.477
        74  -9.9522    233.9958     86.0042   5.8197463160e+01   1.4673988363e+01    0.1767793    0.1621654 -40.92 0.0004874667    1.002    0.002
        75  -9.6625    158.4796     80.4842   7.0551958497e+01   3.4057933302e+01    0.1559094    0.1548005   2.25 0.0001650935    1.008    0.008
        76  -8.9851    184.3516     77.3217   6.4216589612e+01   2.8123270366e+01    0.1637256     0.121046  20.74 0.0007047927    1.749    0.428
        77  -9.3171     54.1000     65.3063   9.6987347085e+01   5.7686410108e+01    0.1718234    0.1626032 -26.44 0.0003886686    1.124    0.110
        78 -10.0630     33.0253    100.2898   1.1262772269e+02   5.1994940809e+01    0.1738365    0.1536192 -69.13 0.0005524003    1.075    0.070
        79 -10.2506     13.5004     59.9475   1.1120220554e+02   6.2588182506e+01    0.1866008    0.1689411 -26.77  0.000402544    1.225    0.183
        80  -9.2114     37.4670     56.5618   1.0072723590e+02   6.1379655766e+01    0.1278961    0.1050323 -39.04 9.696444e-05    1.006    0.006
        81 -11.7391    169.0297    232.8769   1.0124487567e+02   2.9221715926e+00    0.3493415    0.1516561  40.72  0.001680889    1.871    0.465
        82  -9.7011     71.9060    230.0612   1.1929944760e+02   1.8620257522e+01    0.2042787    0.1352451  51.92 0.0008044406    1.225    0.184
        83 -13.4537     46.7748    219.7973   1.2309504375e+02   2.3781430621e+01    0.8623299    0.5769433 -79.20  0.002008491    1.418    0.295
        84 -10.4538    162.7095    213.6727   9.9618777299e+01   7.0178563562e+00    0.3796019    0.2555653 -73.81  0.001894067    2.443    0.591
        85 -11.5776    145.8038     50.2788   6.3774514280e+01   4.2412816454e+01    0.6453549     0.401864 -80.52  0.002210835    2.954    0.661
        86 -10.5600    147.5487     43.7930   6.1201530381e+01   4.2941750011e+01    0.2678034    0.2498633  74.97 0.0003929045    1.106    0.096
        87 -11.2266      2.2884     24.9280   1.0631077839e+02   7.0266604383e+01    0.2374074    0.1519025 -47.99 0.0007829237    1.184    0.156
        88  -9.6857    170.7525     20.0019   4.9215439238e+01   3.9945372236e+01    0.1737455    0.1228365 -26.42 0.0003256601    1.524    0.344
        89  -9.1346    163.8163    204.8997   9.8000275453e+01   8.3005635074e+00    0.1700427    0.1504524  71.28   0.00043438    1.299    0.230
        90 -10.5212    189.6643     15.0991   4.5199292759e+01   3.5557827726e+01    0.2383197    0.1809329  89.02 0.0005958642    1.266    0.210
        91 -10.1188     73.2628    203.6089   1.1654017032e+02   2.3542650272e+01    0.2301146    0.1858775 -85.02  0.001244361    1.187    0.157
