#   1 NUMBER                 Running object number                                     
#   2 MAG_AUTO               Kron-like elliptical aperture magnitude                    [mag]
#   3 X_IMAGE                Object position along x                                    [pixel]
#   4 Y_IMAGE                Object position along y                                    [pixel]
#   5 X_WORLD                Barycenter position along world x axis                     [deg]
#   6 Y_WORLD                Barycenter position along world y axis                     [deg]
#   7 A_WORLD                Profile RMS along major axis (world units)                 [deg]
#   8 B_WORLD                Profile RMS along minor axis (world units)                 [deg]
#   9 THETA_WORLD            Position angle (CCW/world-x)                               [deg]
#  10 FWHM_WORLD             FWHM assuming a gaussian core                              [deg]
#  11 ELONGATION             A_IMAGE/B_IMAGE                                           
#  12 ELLIPTICITY            1 - B_IMAGE/A_IMAGE                                       
         1 -14.4280     10.6748    204.0648   1.4924720168e+02   3.1754562104e+01     6.954799      3.10978 -84.31     0.021912    1.895    0.472
         2 -12.4930    194.9166     27.3597   6.8692996812e+01   3.2621577222e+01     1.811792      1.01361  -9.28  0.007466791    2.584    0.613
         3 -13.0664    204.9927     16.7314   6.4517654566e+01   3.1193833606e+01     2.304562     1.327415  30.01  0.009863298    2.627    0.619
         4  -8.9745    234.2052      7.3428   5.9352403721e+01   2.4928286678e+01    0.2770653    0.1963506 -34.60 0.0009618203    1.433    0.302
         5  -9.9751      5.9901      4.0177   1.1796482152e+02   7.3722501829e+01    0.1417102    0.1374513 -74.56 0.0009198219    1.735    0.424
         6  -8.9619     14.8253     17.8510   1.1910799568e+02   7.0800255307e+01    0.1394388    0.1213439 -38.39            0    1.302    0.232
         7 -10.0408    244.9411    250.3358   1.1054344090e+02  -1.0008110762e+01    0.3696021    0.1160164  34.69  0.001761152    2.501    0.600
         8  -9.7104     92.8127    249.6589   1.3762382492e+02   1.3612896011e+01    0.2502203    0.1708607  42.10  0.001135527    1.316    0.240
         9  -8.7527     53.9516    250.6727   1.4440335887e+02   1.8637367208e+01    0.1498589   0.07576978  45.11 0.0009555371    1.554    0.356
        10  -8.1562     46.1505    249.4470   1.4562642383e+02   1.9785093454e+01    0.2099056    0.0846025  65.17  0.001096617    2.276    0.561
        11 -10.2414     30.2903    248.1533   1.4814593396e+02   2.1818524500e+01    0.4321314    0.3642724 -22.67  0.002963752    2.608    0.617
        12  -9.0514     40.1454    246.3795   1.4644428533e+02   2.1001776674e+01    0.2948008    0.1069302  58.89  0.001351038    2.213    0.548
        13  -9.7460     12.6760    250.6457   1.5102685945e+02   2.3263653181e+01    0.4929814    0.1281039  33.38  0.002158449    5.092    0.804
        14 -10.7101      4.6072    248.7625   1.5218724002e+02   2.4367266655e+01     0.418259     0.212231  54.14  0.001678006    1.385    0.278
        15  -9.7432    248.1273    238.4167   1.0813643584e+02  -9.2615433601e+00    0.1721563    0.1584568  77.27  0.001207232    2.250    0.555
        16  -8.8885     71.3919    237.2013   1.4042335346e+02   1.8664281493e+01    0.2123524    0.1376119  67.98 0.0004723278    1.305    0.234
        17  -9.1117     50.6365    236.2307   1.4404037345e+02   2.1494041597e+01    0.2039297    0.1147027  61.97 0.0004923769    1.387    0.279
        18  -8.7661     23.4598    236.7302   1.4869455398e+02   2.4499176385e+01    0.1811893    0.1484974  50.15  0.001497768    1.432    0.301
        19  -9.1894    108.0007    246.0214   1.3456024916e+02   1.1958448794e+01    0.1845423    0.1124168  64.38 0.0006122816    1.611    0.379
        20  -9.5678     54.8826    230.9694   1.4292475682e+02   2.1899586251e+01    0.2936087    0.1828079  59.94  0.001424155    1.229    0.186
        21  -8.8546     31.7672    228.8749   1.4687066312e+02   2.4989910787e+01    0.1908511    0.1104978  58.90 0.0003751756    1.292    0.226
        22 -11.7054     41.0257    225.3025   1.4502252257e+02   2.4590556753e+01    0.2877179    0.2500063 -67.11 0.0008127416    1.576    0.366
        23  -9.4987    109.5975    225.2333   1.3208781961e+02   1.5166440178e+01    0.2423287    0.1823747  38.85  0.001537542    1.289    0.224
        24  -8.9921     77.7473    210.4329   1.3682724021e+02   2.2669713589e+01    0.2660675    0.1908662  73.83  0.001362168    1.257    0.204
        25  -9.7642    176.4810    201.7430   1.1526838693e+02   7.5103235689e+00    0.2310372    0.1913179  36.44 0.0003498266    1.025    0.025
        26 -13.9400     49.7306    213.9065   1.4261219389e+02   2.5684236953e+01     3.886765    0.9617742  45.09   0.01720818    2.932    0.659
        27 -10.7092     66.1819    192.9422   1.3743186292e+02   2.7742003520e+01     0.331171    0.2475072 -44.92  0.001366047    1.865    0.464
        28 -10.7941     71.3620    185.9061   1.3555165870e+02   2.8497855989e+01    0.2700797    0.2374198 -59.66 0.0004764465    1.366    0.268
        29  -9.7683    103.9118    173.6379   1.2651540998e+02   2.6113617351e+01    0.3063061    0.1959382  56.31  0.001537672    1.518    0.341
        30 -10.1512     80.5045    174.2828   1.3205932747e+02   2.9671502094e+01    0.2466612    0.2151303 -88.71  0.000348978    1.091    0.083
        31 -12.4240     68.0266    171.3548   1.3457646416e+02   3.2074646143e+01    0.4791651    0.2794444 -46.08  0.002035947    2.230    0.552
        32 -11.8356     85.8891    165.0199   1.2948763439e+02   3.0888888554e+01     1.433016    0.6076633  56.91  0.002055366    2.988    0.665
        33 -12.0738     67.5356    145.0070   1.3106498905e+02   3.8070977345e+01    0.8794212    0.5609355  82.59  0.003015632    1.834    0.455
        34  -7.8245     52.2757    165.3057   1.3752597252e+02   3.5420197143e+01    0.1146485   0.09171448 -47.79 0.0002739624    1.547    0.353
        35 -10.6911     23.3373    155.9864   1.4331016178e+02   4.0524817938e+01    0.2832767    0.1770671 -65.18  0.001115456    1.473    0.321
        36  -9.1154    100.0169    149.9635   1.2352045264e+02   3.1966873481e+01    0.2987783    0.2263427 -47.26 0.0009542285    1.432    0.302
        37  -8.7003    102.4607    146.4776   1.2225638054e+02   3.2331447103e+01    0.2643449    0.2141066 -20.18  0.001359141    1.668    0.401
        38 -11.1764     88.6465    149.0555   1.2626597999e+02   3.4042648554e+01    0.2726245    0.2486165 -46.93  0.000515843    1.237    0.192
        39  -9.0809     41.1470    148.2001   1.3822287341e+02   4.0515702230e+01    0.1822704    0.1278507  72.51   0.00108284    1.366    0.268
        40  -8.9262    122.3666    147.0270   1.1730761546e+02   2.8555619473e+01    0.2293996    0.1947052  48.21 0.0003945919    1.124    0.110
        41  -9.5735    247.6211    231.1910   1.0704073992e+02  -8.4267820825e+00    0.1573072    0.0945411 -11.25 0.0008371494    1.705    0.413
        42  -8.7126     34.3388    142.3000   1.3923825572e+02   4.2550220997e+01    0.1192842   0.08618157 -44.13 0.0002080206    1.664    0.399
        43  -8.0701    187.7390    138.4408   1.0013913317e+02   1.6352798996e+01    0.1997649    0.1387113  35.23 0.0003474996    1.440    0.306
        44 -10.7687     25.2038    138.3495   1.4110695075e+02   4.4293148707e+01    0.3829068    0.1246094  36.49  0.001749602    2.983    0.665
        45  -8.7603    110.9462    135.7644   1.1792326568e+02   3.3222015681e+01     0.307061    0.2324435   4.15  0.001090263    1.944    0.486
        46 -11.0313     55.9222    127.3385   1.3140036249e+02   4.3658456111e+01    0.6226744    0.2410843 -72.84   0.00229974    3.137    0.681
        47 -10.4615    233.6462    131.1375   8.9636842643e+01   7.6273806920e+00    0.2603679    0.2346104  45.25 0.0005736438    1.201    0.167
        48  -8.5405    120.0118    131.9976   1.1472898474e+02   3.2331295204e+01    0.2121302    0.2078183  59.25  0.001178493    1.033    0.032
        49  -9.9030    134.8379    230.8768   1.2784530960e+02   1.0133019114e+01    0.2299511    0.1616387  26.72  0.001352334    1.606    0.377
        50  -8.5321    107.2770    123.1492   1.1616010259e+02   3.6755305034e+01    0.2035009    0.1916141 -35.47 0.0004317857    1.127    0.113
        51 -10.3040      6.9114    120.7349   1.4400642038e+02   4.9647762188e+01    0.2966862    0.1386603 -77.05  0.001611908    1.719    0.418
        52  -9.5512     98.0826    133.0305   1.2079224032e+02   3.6148643337e+01    0.2632259    0.2124433 -36.10 0.0004899685    1.418    0.295
        53  -9.0265     44.4591    116.5154   1.3290685810e+02   4.7475137943e+01    0.1291285    0.1112353 -73.83 0.0008090488    1.008    0.008
        54  -9.9424    167.6541    113.3234   9.8341259057e+01   2.5790959786e+01    0.3554126    0.3012714 -76.61 0.0008446752    1.423    0.297
        55  -8.2305    237.5849    112.7300   8.4667627309e+01   9.7040813856e+00    0.2133335     0.121685 -42.89 0.0009535556    1.758    0.431
        56  -8.4748    250.6214    112.1287   8.2499851371e+01   7.0756562907e+00    0.2013661    0.1217815 -31.65 0.0003645208    1.512    0.339
        57  -9.5882     23.0717    111.8796   1.3845317124e+02   5.0505099065e+01     0.187764    0.1438004  80.85 0.0005199717    1.299    0.230
        58  -7.7754    180.0738    116.0512   9.6291730579e+01   2.2316828814e+01    0.1825788    0.1730585  33.46 0.0003199552    1.024    0.023
        59  -9.7097    130.2379    231.3736   1.2879395746e+02   1.0810176040e+01    0.2390324    0.1309803  48.40  0.001302986    1.473    0.321
        60  -8.5528    156.6107     78.1963   9.1002917313e+01   3.5148720769e+01    0.2166906    0.1528061 -22.10 0.0006693026    1.622    0.383
        61  -7.8859    151.0371     71.9793   9.0396182223e+01   3.7649105462e+01     0.185019    0.1784618  40.62 0.0003601444    1.003    0.003
        62  -8.4791    188.9475     68.5408   8.1481879568e+01   2.8479203168e+01    0.2165015    0.1974242 -31.63 0.0003245279    1.126    0.112
        63  -9.8320    244.2886     56.0221   7.0002906244e+01   1.6654554962e+01    0.2347017    0.2312864   7.35 0.0002087203    1.153    0.133
        64  -8.2931    247.9928     51.9858   6.8612804620e+01   1.6357145022e+01    0.2013528    0.1591848  27.39 0.0005010836    1.641    0.391
        65  -8.2298    129.9223     56.2673   9.0483360660e+01   4.5513190789e+01    0.2052497    0.1858225  34.77 0.0002547067    1.053    0.051
        66  -9.7013     22.1359    245.4566   1.4932481378e+02   2.3149139248e+01    0.2411698    0.1219005  57.06 0.0005944539    1.399    0.285
        67 -10.3080      6.5526    241.3247   1.5161343357e+02   2.5418931573e+01    0.2118447    0.1204025  76.39 0.0008214188    1.301    0.231
        68 -10.5783     10.3096    240.0544   1.5097213183e+02   2.5268457653e+01    0.3589316    0.1557214  70.03  0.001566971    1.808    0.447
        69  -8.2928    121.2465    239.9923   1.3149192139e+02   1.0872283742e+01    0.1284317    0.1023431 -68.83 0.0003893252    1.539    0.350
        70 -10.4230    140.0015     32.8038   7.9851736157e+01   4.6437090910e+01    0.2331275    0.2113196 -11.92 0.0002279259    1.171    0.146
