#   1 NUMBER                 Running object number                                     
#   2 MAG_AUTO               Kron-like elliptical aperture magnitude                    [mag]
#   3 X_IMAGE                Object position along x                                    [pixel]
#   4 Y_IMAGE                Object position along y                                    [pixel]
#   5 X_WORLD                Barycenter position along world x axis                     [deg]
#   6 Y_WORLD                Barycenter position along world y axis                     [deg]
#   7 A_WORLD                Profile RMS along major axis (world units)                 [deg]
#   8 B_WORLD                Profile RMS along minor axis (world units)                 [deg]
#   9 THETA_WORLD            Position angle (CCW/world-x)                               [deg]
#  10 FWHM_WORLD             FWHM assuming a gaussian core                              [deg]
#  11 ELONGATION             A_IMAGE/B_IMAGE                                           
#  12 ELLIPTICITY            1 - B_IMAGE/A_IMAGE                                       
         1 -11.7699    202.4419     21.8942   2.0051585107e+01   3.0868289077e+01     1.195212    0.4473296 -36.17  0.004806063    2.327    0.570
         2 -12.2586    160.2144     94.9566   4.8199426539e+01   3.0609545132e+01     1.771461     0.863137 -38.64  0.006787358    2.070    0.517
         3 -13.7861    199.1809     56.7879   3.0226809114e+01   2.7269574689e+01     4.952334     3.494657  81.40   0.02418059    1.598    0.374
         4 -14.4455    235.0591     56.6760   2.5682442801e+01   1.8946122450e+01     10.62914      1.56097 -28.57    0.0255738    6.830    0.854
         5 -13.7919    248.8134     84.0804   3.0620190725e+01   1.2501574961e+01     2.802486    0.6209568 -29.01  0.008564581    4.409    0.773
         6 -14.4243    233.2488    100.3404   3.6452432060e+01   1.3332515601e+01     5.382874     1.138104 -42.57   0.01449803    5.592    0.821
         7 -14.8498    242.9337     75.5131   2.9323016233e+01   1.4811555567e+01      6.19872     2.666644  34.75   0.01249425    4.587    0.782
         8 -13.2186    219.2146     29.6245   2.0472283532e+01   2.5892266139e+01     4.176027     1.733192 -15.74   0.01489629    3.570    0.720
         9  -9.7301    104.7909     60.3658   5.1940748304e+01   5.0437543808e+01    0.3436497    0.2828616  12.77  0.001294553    1.405    0.288
        10 -13.6003    179.0633     85.5782   4.1676486357e+01   2.7733459842e+01     2.737697     1.559662 -32.05  0.004761206    1.781    0.439
        11 -11.3491    132.8025     39.4553   3.6618505396e+01   4.7068935974e+01     1.007643    0.3528491 -28.98  0.002919367    3.079    0.675
        12 -11.7870    139.7252     35.5093   3.3670502906e+01   4.5796280693e+01     1.099409    0.3875218 -29.05  0.003695157    2.945    0.660
        13 -13.7421    238.5202     31.7429   1.9249817590e+01   2.1236130870e+01     3.148485     1.432576 -14.33   0.01239175    3.247    0.692
        14 -10.2962    133.0936     24.1224   3.0766299360e+01   4.9038708657e+01    0.4486264    0.2331742 -25.52  0.001227204    2.057    0.514
        15 -14.0696    248.1689     59.0733   2.4867276401e+01   1.5877313742e+01     3.057207    0.6086217 -27.26  0.008424526    5.574    0.821
        16 -10.4129    134.9769     12.9200   2.6094636393e+01   4.9783587454e+01    0.6887726    0.2827966 -13.10  0.001599989    3.326    0.699
        17  -9.3300    155.4150     13.9898   2.3253072429e+01   4.4124502456e+01    0.3756061    0.2442591  23.14   0.00129921    2.010    0.502
        18  -8.3738    189.0522     11.6995   1.8487592694e+01   3.5372686697e+01    0.1870913    0.1651575  87.83  0.000342828    1.060    0.057
        19 -10.1596    120.1818      9.1430   2.7331996889e+01   5.4120026208e+01     0.406435    0.3454343 -48.51  0.001059985    1.286    0.222
        20  -8.9262    194.0448      5.7052   1.6280895513e+01   3.4672692635e+01    0.2151287    0.1927031 -23.50 0.0004485401    1.245    0.197
        21  -8.5396    105.3165      5.0309   2.8677078674e+01   5.8381628147e+01    0.2294402    0.1030384  11.14 0.0007048023    4.343    0.770
        22  -9.3144    182.3667      3.7511   1.6777081306e+01   3.7885531406e+01    0.2765038    0.2392362 -64.24   0.00161888    1.083    0.076
        23  -8.2999    171.4911      2.4807   1.7463636898e+01   4.0882101267e+01    0.2340477    0.1110563 -37.18 0.0008924501    2.031    0.508
        24  -9.0405    118.7075      3.4205   2.5194759259e+01   5.5040991332e+01    0.2682407    0.1330983  72.64 0.0008425646    1.981    0.495
        25  -9.3955    173.3200    187.9860   6.5828075662e+01   1.1145491803e+01    0.2353558    0.1931818  51.84 0.0004168004    1.384    0.277
        26  -8.3446    250.6183    186.0332   5.1564077899e+01  -9.7243372178e-01    0.1605893   0.09678837 -24.20  0.000980437    1.525    0.344
        27  -8.7163    241.4949    183.0451   5.2471989857e+01   7.0546320349e-01    0.1906145    0.1480287  35.91 0.0005368802    1.434    0.302
        28  -9.6584    206.8827    179.9653   5.7882146754e+01   6.6006223293e+00    0.2756919     0.211422 -47.17 0.0003568737    1.746    0.427
        29 -11.0640    221.1851    174.4906   5.4293417941e+01   4.9789400045e+00    0.4555435     0.421391 -89.98  0.001796999    1.770    0.435
        30 -10.5517    238.2815    175.6601   5.1629101259e+01   2.1006428215e+00    0.5364801    0.3862426  73.38 0.0009924304    4.003    0.750
        31 -10.9300    230.0996    169.2995   5.1775427034e+01   4.2161494380e+00    0.6357965    0.4004397 -23.24   0.00302863    1.507    0.337
        32  -8.7625    199.3014    179.4016   5.9193049443e+01   7.9681011735e+00    0.2595178    0.2046711 -63.55 0.0009508273    2.094    0.523
        33  -7.5470     50.3418    180.7002   9.2982131467e+01   3.1874707529e+01    0.1365125   0.07467614  59.75 0.0005513771    1.671    0.402
        34  -9.6523    149.3818    174.4320   6.8578387796e+01   1.7694007721e+01    0.2442097    0.2118725  54.31 0.0001842567    1.209    0.173
        35  -8.0172    145.4630    173.4270   6.9280223991e+01   1.8588730180e+01    0.1397337    0.1219309  36.95 0.0001145818    1.012    0.012
        36  -7.9210    154.6750    171.7276   6.6925844342e+01   1.7214995942e+01    0.1383431    0.1022009  12.56 0.0001711276    1.578    0.366
        37  -9.1646    250.0476    169.3671   4.8574005136e+01   1.0847881133e+00     0.237892    0.1376468 -39.47  0.001320638    2.017    0.504
        38  -9.0647    134.3824    248.8074   8.1818343487e+01   8.2211740376e+00    0.2372489    0.1322872  52.02 0.0009444454    1.802    0.445
        39  -8.8066    147.0188    247.4965   7.9312246680e+01   6.6072785504e+00    0.1559974    0.1310072  31.45 0.0004861175    1.149    0.130
        40  -9.6767     41.4538    247.0478   9.9138143911e+01   2.0442383867e+01     0.213247    0.1293752  18.87  0.001300161    2.483    0.597
        41  -7.6523    175.4449    246.5406   7.3972751183e+01   2.6930244713e+00    0.1150469   0.08390675  28.50 0.0001037699    1.005    0.005
        42 -10.4019    192.1413    154.5659   5.5733360028e+01   1.3094847690e+01     0.441631    0.4000792  -1.45  0.001640894    1.065    0.061
        43  -9.4715    247.1811    245.4129   6.1688247933e+01  -6.6296752829e+00    0.1415682    0.0789792  36.24 0.0009551859    1.734    0.423
        44 -11.2553      2.4630    152.4778   1.0284416277e+02   4.2690861892e+01    0.6821158    0.2735575 -84.44  0.003145883    2.141    0.533
        45  -9.7586    204.9802    153.0098   5.2958333431e+01   1.0923861812e+01    0.4012018    0.3364361  58.67  0.001614113    1.520    0.342
        46  -9.9583    133.5571    144.7919   6.6703748231e+01   2.6449888025e+01     1.156604    0.2821143 -54.21  0.002698628    6.921    0.856
        47 -12.2172     14.1102    140.3217   9.9029704422e+01   4.4597776211e+01     1.175994    0.9926351  28.62  0.008003765    1.383    0.277
        48 -12.1272     63.0846    136.6946   8.4532591578e+01   4.0280737114e+01      2.31816     1.328303  55.68   0.01091079    1.802    0.445
        49 -12.4900     39.3543    139.5074   9.1811822270e+01   4.2465084057e+01    0.9653711    0.7606639  89.78  0.003659372    1.137    0.121
        50 -11.7483     46.6539    138.8482   8.9624078216e+01   4.1815358551e+01    0.6453152    0.4264274 -78.29  0.002092035    1.428    0.300
        51  -9.0259    180.7540    148.7923   5.6819270376e+01   1.6269383278e+01    0.2782128    0.2211016 -60.41  0.001208316    1.657    0.396
        52 -11.1711    212.8684    138.5751   4.8452436298e+01   1.1651335119e+01     1.202222    0.5978656 -51.82  0.004607494    3.302    0.697
        53  -9.5261    225.7774    147.5499   4.8141434522e+01   7.9438239848e+00     0.225535    0.2134556   4.78 0.0005489534    1.205    0.170
        54 -10.3150    220.7387    145.1273   4.8488268100e+01   9.2010641511e+00    0.4769746    0.2109746  45.19  0.002104724    2.283    0.562
        55  -9.9833    203.7685    143.5593   5.1185039689e+01   1.2625949765e+01    0.6402017    0.3931617 -64.07  0.002428697    3.735    0.732
        56  -9.6644    199.6333    142.8465   5.1806699678e+01   1.3541914005e+01     0.368385    0.1807882 -40.56  0.001600187    2.117    0.528
        57 -10.0401    192.8046    143.8895   5.3347128542e+01   1.4713170102e+01     0.389093    0.2334383  36.53  0.001031733    1.622    0.383
        58  -9.8647    185.1284    143.9206   5.4881827432e+01   1.6233817628e+01    0.3026565    0.1818991  46.83  0.001080057    1.648    0.393
        59  -7.9953     92.8588    165.1739   8.0611270239e+01   2.9344825635e+01    0.1616009    0.1533882  23.67 0.0002414911    1.208    0.172
        60  -8.6432     33.5892    240.2289   1.0026870162e+02   2.2420081285e+01    0.1261519   0.09087387 -76.26 0.0009508364    1.648    0.393
        61  -9.6526    140.9724    138.9887   6.3663837247e+01   2.6161094572e+01    0.2811686    0.2194798 -32.55 0.0003738485    1.425    0.298
        62  -8.6518    142.2892    135.6714   6.2620671618e+01   2.6567252661e+01    0.2034694    0.1827114  56.18 0.0004822768    1.125    0.111
        63  -9.5880    156.7383    137.0769   5.9507724091e+01   2.3295821884e+01    0.2845382    0.2462067 -78.63 0.0004056916    1.435    0.303
        64 -11.9463     31.9016    142.0483   9.4200871870e+01   4.2623320150e+01    0.5600467    0.4334588  35.97  0.001216296    1.355    0.262
        65  -9.8361    172.2874    132.6866   5.5057896182e+01   2.0857514494e+01    0.2611455    0.2543016  56.77 0.0003373707    1.128    0.113
        66 -10.1964    160.1815    128.7832   5.6831820560e+01   2.4164615860e+01     0.478289     0.381852 -27.50  0.001691556    1.341    0.254
        67  -9.6720    152.8448    128.0138   5.8350018352e+01   2.5886172454e+01    0.5707902    0.2902347 -55.68  0.002071817    2.645    0.622
        68  -9.4045    136.1485    130.1634   6.2915992894e+01   2.8970369097e+01    0.4672025    0.1549944 -47.74  0.001504934    3.206    0.688
        69  -9.3466    222.0612    161.8412   5.1687933774e+01   6.5735386512e+00    0.2296225    0.2176544 -49.01 0.0004691062    1.458    0.314
        70  -9.5628    201.9395    125.9315   4.7584221759e+01   1.5813448319e+01    0.2121755    0.2010147  -3.10 0.0005855788    1.056    0.053
        71  -7.8840    162.5697    163.4981   6.3661482567e+01   1.7214689036e+01    0.1400567    0.1268564  29.90 5.308915e-05    1.027    0.026
        72  -9.2498     89.6348    123.2433   7.4255143291e+01   3.9441451578e+01     0.383296    0.2870002  81.05  0.001085241    1.574    0.365
        73  -9.2374    177.9224    121.4398   5.1221774739e+01   2.1683484608e+01    0.4431077    0.2365519 -55.00  0.001665443    2.686    0.628
        74  -9.0036    205.6888    122.1713   4.6029828857e+01   1.5646791623e+01    0.2759878    0.1971639 -51.11 0.0009741568    1.659    0.397
        75 -10.7157    144.3509     97.8736   5.2734389872e+01   3.3798557749e+01      0.72904    0.4121984 -42.83  0.002507446    1.805    0.446
        76 -12.3403    136.1071    106.1101   5.7046383806e+01   3.4008568093e+01     1.639744    0.9755753 -48.16  0.006876196    1.758    0.431
        77 -12.2461    125.8922    106.2313   5.9788904636e+01   3.6235141283e+01     1.812874     1.376781  65.54  0.008436609    1.505    0.335
        78  -9.9070    120.3575     93.0436   5.7727132861e+01   4.0270344404e+01    0.3497665    0.2998657 -16.25  0.001048379    1.339    0.253
        79  -8.8765    219.3045    113.4740   4.1666808113e+01   1.4212380815e+01    0.4349719    0.2595364 -64.64  0.001576694    3.436    0.709
        80  -7.4827     77.2893    113.2700   7.6011136557e+01   4.3861137349e+01    0.1371986    0.1134422 -21.93 0.0002563573    1.507    0.336
        81 -10.1518     65.9958    111.8109   7.9377630528e+01   4.5919231547e+01    0.2284935    0.2097501 -78.38 0.0002600853    1.032    0.031
        82 -11.5906    117.9130    108.5405   6.2595869930e+01   3.7432312799e+01     1.081588    0.7722385 -57.23  0.004992174    1.504    0.335
        83 -10.1629    149.9433    106.1158   5.3601193579e+01   3.0869717501e+01    0.3801136    0.2769119  45.24 0.0009540746    1.338    0.253
        84  -9.0458    223.2516    112.9397   4.0907891150e+01   1.3496170623e+01     0.239373    0.1881779 -27.27 0.0006293766    1.173    0.147
        85  -8.5087    107.3291     99.1752   6.3234665701e+01   4.1702867421e+01     0.267872    0.1917624 -58.65 0.0007134585    1.493    0.330
        86  -8.3819     61.5153     95.9955   7.7610877223e+01   5.0421252313e+01    0.2214217    0.1349958 -63.89  0.001025696    1.590    0.371
        87  -8.5917    214.4282    116.1096   4.3091909219e+01   1.4803452568e+01    0.2095371    0.1951025 -76.34 0.0005458419    1.320    0.243
        88  -9.6848    157.7051     83.8158   4.5591521616e+01   3.3271605694e+01    0.3339786    0.2472424 -51.79 0.0008077229    1.449    0.310
        89 -10.3408    136.7496     76.4671   4.8335009511e+01   3.9789348851e+01    0.5386388    0.3692483 -40.75  0.001369116    1.482    0.325
        90  -9.8923    137.4940     81.4987   4.9698658045e+01   3.8645217581e+01    0.4015075    0.3071444   7.37  0.001594138    1.743    0.426
        91  -9.0016    141.9868     80.7337   4.8344258664e+01   3.7701544580e+01    0.2821364    0.2500858 -74.70 0.0002155398    1.250    0.200
        92  -7.9683     83.5892     77.3213   6.4743203865e+01   5.1251693907e+01    0.3616106    0.1373422  39.80  0.001260989    2.685    0.628
        93  -8.8214    164.6293     75.2562   4.1587028576e+01   3.3061777805e+01    0.3020032    0.2661352 -52.69 0.0008619795    1.165    0.142
        94  -8.8034    141.5899     72.2880   4.5821394952e+01   3.9372932735e+01     0.316875    0.1439864 -42.49  0.001139278    2.240    0.554
        95  -8.6793    151.1127     70.9709   4.3187287721e+01   3.7216872660e+01    0.2424866    0.2069002 -67.93  0.000585682    1.296    0.228
        96 -10.2359    182.0972     65.7481   3.5480261005e+01   3.0207407520e+01    0.5318872    0.2251743 -35.45  0.001187025    2.252    0.556
        97  -9.1738    182.0932     59.1173   3.3540388166e+01   3.1217638029e+01    0.2943399     0.221279 -26.06 0.0004353309    1.380    0.275
        98  -8.0952    126.4955     68.4262   4.8419075935e+01   4.3805552791e+01    0.1550758    0.1504658  60.59 0.0001391571    1.027    0.026
        99  -8.3986    158.2125     65.5646   3.9962635858e+01   3.6331852965e+01    0.2566828    0.1911597  -0.73  0.000260409    1.763    0.433
       100 -10.0364    113.8994    238.4618   8.4693782492e+01   1.2612443935e+01    0.1885897    0.1643085  45.17 9.900086e-05    1.162    0.139
       101  -8.6158     65.0600    228.5303   9.3535939867e+01   2.0795785851e+01    0.1598135    0.1255376  58.48 0.0003531361    1.078    0.073
       102  -9.2706    135.9393     63.0251   4.4186799850e+01   4.2451981784e+01    0.1919853    0.1838709  55.96 0.0008244747    1.020    0.020
       103  -8.9641    138.0180    226.2229   7.8578966639e+01   1.0936878885e+01    0.1753577     0.151786  37.44 0.0003160349    1.118    0.106
       104  -9.6118    144.4864     59.4675   4.0980313135e+01   4.0884005156e+01    0.3002138    0.2620635 -73.76 0.0005780675    1.254    0.203
       105  -9.1777    134.2959     59.1803   4.3292012716e+01   4.3537208773e+01    0.2453541    0.2032991  -4.19  0.001180167    1.412    0.292
       106  -9.3215    216.6454     56.9145   2.7911310310e+01   2.3062604021e+01    0.4368688    0.2106687 -32.19  0.001683608    1.898    0.473
       107  -8.5759    216.2734     52.6616   2.6841112198e+01   2.3719055237e+01    0.2119926    0.1783145 -75.78 0.0005948759    1.228    0.186
       108  -8.1386     72.5564     58.4684   6.2667454155e+01   5.7357111632e+01    0.1425768    0.1372253 -31.53 7.893016e-05    1.032    0.031
       109 -11.2001    204.7045     41.6899   2.5298173110e+01   2.7936935268e+01    0.9657886    0.3304436 -27.48  0.001739043    2.910    0.656
       110  -8.9866    243.4569    225.5085   5.9307113074e+01  -4.2694099426e+00    0.1115664    0.0797501  11.42 6.306742e-05    1.004    0.004
       111  -9.4601    182.3086     43.6329   2.8886993469e+01   3.3366707990e+01    0.6584356    0.1527524 -32.17  0.001958996    3.726    0.732
       112  -8.2480     24.7537    222.6025   1.0116793234e+02   2.6413902458e+01    0.1640529    0.0692768  44.02 0.0007751701    1.691    0.409
       113  -8.4626    224.1661    218.2648   6.1350991962e+01  -9.0896237111e-01     0.202812    0.1377921  41.98  0.001060015    1.688    0.407
       114 -13.2382    199.7887     91.1214   3.9406818642e+01   2.1925203434e+01     2.449965    0.8601513  46.85  0.008494518    2.969    0.663
       115  -8.7328     78.0842     38.9869   5.2819870351e+01   6.0116123927e+01    0.2816312    0.1883314 -36.67 0.0007502389    1.484    0.326
       116  -9.5591    153.0500     34.6831   3.0804612932e+01   4.2336397893e+01    0.2398875    0.2168117 -30.27 0.0003970432    1.162    0.139
       117  -9.5144    159.4084     36.6324   3.0342952941e+01   4.0370020719e+01    0.2545893    0.2325862  32.65 0.0006017575    1.179    0.152
       118  -9.4883     33.2792    213.0093   9.9000788902e+01   2.7300856310e+01    0.1949708    0.1528646 -60.43   0.00139226    1.685    0.407
       119 -10.6060    126.0349     32.9067   3.5691259937e+01   4.9768367212e+01    0.4219475    0.3322416  84.40   0.00131912    1.430    0.301
       120  -8.1056    191.0261    211.7706   6.6244440496e+01   4.7889494031e+00    0.1641083   0.08405568  36.72 0.0005745642    1.606    0.377
       121 -10.1208    178.8286     23.9971   2.3364938767e+01   3.6734721460e+01    0.5366632     0.398138  71.72  0.002073903    1.287    0.223
       122  -8.1911    171.9456     24.5008   2.4435291761e+01   3.8509690111e+01    0.2158226    0.1917799 -34.44 0.0005851398    1.171    0.146
       123 -10.5011    146.8742     43.0825   3.4895148127e+01   4.2823802295e+01    0.3714435    0.2923837  46.91  0.001826697    1.263    0.208
       124  -8.4414     72.0428    208.8302   9.0522003163e+01   2.3470320395e+01    0.1918756     0.127081  59.62 0.0006599988    1.314    0.239
       125  -8.6013    229.7061    207.8035   5.8726325097e+01  -5.0034803730e-01    0.1858927    0.1399552  49.61 0.0009100628    1.973    0.493
       126  -8.2398    210.9551     16.4167   1.7747392960e+01   2.9352366303e+01    0.1997501    0.1250246  78.25 0.0008125138    1.575    0.365
       127  -9.1450    207.5513    206.4553   6.2361572036e+01   2.9357744222e+00    0.3122135    0.2090273  56.53  0.001608942    2.486    0.598
       128  -8.1873    235.0618     14.7889   1.5414372772e+01   2.3867587153e+01    0.1904407    0.1359908 -61.44 0.0003156223    1.253    0.202
       129  -8.0273    190.4666     15.4993   1.9457518362e+01   3.4614665258e+01    0.1399189    0.1272042 -76.41 3.231386e-05    1.007    0.007
       130  -8.3481    145.7469     12.9740   2.4334625030e+01   4.6857746310e+01    0.1928203    0.1800262 -28.78 0.0004752094    1.159    0.137
       131 -10.2010    192.9728    194.6061   6.3087016303e+01   6.8383785715e+00    0.7954281    0.5083705 -64.98  0.003404622    4.085    0.755
       132  -9.6988    195.8815    158.9638   5.5902748253e+01   1.1688189420e+01    0.3200295    0.2826773  54.49  0.001376041    1.372    0.271
       133 -10.2440    210.7137    189.1499   5.8843856693e+01   4.7044407849e+00    0.6813518    0.2381573 -43.20  0.002715003    3.796    0.737
       134 -10.2773    213.9956    187.1816   5.7902847945e+01   4.4405791397e+00    0.6862209    0.3875681  58.85   0.00280302    4.028    0.752
       135  -9.9562    212.0000    178.9871   5.6767850723e+01   5.8822309092e+00    0.4887154    0.1804298 -32.54   0.00206255    2.877    0.652
       136  -9.8156    214.4369    176.6347   5.5890629866e+01   5.8024892616e+00     0.312713    0.2791847 -82.04  0.001930801    1.896    0.472
       137  -8.6519      1.9179    190.9772   1.0455347453e+02   3.4562817339e+01    0.1593142    0.1206851  65.87 0.0003063744    1.037    0.036
