#   1 NUMBER                 Running object number                                     
#   2 MAG_AUTO               Kron-like elliptical aperture magnitude                    [mag]
#   3 X_IMAGE                Object position along x                                    [pixel]
#   4 Y_IMAGE                Object position along y                                    [pixel]
#   5 X_WORLD                Barycenter position along world x axis                     [deg]
#   6 Y_WORLD                Barycenter position along world y axis                     [deg]
#   7 A_WORLD                Profile RMS along major axis (world units)                 [deg]
#   8 B_WORLD                Profile RMS along minor axis (world units)                 [deg]
#   9 THETA_WORLD            Position angle (CCW/world-x)                               [deg]
#  10 FWHM_WORLD             FWHM assuming a gaussian core                              [deg]
#  11 ELONGATION             A_IMAGE/B_IMAGE                                           
#  12 ELLIPTICITY            1 - B_IMAGE/A_IMAGE                                       
         1 -14.8759    105.8612    106.4975   9.0819869369e+01   4.0311937454e+01     1.734583     1.410177  13.70  0.007484201    1.495    0.331
         2 -15.2650      6.2415     69.1297   1.1520375276e+02   6.1036274536e+01     1.475272     0.901567 -72.91  0.005372559    1.455    0.313
         3 -14.1521      6.8635     47.0000   1.0998355267e+02   6.5725231444e+01     1.056554    0.9419042 -81.47  0.007878003    1.384    0.277
         4 -14.6053    119.7918     54.6224   7.0740702239e+01   4.7953086535e+01     1.255376    0.8373285  23.21  0.001970044    1.846    0.458
         5 -13.4276    131.7558     32.6469   5.9845477071e+01   4.8398816614e+01    0.9143881    0.5153616 -30.07  0.003397265    1.835    0.455
         6 -14.2712    121.9102     37.5245   6.3986934951e+01   5.0106466815e+01      1.01878    0.5753973  30.82  0.002444424    2.124    0.529
         7 -15.5075    218.3540     16.6026   4.1673999402e+01   2.8250874470e+01     2.212316     1.220273 -28.25   0.01077044    1.912    0.477
         8 -15.1881    212.2907     41.0357   4.8685768215e+01   2.6701921583e+01     3.062321    0.9049723  71.96  0.008745294    4.703    0.787
         9 -14.6002    190.4084     25.4560   4.7253450730e+01   3.4240699680e+01     1.530209    0.9362644 -64.43  0.006954762    1.850    0.459
        10 -13.0037      7.9138      2.6501   9.3018940539e+01   7.3695792342e+01    0.4604334    0.3405109  28.56  0.002485659    1.786    0.440
        11 -13.3964      2.6469     10.7367   9.9866416904e+01   7.2776997589e+01    0.6301689    0.3425527 -54.16  0.003888965    1.827    0.453
        12 -15.9726     11.4903     23.2780   1.0022145830e+02   7.0022874325e+01     1.881941    0.9737265 -31.48   0.01112127    1.626    0.385
        13 -14.6234     24.0285     14.0155   8.9780568737e+01   7.0513850699e+01      1.42352    0.3597804  29.31  0.002238843    4.300    0.767
        14 -14.2847     42.7442      3.7250   7.5439674933e+01   6.9653081002e+01    0.8777122    0.5858516 -19.86  0.005051024    1.309    0.236
        15 -12.5537     48.9833      3.6600   7.2682530637e+01   6.8732994076e+01    0.2267087     0.178249  -6.85 0.0003629061    1.101    0.092
        16 -13.1828    139.3362     21.9566   5.4407376771e+01   4.7811628846e+01    0.6525506    0.3418756  56.10 0.0009879944    1.700    0.412
        17 -14.7274    166.8388     29.6788   5.2021225294e+01   3.9844778618e+01     1.184846     1.060601  76.20   0.00411734    1.066    0.062
        18 -14.9169    147.2850     29.9479   5.5628628572e+01   4.4854940462e+01     1.517693     1.012063  61.21   0.00569495    1.413    0.292
        19 -12.9457    120.2200     26.6973   6.0328583283e+01   5.1931147088e+01    0.8180751    0.4632248  38.27  0.003700693    1.778    0.437
        20 -11.6992     60.0728     16.9665   7.4829338231e+01   6.5340865705e+01    0.3499053    0.1681688 -33.15  0.001731292    1.981    0.495
        21 -12.5655     71.7354     17.2852   7.0605360953e+01   6.3300833546e+01    0.4971678    0.2908073 -35.09  0.002577918    1.784    0.439
        22 -15.4271     97.6325     12.3997   6.0315236402e+01   5.8681955639e+01     1.667225    0.7809947  50.81  0.005288893    1.892    0.471
        23 -11.8778    153.2834      8.7964   4.7449602246e+01   4.5617641232e+01    0.2965621    0.2411571  19.68  0.001018664    1.389    0.280
        24 -12.2676    232.5791      2.2307   3.6975178788e+01   2.6427522610e+01    0.4639145    0.2449285  59.86  0.001854135    1.969    0.492
        25 -11.1625     59.2091      6.5874   7.0066749873e+01   6.6754189898e+01    0.2171895    0.1940742 -32.37  0.001467023    1.470    0.320
        26 -11.0572    160.8187      5.9503   4.5418858288e+01   4.3946908042e+01    0.2192174    0.1678997  43.54 0.0008819581    1.323    0.244
        27 -11.3196     68.2563      5.0002   6.5944838220e+01   6.5335995687e+01    0.2779667    0.1271741 -38.21  0.001283389    2.662    0.624
        28 -11.9067    182.8410      2.4975   4.1623512829e+01   3.8610150353e+01    0.4225323    0.2426101 -75.55  0.001973912    1.954    0.488
        29 -11.2282    112.0148      1.5218   5.2286472355e+01   5.6431358702e+01    0.4649238    0.2082704  69.70  0.001939005    2.492    0.599
        30 -11.8035    119.6657      3.6966   5.1558618769e+01   5.4441530106e+01    0.3916802    0.1956041  67.59  0.001763408    1.990    0.498
        31 -11.3595    117.3152      1.6600   5.1238133629e+01   5.5170732449e+01    0.2457548    0.2171631  47.91 0.0008854234    1.034    0.033
        32 -11.8400     78.1944      2.3267   6.1372033459e+01   6.3703443736e+01    0.3317624    0.2288517  39.57  0.001341803    1.263    0.208
        33 -11.0445     83.0233      1.2324   5.9405794228e+01   6.2830860321e+01    0.2784826    0.1137726  55.69  0.001228657    2.309    0.567
        34 -14.0425    188.5557     13.9032   4.4201587378e+01   3.6017927018e+01      1.06594    0.7080511 -61.47  0.005267388    1.569    0.363
        35 -11.9885     61.4983      1.9822   6.6848100474e+01   6.6853027406e+01    0.3345894     0.206107  50.05  0.001405505    1.757    0.431
        36 -13.1045      1.8199     21.6676   1.0462541443e+02   7.0912049796e+01    0.2261965    0.1356532 -54.85   0.00106687    1.461    0.316
        37 -12.5742     57.3046    246.8279   1.2254076807e+02   1.7249793858e+01    0.4072164    0.2384387  38.67  0.002617136    1.716    0.417
        38 -13.5710     28.3192    246.1659   1.2733510545e+02   2.0805725486e+01    0.6627727    0.2955956  76.24   0.00397268    2.030    0.507
        39 -11.8233      2.6848    249.8383   1.3151011710e+02   2.2834684828e+01    0.2696575    0.1611606  49.62  0.001670311    1.421    0.296
        40 -13.7931      9.0690    245.6820   1.3037072760e+02   2.2918933460e+01     0.704921    0.3280281  58.63  0.003309871    1.519    0.342
        41 -12.1243    111.6708    156.3078   1.0028573643e+02   2.7626429948e+01    0.4408571    0.2500352  88.45   0.00144186    3.853    0.740
        42 -12.3827    208.7751    154.9747   7.8156597075e+01   8.2474587802e+00    0.6271719     0.289676  41.86  0.002530595    2.159    0.537
        43 -12.6680     16.9878    195.1772   1.2638833427e+02   3.1760517434e+01    0.7933139    0.2660649 -74.75  0.003913888    2.483    0.597
        44 -11.7493     85.8861    152.8384   1.0613762239e+02   3.2778463042e+01    0.4437468    0.2294433 -51.00  0.001952985    1.967    0.492
        45 -11.0252    133.1213    152.6770   9.4310574780e+01   2.4385163937e+01    0.2373485    0.2008565 -67.91 0.0002526877    1.242    0.195
        46 -11.7873    103.1718    150.2311   1.0127948961e+02   3.0537800688e+01     0.399496    0.2704774 -38.88  0.001756212    1.776    0.437
        47 -11.7603     24.3359    150.5107   1.2117242038e+02   4.0910798503e+01    0.3023154     0.236997 -80.98  0.002007821    1.061    0.057
        48 -13.5210     29.9395    169.4182   1.2171225425e+02   3.6051469180e+01    0.7196617    0.4261461 -47.97  0.003055747    2.185    0.542
        49 -13.4554     22.3156    181.2466   1.2434278851e+02   3.4197453149e+01    0.5754532     0.428725 -71.61  0.002563754    1.325    0.245
        50 -11.3963     88.6086    140.1001   1.0315967404e+02   3.5376878151e+01    0.2946532     0.251021 -42.10  0.001130209    1.297    0.229
        51 -12.3264     44.9100    134.0887   1.1391393192e+02   4.2735618890e+01    0.4727906    0.3580703  82.32  0.002782585    1.287    0.223
        52 -12.8723    246.2139    133.8150   6.6692823375e+01   4.4008477953e+00    0.4384028    0.3500352 -43.49  0.002385834    1.293    0.226
        53 -14.6331    232.9881    129.5126   6.7900680099e+01   7.7204621043e+00     1.024018    0.7887487 -37.49   0.00545917    1.225    0.184
        54 -10.4701     10.9747    134.2274   1.2281084894e+02   4.5789519605e+01    0.1305164   0.09917882  33.39 0.0008644231    1.608    0.378
        55 -13.2159    120.4771    102.3013   8.5570991857e+01   3.8340564172e+01    0.7007068    0.3422235  40.33  0.002542059    2.163    0.538
        56 -14.1141    105.7231    121.5911   9.4587178052e+01   3.6826202648e+01     1.620623      1.07577  34.94  0.007407146    1.643    0.392
        57 -13.9053    171.2732    243.0338   1.0135913017e+02   7.7490467408e-01    0.8922155    0.5144669  35.04   0.00509942    1.437    0.304
        58 -11.2918     59.5554    125.5715   1.0848231913e+02   4.3069224113e+01    0.3051621    0.2114652   1.83  0.001168713    2.258    0.557
        59 -11.7953    181.0336    121.2807   7.5843498628e+01   2.0650474552e+01    0.2963351    0.2281853  69.82 0.0009895484    1.574    0.365
        60 -12.4605     77.2268    117.4009   1.0177712283e+02   4.2608122802e+01    0.5807648    0.4201806 -72.09  0.002942862    1.409    0.290
        61 -12.2271     88.2383    109.5547   9.6744137495e+01   4.2741101685e+01    0.4424615    0.3270869 -63.82  0.001827868    1.351    0.260
        62 -11.9296      3.9767    119.8943   1.2315977139e+02   4.9582273240e+01     0.453893    0.1983717  15.38  0.002294763    3.258    0.693
        63 -12.3778     23.1678     71.7340   1.0946961161e+02   5.9387428677e+01    0.2514103    0.2107524   3.11 0.0004181515    1.412    0.292
        64 -14.2852     17.7302    111.1656   1.1826657564e+02   5.0688627642e+01     1.195071    0.7368296 -14.07  0.006493796    2.478    0.596
        65 -11.8111     40.5375    243.6929   1.2518124400e+02   1.9846167188e+01    0.2973482    0.1668639 -89.49  0.001940963    1.632    0.387
        66 -13.6853     96.7615    238.9884   1.1483889852e+02   1.3195095845e+01     0.671037     0.426536  45.73  0.003171654    1.293    0.226
        67 -14.5608      7.1663     99.7418   1.1984559222e+02   5.4051713897e+01     1.127453    0.7481341  52.94  0.007031547    1.779    0.438
        68 -14.5530     24.8477     94.5913   1.1348180096e+02   5.4038808950e+01      1.23304     1.121652  10.10  0.008536075    1.358    0.264
        69 -11.5174    176.6723    110.6386   7.4026299592e+01   2.3780037413e+01    0.3585041    0.2695642   8.84   0.00156233    1.775    0.436
        70 -13.0880     85.2705    115.5085   9.9007360573e+01   4.1812262355e+01    0.6527923    0.3975646  28.31  0.001937064    1.979    0.495
        71 -11.6180     45.0978    110.4650   1.0999845870e+02   4.8400913219e+01    0.4212827    0.3025032 -53.62  0.002399474    1.244    0.196
        72 -11.6478    223.0857    109.6769   6.4833508763e+01   1.3217989691e+01    0.2733608    0.1948226 -44.45   0.00118015    1.361    0.265
        73 -11.4567     62.0026    110.5334   1.0487206270e+02   4.6388017412e+01    0.1978725    0.1391811  33.26  0.001035932    1.606    0.377
        74 -12.1240    136.0529    103.2524   8.1663415637e+01   3.4762687577e+01    0.7414602    0.2755894  46.44  0.002417737    2.729    0.634
        75 -11.4155     42.9469     91.2427   1.0684286062e+02   5.3180302686e+01    0.4910595    0.2824987 -77.89  0.001691477    2.107    0.525
        76 -11.0710     64.6626    102.2786   1.0225367812e+02   4.8007780180e+01    0.2309617    0.1356994  37.71 0.0004820729    1.877    0.467
        77 -11.9392     62.0193     98.7160   1.0227504606e+02   4.9199245040e+01    0.4563475    0.3511032  66.76  0.001836557    1.594    0.373
        78 -12.6203     51.0926     99.0708   1.0586439853e+02   5.0454701172e+01    0.7763417    0.4592929   5.35  0.003173257    2.712    0.631
        79 -12.3841     49.2872     94.3224   1.0541562680e+02   5.1777601599e+01    0.4127083    0.2775457  68.73  0.001548043    2.067    0.516
        80 -13.3037    249.2040     98.0460   5.7956454766e+01   9.5561168294e+00     0.630011    0.2229681 -38.96  0.002391431    2.415    0.586
        81 -12.0801    136.9777     95.6882   7.9285869552e+01   3.6160819878e+01    0.5232693    0.3608645  67.14  0.002067572    1.846    0.458
        82 -11.0206     25.3745    127.1669   1.1824305297e+02   4.6296966737e+01    0.2057658    0.1932726 -13.40 0.0008024352    1.389    0.280
        83 -10.5384     52.0793     90.4951   1.0361282271e+02   5.2351037683e+01    0.1768676    0.1353505  30.93 0.0004427145    1.499    0.333
        84 -12.0337     89.7289     88.3673   9.0723607753e+01   4.7360395602e+01    0.4662857    0.3408707  43.90  0.002092481    1.477    0.323
        85 -11.8972    126.9171     85.8161   7.9030853496e+01   4.0475765890e+01     0.440569      0.39222  22.33  0.002248126    1.187    0.158
        86 -12.3614    132.3742     85.9338   7.7607732449e+01   3.9222444505e+01    0.3717423    0.2860096  27.26  0.001227942    1.467    0.318
        87 -12.9497    135.5823     79.9569   7.4938470433e+01   3.9673899423e+01    0.7311217    0.4235001  45.03  0.003009706    1.741    0.426
        88 -11.3382     34.3735     86.8818   1.0880413924e+02   5.5024018431e+01    0.2160924     0.180182 -17.33 0.0007454589    1.372    0.271
        89 -13.5031    242.4360     84.1468   5.5587096509e+01   1.3191800807e+01    0.5038235    0.3031014  63.14  0.002400046    1.892    0.472
        90 -13.7011    237.2273     80.2689   5.5364995190e+01   1.4950102969e+01    0.5898829    0.4066481  81.20  0.002437198    1.815    0.449
        91 -13.0911    188.4156     84.3388   6.4444066174e+01   2.5888305990e+01    0.8132374    0.3323463  43.75  0.002680242    2.814    0.645
        92 -13.3357    163.6990     71.4730   6.5688652161e+01   3.4380101694e+01     1.612466    0.5110752  44.78  0.004665763    3.590    0.721
        93 -12.8192    159.9693     68.1844   6.5481362181e+01   3.5894418429e+01    0.6990082    0.4823218 -48.41  0.001864728    1.523    0.343
        94 -13.5279    160.7878     80.8390   6.9147463419e+01   3.3414448359e+01    0.9650214    0.6724331  15.62  0.003236803    2.070    0.517
        95 -14.5077    169.3048     77.1418   6.6203164618e+01   3.1961733105e+01     1.542354    0.7282808  52.36  0.005356028    2.089    0.521
        96 -13.3074     65.8864     48.9659   8.6100561840e+01   5.9325373922e+01    0.5044262    0.4873151 -65.96  0.003201855    1.336    0.252
        97 -13.5020     58.5937     63.9426   9.4003727162e+01   5.7418849410e+01     1.538047    0.8329204 -24.21  0.006537972    2.533    0.605
        98 -12.9105     54.9178     81.7860   1.0048147522e+02   5.4007970377e+01     0.583292    0.3528837 -40.94  0.001818611    1.546    0.353
        99 -13.8422     60.9298     75.4486   9.6631458095e+01   5.4651342327e+01    0.6774292    0.4245037 -40.50  0.001169551    1.459    0.314
       100 -13.7172    213.5163     78.5995   5.8485171136e+01   2.0720477954e+01     1.123497    0.6632252  79.35  0.004499444    2.408    0.585
       101 -13.2007    216.6417     73.5049   5.6657710321e+01   2.0799624636e+01    0.7466773    0.4759747 -79.82  0.003134214    2.248    0.555
       102 -14.0164    199.1993     69.8684   5.8477450194e+01   2.5667011247e+01     1.017144    0.6532173  43.11  0.003122487    1.734    0.423
       103 -12.2154    199.8550     62.2524   5.6257982446e+01   2.6719856721e+01    0.3595139    0.3094718 -48.58 0.0008553155    1.122    0.109
       104 -12.0299    114.1988     80.2956   8.0886774180e+01   4.4366244289e+01    0.4135901    0.3235029 -52.36  0.001043794    1.337    0.252
       105 -12.1604    149.6900     85.0321   7.2973900921e+01   3.5332811523e+01    0.5856967    0.3590007  31.71  0.002302388    2.047    0.512
       106 -11.4216    121.3438    112.2173   8.7982247978e+01   3.5939333794e+01    0.2870902    0.1838456  55.11 0.0009494878    1.747    0.428
       107 -12.3188     79.6547     60.9546   8.5431472399e+01   5.4837611842e+01    0.4648709    0.4191866   6.89  0.002044539    1.106    0.096
       108 -12.9573     81.4264     54.6154   8.2573641759e+01   5.5738889933e+01     0.700462    0.4249349  37.42  0.002784796    1.716    0.417
       109 -13.0139     91.3179     57.7896   8.0395508390e+01   5.3351166057e+01    0.7055567    0.4434857 -52.30  0.003234773    1.869    0.465
       110 -13.6338     85.8695     66.5852   8.5235727883e+01   5.2650869242e+01     1.124691    0.6801429   7.63  0.004353899    2.922    0.658
       111 -13.1101     70.8213     75.8075   9.3280154929e+01   5.3177256672e+01    0.5550978    0.4352233 -15.07  0.001288082    1.412    0.292
       112 -12.0685     77.1495     73.8625   9.0521099133e+01   5.2616695846e+01    0.3210959    0.2708335 -43.80  0.001055676    1.103    0.093
       113 -12.7819     28.6801    122.5085   1.1671411069e+02   4.7114956420e+01    0.3730411    0.2499754 -67.35  0.002196116    1.218    0.179
       114 -11.2177     42.1168     76.9335   1.0377190714e+02   5.6541133709e+01    0.2101026    0.1929479  16.06   0.00126934    1.262    0.207
       115 -12.6791    241.7845     71.4823   5.2606938497e+01   1.5298374815e+01    0.4427088    0.3002308 -73.81  0.002166629    1.802    0.445
       116 -13.3152    133.6462     65.9824   7.0964963035e+01   4.2752798606e+01    0.8787491    0.7217849  -4.76  0.002663381    1.377    0.274
       117 -12.3951     38.3561     68.2597   1.0289764537e+02   5.8837325513e+01    0.5907276    0.2812933  29.12  0.002878564    2.403    0.584
       118 -11.6483    100.0872     65.1286   8.0161887957e+01   5.0268525631e+01    0.3858728    0.2752298 -33.12  0.001888774    1.365    0.267
       119 -13.9629    178.0693     57.6669   5.8669219836e+01   3.2999039074e+01    0.9470294    0.7386619 -43.34  0.002770771    1.281    0.219
       120 -11.9632     24.3951     59.7547   1.0605161695e+02   6.1902906159e+01    0.3365357    0.1877158 -51.82  0.001067524    1.401    0.286
       121 -13.6754     91.0855    232.2170   1.1523725274e+02   1.5228412248e+01    0.5164225    0.3028719  82.98  0.002848476    2.041    0.510
       122 -12.7107    135.4890     50.4925   6.5282652834e+01   4.4919034034e+01    0.6455702    0.3478449  34.75  0.002509663    2.249    0.555
       123 -11.9960    147.3332    239.0232   1.0532040953e+02   5.2634723536e+00    0.1659582    0.1484155  50.72  0.000893265    1.126    0.112
       124 -12.9190    110.0622     42.1791   6.8891069643e+01   5.2133876854e+01     0.581975    0.2494542  45.86  0.001377226    2.237    0.553
       125 -12.7813     14.4133    223.8277   1.2849952389e+02   2.6338566513e+01    0.4977172    0.2310108  74.77  0.002724766    1.795    0.443
       126 -13.1634    113.6901     38.2426   6.6399998364e+01   5.1904740891e+01    0.4284224    0.3884002  49.22  0.002371279    1.136    0.120
       127 -10.6680     38.7406     60.1687   1.0045929724e+02   6.0530800876e+01    0.1982355    0.1361834  77.90 0.0009514702    2.776    0.640
       128 -10.7512     47.5432     57.0256   9.6012717925e+01   6.0222508620e+01    0.2056372    0.1144701 -51.44  0.001030193    1.619    0.382
       129 -13.3721    248.2520     51.7105   4.7105665656e+01   1.6756896443e+01    0.7073006    0.4285466 -33.26   0.00359562    1.543    0.352
       130 -12.1511    230.4524     55.5891   5.0132721526e+01   2.0258895131e+01    0.4286938    0.2390403  65.10   0.00197889    1.874    0.466
       131 -11.7034    109.8894     53.9235   7.3274135941e+01   5.0270823307e+01    0.3763044    0.2180044 -31.35  0.001648101    1.749    0.428
       132 -13.4802    103.0351     50.5448   7.4072513322e+01   5.2302536419e+01    0.8161046    0.5364065 -58.29 0.0007505666    2.175    0.540
       133 -12.3798     98.2922     50.8508   7.5641574039e+01   5.3225266362e+01    0.6446813    0.3797331 -54.47  0.001793558    2.363    0.577
       134 -11.7925     23.9667     49.5457   1.0334130424e+02   6.4064861513e+01    0.4187926    0.1704294 -31.15  0.001585761    2.920    0.658
       135 -13.7782     25.6189    227.4832   1.2677334820e+02   2.4483661391e+01     1.199878     0.433474 -82.08  0.006257541    2.616    0.618
       136 -13.4493     20.7396    225.2171   1.2748849003e+02   2.5428017613e+01    0.4644831    0.3036117  83.93  0.002379945    1.206    0.171
       137 -12.9889    237.5865    230.7444   8.7448949072e+01  -8.0275045200e+00    0.2340983    0.1801262  32.68  0.001590225    1.314    0.239
       138 -13.1251    157.7695     43.8517   5.8206264409e+01   4.0311243200e+01    0.8547607    0.5256482  34.82  0.003654074    1.925    0.481
       139 -11.7830    169.4564     43.7577   5.5983844113e+01   3.7302236533e+01    0.2923359    0.2051611  62.66  0.000943762    1.375    0.273
       140 -10.7766     55.5088     41.0992   8.7143480551e+01   6.2258539298e+01    0.1848995    0.1141452 -38.78 0.0003513298    1.442    0.306
       141 -11.4845    104.4838     37.4338   6.8661957844e+01   5.4062082238e+01    0.2915352    0.1364315 -31.63  0.001204518    2.145    0.534
       142 -12.7193     75.7432     37.3298   7.7911548581e+01   5.9722158453e+01    0.3419916    0.2352709  38.46  0.000837924    1.483    0.326
       143 -12.2239     69.5667     36.7784   7.9943502309e+01   6.0860917580e+01    0.4246342    0.2269826  31.08 0.0009584026    1.989    0.497
       144 -13.9171    241.8975     34.6833   4.3750474589e+01   2.0481840994e+01    0.8437147    0.6143062  74.63  0.002899797    1.394    0.283
       145 -11.9416    107.7697    244.2620   1.1333022332e+02   1.0655242301e+01    0.3479082    0.2599752  20.05  0.002163597    1.912    0.477
       146 -13.1364     66.2643    223.3750   1.1911327102e+02   2.0360307225e+01    0.7103282    0.4944739  42.41  0.004603969    1.416    0.294
       147 -13.9616     62.8822    214.5654   1.1898535213e+02   2.2525177267e+01    0.9368255    0.4315371  46.91  0.004987362    1.816    0.449
       148 -12.6922     57.4167    203.4074   1.1905104348e+02   2.5497075856e+01    0.8338786    0.2828119 -72.39  0.003584093    3.000    0.667
       149 -12.9736     94.5793    218.6937   1.1315227885e+02   1.7216381999e+01    0.3714786    0.2382127  52.94  0.001508514    1.308    0.235
       150 -11.1486     85.4821    215.9865   1.1467069006e+02   1.9094654319e+01    0.2576512    0.1397115  54.49  0.001378542    1.605    0.377
       151 -11.6919     58.4338     35.4014   8.3680530553e+01   6.2825188421e+01    0.5010483    0.2228158  33.11  0.002271703    2.399    0.583
       152 -12.2645     46.1640     33.8622   8.8137257792e+01   6.4762593546e+01    0.4706634    0.2785598 -29.88  0.002570964    1.514    0.339
       153 -12.0752    185.6158    213.7573   9.4188312017e+01   2.7222451373e+00     0.214125    0.1750171 -50.30   0.00129665    1.526    0.345
       154 -13.4211      9.1710    210.8118   1.2874017615e+02   2.9355128509e+01     0.869296    0.5482973  70.34  0.006211058    1.176    0.149
       155 -13.8867     18.1791    161.4632   1.2362566571e+02   3.8962964482e+01     1.873566    0.9874001  18.04  0.009836112    2.929    0.659
       156 -11.4903     31.4126     31.0719   9.3588753729e+01   6.6929083112e+01    0.2428882    0.1565237  18.79 0.0006859296    1.666    0.400
       157 -10.5565     36.2804     34.3284   9.2661010278e+01   6.5838865119e+01    0.1289382   0.07849167 -22.77 0.0002234404    1.600    0.375
       158 -14.7335      8.1507    183.6502   1.2737554832e+02   3.4992541628e+01     1.031449    0.8012183  73.72  0.007689371    1.112    0.101
       159 -10.7418     89.2919     30.1121   7.0324851371e+01   5.8267253093e+01    0.1832665    0.1593702  -8.04 0.0002508381    1.081    0.075
       160 -10.9407     91.0118     34.1769   7.1453091758e+01   5.7342103201e+01    0.2355185    0.1422312  23.58  0.001075963    1.933    0.483
       161 -12.9106     56.5141     27.3889   8.1038918182e+01   6.4397767222e+01     0.570206    0.2827989  42.53  0.001891623    2.274    0.560
       162 -12.8192     67.6785     24.5966   7.5422684092e+01   6.3033699095e+01    0.6740496    0.3257883  40.82  0.003226467    2.058    0.514
       163 -11.5728     27.5593     33.3958   9.6274862815e+01   6.6884934112e+01     0.341349     0.202045 -54.34  0.001929959    1.748    0.428
       164 -10.9565     97.9315     27.1670   6.6455696753e+01   5.6887667164e+01    0.2011417    0.1929475  73.48   0.00122142    1.285    0.222
       165 -11.9895     46.9174     21.0350   8.2222377981e+01   6.6733131367e+01    0.4006397    0.2816604  17.62  0.002109768    1.378    0.274
       166 -14.4131     16.1351    175.7668   1.2521272600e+02   3.5973577838e+01     1.429128    0.4154094  47.95  0.006547246    2.984    0.665
       167 -11.4234    157.3858    213.1850   9.9713343922e+01   7.7849615038e+00    0.1740542    0.1272153 -64.73 0.0009576171    1.774    0.436
       168 -11.3281    136.8321    211.3582   1.0363417326e+02   1.1703143042e+01    0.2118867    0.1786263 -83.91 0.0007974095    1.362    0.266
       169 -12.5127     41.7114    206.8747   1.2245060547e+02   2.6708368015e+01    0.3099968    0.1570507  70.71  0.001479456    1.866    0.464
       170 -10.9190     80.2219    208.2126   1.1490364486e+02   2.1401586592e+01    0.1865714    0.1239817  67.17  0.001076973    1.379    0.275
       171 -11.1251    150.7212    206.9995   1.0011466037e+02   1.0051490911e+01    0.2609969    0.1602581  31.24  0.001293799    1.670    0.401
       172 -13.1265     40.5925    195.4315   1.2174530388e+02   2.9212047509e+01    0.4843834    0.2023858  85.72  0.002112185    2.933    0.659
       173 -10.2581    212.3141    200.3538   8.6683964555e+01   1.0972888036e-01    0.1394687   0.09295923   6.16 0.0005060759    1.735    0.424
       174 -12.7114    164.0305    194.7103   9.5309612924e+01   9.8444803423e+00    0.5208666    0.3045095 -61.87  0.002305321    2.486    0.598
       175 -12.4129    201.0481    192.0106   8.7291173864e+01   3.4260807667e+00    0.3515794     0.282407  -2.73  0.001587249    1.275    0.216
       176 -11.8547     49.1278    181.4794   1.1866185335e+02   3.1228354492e+01    0.3838737    0.2198979 -58.48   0.00209817    1.817    0.450
       177 -12.7117    198.4620    181.6083   8.5787952380e+01   5.6378315978e+00    0.2989781    0.2859832 -70.16  0.001458748    1.314    0.239
       178 -12.7794     85.1169    180.3844   1.1048653370e+02   2.6575684215e+01     0.360696     0.235403 -88.69   0.00184988    1.671    0.401
       179 -13.0181    124.6021    167.8223   9.9281993729e+01   2.2678097056e+01    0.5800912    0.2786989 -55.95  0.002365556    2.207    0.547
       180 -12.0575     77.3654    156.9293   1.0894028351e+02   3.3103197453e+01    0.4247967    0.2879779  34.37  0.001601415    1.635    0.388
       181 -13.2814     74.0128    153.2391   1.0920988716e+02   3.4460487640e+01    0.7155814     0.515065  37.79  0.003000341    1.496    0.332
