#   1 NUMBER                 Running object number                                     
#   2 MAG_AUTO               Kron-like elliptical aperture magnitude                    [mag]
#   3 X_IMAGE                Object position along x                                    [pixel]
#   4 Y_IMAGE                Object position along y                                    [pixel]
#   5 X_WORLD                Barycenter position along world x axis                     [deg]
#   6 Y_WORLD                Barycenter position along world y axis                     [deg]
#   7 A_WORLD                Profile RMS along major axis (world units)                 [deg]
#   8 B_WORLD                Profile RMS along minor axis (world units)                 [deg]
#   9 THETA_WORLD            Position angle (CCW/world-x)                               [deg]
#  10 FWHM_WORLD             FWHM assuming a gaussian core                              [deg]
#  11 ELONGATION             A_IMAGE/B_IMAGE                                           
#  12 ELLIPTICITY            1 - B_IMAGE/A_IMAGE                                       
         1 -13.2587    170.8366     54.6971   6.1443251357e+01   3.5365705701e+01     2.086261     1.226223  29.29  0.006087537    2.459    0.593
         2 -13.3317    185.4101     40.2116   5.4476736985e+01   3.3708466758e+01    0.9725728    0.9293617 -75.98  0.003001285    1.017    0.017
         3 -12.8426    190.2618     33.8655   5.1860172854e+01   3.3296725897e+01    0.6446971    0.5889517 -77.64  0.001389323    1.052    0.049
         4 -13.9449    208.3114      8.8446   4.2638075247e+01   3.1610798584e+01     1.326912     1.126261  33.93  0.004667341    1.440    0.305
         5 -12.3653    190.1442     15.3574   4.6469751976e+01   3.5544926777e+01    0.5794646    0.5334485  10.34  0.003044363    1.275    0.216
         6 -11.0995    242.6571      2.0951   3.8037136605e+01   2.4063523196e+01    0.5552322    0.1410478  69.86  0.002082673    3.478    0.712
         7 -11.7596     58.7192    215.3467   1.2113267739e+02   2.3116813538e+01    0.2354599    0.1605283  70.71 0.0006329276    1.186    0.157
         8 -13.3651    247.5712    245.2504   9.0388873328e+01  -1.0727885974e+01     1.547036    0.6824973 -28.07  0.008800397    2.456    0.593
         9  -9.5935    204.4957    199.4719   9.0267222276e+01   1.8464689066e+00    0.1337111    0.1128457  19.86 0.0001339276    1.045    0.043
        10 -11.6171    150.6391    196.1540   1.0036184320e+02   1.2261222273e+01    0.3580174     0.298077  65.43  0.001691054    1.245    0.197
        11  -9.8947     80.9055    194.7574   1.1473248261e+02   2.4204947341e+01    0.3113767    0.1809871  49.19  0.001203082    1.526    0.345
        12 -11.5192     64.9752    195.5455   1.1808960407e+02   2.6267578909e+01     0.332502    0.2235253 -48.33  0.001261638    2.036    0.509
        13  -9.4104    156.5127    190.4754   9.8201467045e+01   1.2220670727e+01    0.1378273    0.1240732  39.41 -1.490571e-05    1.043    0.042
        14 -19.1145     24.5030    103.9547   1.1652801933e+02   5.1654202669e+01     16.67209    0.8795998 -67.60   0.02892336   14.456    0.931
        15 -11.2504     53.8572    210.1897   1.2161424662e+02   2.4741423051e+01    0.1746116     0.134071  60.22 0.0002825399    1.146    0.128
        16 -12.0953    145.3814    181.8528   9.9068655297e+01   1.5954695328e+01    0.4533793    0.3260024  75.20  0.001924252    1.774    0.436
        17 -12.0697    142.0276    175.3534   9.8651554104e+01   1.7885501717e+01    0.4064413    0.4013018  73.90  0.001632759    1.086    0.079
        18 -10.0980    189.2646    178.4614   8.9283787091e+01   8.1037082784e+00    0.3866625     0.302033  79.24  0.001212951    1.893    0.472
        19  -9.6658    187.8744    173.7056   8.8624836928e+01   9.2114443725e+00    0.3522447    0.2433236 -65.24  0.001630163    2.171    0.539
        20 -11.4674     71.0238    207.8744   1.1811129237e+02   2.2943381814e+01     0.450954    0.3021596  24.43  0.001928305    2.255    0.556
        21 -11.3742     61.4085    204.7769   1.1969253002e+02   2.4851942742e+01    0.3353799    0.2032242 -51.44  0.001892593    2.218    0.549
        22  -9.4681    187.1327    165.9619   8.7201983634e+01   1.0752431960e+01    0.3221341    0.1925499 -48.03  0.001201062    1.858    0.462
        23  -9.2298      7.0068    161.1226   1.2711329630e+02   3.9971908914e+01    0.1526667    0.1224006 -72.97 0.0003328709    1.291    0.225
        24 -11.0578     93.6208    157.6483   1.0675238839e+02   3.0377887361e+01    0.2667986    0.2381337 -74.66 0.0004472992    1.094    0.086
        25 -11.9921     99.0575    151.1044   1.0430975691e+02   3.0983750567e+01    0.5913233    0.4572498 -29.26  0.003017167    1.765    0.434
        26 -10.9606    133.8172    145.5999   9.4755257700e+01   2.5804987357e+01     1.141212    0.2880102 -54.73   0.00279814    5.582    0.821
        27 -10.0421    113.2350    151.3613   1.0088749923e+02   2.8443662693e+01    0.2832678      0.22334 -88.61 0.0008866045    1.374    0.272
        28  -9.5687    174.8884    149.1160   8.6160102598e+01   1.6496831156e+01    0.2300938    0.2057176  86.15 0.0006563593    1.303    0.233
        29 -10.8925    193.6545    195.9922   9.1710368407e+01   4.3481396713e+00    0.5233557    0.2955851 -57.38  0.002267217    2.885    0.653
        30  -9.1901     92.1031    146.8493   1.0528135791e+02   3.3120794840e+01    0.2213192     0.184853  81.04  0.001227955    1.167    0.143
        31  -9.1095    114.2325    142.8322   9.8974888479e+01   3.0204505093e+01    0.2515252    0.1540863  81.24 0.0007611525    2.771    0.639
        32 -11.3120    109.4272    137.9654   9.9195295968e+01   3.2207696375e+01    0.6070843    0.3469649 -40.06  0.002549167    2.084    0.520
        33  -8.7686    127.9888    139.4755   9.4863541907e+01   2.8328196925e+01    0.2292743     0.146673  43.51  0.001022919    1.565    0.361
        34 -11.8304     97.9896    137.0400   1.0194683229e+02   3.4439809778e+01    0.2930062    0.2824484 -69.92 0.0003355266    1.104    0.094
        35 -10.8845    105.9200    130.7277   9.8585577622e+01   3.4526882274e+01    0.3851084    0.3156568 -67.92  0.001217269    1.191    0.160
        36  -9.7611    135.9810    128.7527   9.0470230146e+01   2.9096624902e+01    0.4117137    0.1736426 -44.26  0.001456811    2.408    0.585
        37  -9.9911    116.0392    128.7488   9.5517192833e+01   3.3102069491e+01    0.3026118    0.2614621  15.92 0.0006879317    1.405    0.288
        38  -9.6283    160.6445    127.8564   8.4375957983e+01   2.3940463743e+01    0.3197528    0.2455619 -80.02   0.00143736    1.718    0.418
        39 -10.4653    103.9636    124.5001   9.7747135478e+01   3.6335375476e+01    0.2885443     0.254324  -9.13 0.0007365522    1.413    0.292
        40  -9.2719    120.5508    123.2286   9.3076704764e+01   3.3488532608e+01    0.2183858    0.1408402 -39.24 0.0009449097    1.678    0.404
        41  -9.4218    152.9422    119.5119   8.4094772157e+01   2.7424867612e+01    0.2926578    0.2185079 -26.66 0.0006678458    1.536    0.349
        42  -9.2016    135.0000    119.9293   8.8581293996e+01   3.1261372973e+01    0.2584356   0.08722192 -46.50 0.0007994906    2.922    0.658
        43 -11.2421     71.8306    244.9663   1.2116262167e+02   1.6017340621e+01    0.2076345    0.1545247 -74.84  0.001014021    1.502    0.334
        44  -9.3663    111.0044    118.0438   9.4370258455e+01   3.6533638528e+01    0.2190616     0.209707 -71.78            0    1.010    0.010
        45  -9.8327    231.2236    113.7657   6.6888603958e+01   1.0688751555e+01    0.2489865    0.2346005  17.76  0.000770726    1.106    0.096
        46  -9.5613    167.7716    112.6763   7.8912155087e+01   2.5444910470e+01    0.3872852    0.2599711 -87.86  0.001434637    2.625    0.619
        47 -11.0106    119.2231    110.7650   9.0364327319e+01   3.6587153498e+01    0.5386941    0.3682883  71.26  0.002284821    2.009    0.502
        48  -9.9133    134.6249    106.2352   8.5137404233e+01   3.4352226479e+01    0.6015419    0.1463336 -45.46  0.001596981    4.036    0.752
        49  -9.6616    205.4475    110.1501   7.0526989008e+01   1.7092704925e+01     0.327453    0.2198652  42.40  0.001025401    1.569    0.363
        50  -9.5574    184.8047    212.8131   9.6297958906e+01   3.3008614764e+00    0.1723109      0.14703  59.00  0.001071593    1.352    0.260
        51  -9.8309    188.8426     88.7347   6.7985748404e+01   2.4977170256e+01    0.4052936    0.3104254 -83.38   0.00183656    1.664    0.399
        52  -8.9028     73.3092     73.4104   9.3743368039e+01   5.3108468022e+01    0.1731069    0.1340778  47.46  0.000524512    1.502    0.334
        53 -17.8844     39.8956    241.7592   1.2627877177e+02   2.0575584204e+01     6.585782     5.537271  51.79   0.05042979    1.460    0.315
        54 -10.1418    191.4994    192.0003   9.1403749150e+01   5.3920595900e+00     0.444654    0.2752043 -70.07  0.001703213    3.920    0.745
        55  -9.1753     87.4849    203.1126   1.1434006514e+02   2.1532702069e+01    0.2205238    0.1953867 -66.33 0.0009516921    1.339    0.253
        56  -8.9282     95.7888     63.5587   8.3231520030e+01   5.1283957482e+01    0.1883798    0.1414097  54.91  0.000664626    1.565    0.361
        57 -11.9604    198.3499     23.5922   4.7805363442e+01   3.2487106412e+01    0.4398679    0.3294815 -29.41  0.001510678    1.401    0.286
        58 -11.4587     75.4031    248.4489   1.2082296831e+02   1.4953567033e+01    0.3248404    0.1354607 -60.40  0.001801513    2.825    0.646
        59 -10.3632     61.9726    219.8501   1.2090598033e+02   2.1832708895e+01    0.1837695    0.1317734  84.15  0.000986948    1.208    0.172
