#   1 NUMBER                 Running object number                                     
#   2 MAG_AUTO               Kron-like elliptical aperture magnitude                    [mag]
#   3 X_IMAGE                Object position along x                                    [pixel]
#   4 Y_IMAGE                Object position along y                                    [pixel]
#   5 X_WORLD                Barycenter position along world x axis                     [deg]
#   6 Y_WORLD                Barycenter position along world y axis                     [deg]
#   7 A_WORLD                Profile RMS along major axis (world units)                 [deg]
#   8 B_WORLD                Profile RMS along minor axis (world units)                 [deg]
#   9 THETA_WORLD            Position angle (CCW/world-x)                               [deg]
#  10 FWHM_WORLD             FWHM assuming a gaussian core                              [deg]
#  11 ELONGATION             A_IMAGE/B_IMAGE                                           
#  12 ELLIPTICITY            1 - B_IMAGE/A_IMAGE                                       
         1 -12.5535     37.7412     51.2368   1.0818614679e+02   6.2003034332e+01    0.7087907    0.4799925 -34.84   0.00279535    1.324    0.245
         2 -11.7366    101.1117     28.2831   7.6632884025e+01   5.5966191849e+01    0.7391269    0.3920636 -56.65  0.002596947    3.964    0.748
         3 -11.5664      4.0344     18.3112   1.1256214601e+02   7.1038481306e+01    0.3678036    0.2574248 -14.32  0.001969438    1.409    0.290
         4 -11.5519     10.0794     15.6305   1.0836215928e+02   7.1137873968e+01    0.2635044    0.1944442 -43.80  0.001877572    1.170    0.145
         5 -11.6698     61.0499     23.4795   8.8155118985e+01   6.4070858255e+01    0.7588378    0.5346884 -63.35  0.003777328    2.691    0.628
         6 -10.5504     64.8200     13.5350   8.2087308882e+01   6.4875243135e+01    0.5502361    0.2873965  14.37  0.002333257    2.909    0.656
         7 -11.3415     74.4076      6.7375   7.5367126153e+01   6.3991902069e+01    0.3353643    0.2220138 -12.71 0.0005922227    1.448    0.309
         8 -12.0473     81.1485      6.6131   7.3115206587e+01   6.2708795654e+01    0.3783843    0.2511702 -16.85 0.0004016622    1.458    0.314
         9 -11.8392     70.3756     15.0407   8.0752858550e+01   6.3719683356e+01    0.4024574    0.2193723 -20.94  0.001357982    1.831    0.454
        10 -11.9880     21.3704     18.4940   1.0374363120e+02   6.9742228851e+01    0.4924907     0.431995  66.95  0.002843136    1.924    0.480
        11 -11.3899     76.0957     15.4167   7.8915935327e+01   6.2638721823e+01    0.6014827    0.3262094 -11.61   0.00212265    2.187    0.543
        12 -10.3944     34.8425     16.0777   9.6100308381e+01   6.8774789787e+01    0.3564429     0.185116 -26.73  0.001070678    1.835    0.455
        13 -10.7353     55.2998     12.8235   8.5485920063e+01   6.6505524968e+01    0.3208675    0.1874852 -33.69  0.001018477    1.607    0.378
        14 -10.3946     26.4416     13.8188   9.9140875027e+01   7.0047332280e+01    0.2042124    0.1324852 -18.56 0.0002630231    1.396    0.284
        15 -10.1621    100.1901     12.9293   7.0428936015e+01   5.8070925956e+01    0.2338301    0.1753142  -4.17  0.001295496    1.334    0.251
        16 -10.2900    176.3035     11.1550   5.5129561665e+01   3.9522030217e+01    0.3052068    0.2060243  19.46  0.001471403    1.886    0.470
        17  -9.6839    137.8223     12.2322   6.1613792962e+01   4.9280060422e+01    0.2417913    0.1371894 -65.15 0.0009526053    2.832    0.647
        18 -10.1740    118.2607     11.9409   6.5543599555e+01   5.4070664677e+01    0.2486568     0.201481 -23.85 0.0009593662    1.295    0.228
        19 -11.7377    116.1274      4.2547   6.2899453876e+01   5.5316702515e+01     0.601836    0.2211103 -26.00 0.0008167538    2.719    0.632
        20 -10.8056    185.8313     10.9919   5.3858524293e+01   3.7077000984e+01      0.21859    0.1860959  78.11 0.0003640458    1.099    0.090
        21  -9.9066     85.9588     10.6308   7.3500821100e+01   6.1308998402e+01    0.1775335    0.1499246  31.98 0.0006739692    1.112    0.101
        22 -10.2568     59.6579     10.3550   8.2524229012e+01   6.6145033086e+01    0.2217193     0.186982  40.04  0.000715357    1.404    0.288
        23  -9.5374     51.0016     10.9977   8.6375518896e+01   6.7403996039e+01    0.1988633    0.1268898   1.22 0.0007108228    1.681    0.405
        24 -10.1043    107.3369      9.9105   6.7288622415e+01   5.6805237873e+01    0.3869094    0.1749833  61.36  0.001629275    2.297    0.565
        25 -11.6625     22.7469      7.3612   9.7943886380e+01   7.1444533180e+01    0.3964025    0.3441187 -29.19  0.001663216    1.324    0.245
        26 -13.1480     31.4238      2.2051   9.0819791069e+01   7.1242076432e+01    0.3991903    0.2047928  24.57 0.0008927719    2.052    0.513
        27 -10.0571    236.5390      9.4879   4.8325215026e+01   2.4701820484e+01    0.1282628    0.1145545 -67.78 6.412665e-06    1.029    0.028
        28 -10.3678    127.3098      8.0518   6.2081069451e+01   5.2283287206e+01    0.1875579    0.1731799  -4.78 0.0003941694    1.134    0.118
        29 -10.2888     89.9504      7.2944   7.0782409972e+01   6.0854290118e+01    0.3360535    0.1718549  60.06 0.0009227793    2.210    0.548
        30  -9.6300     85.6854      5.3324   7.1123153466e+01   6.1934516321e+01    0.1901615    0.1645244  68.18  0.000690726    1.471    0.320
        31  -9.8951    228.9958      5.5294   4.7984147114e+01   2.6880759362e+01    0.1893181    0.1196887  81.80 0.0005187452    1.529    0.346
        32 -12.7332     12.5596      3.5146   1.0157247342e+02   7.2981567365e+01    0.7526313    0.4396602 -10.84  0.004291616    1.738    0.424
        33  -9.7595     59.7331      5.5497   8.0076427018e+01   6.6730146024e+01    0.2353709    0.1070386  40.14  0.001148644    2.117    0.528
        34  -9.4934    167.0147      1.2286   5.3226711358e+01   4.2846515846e+01    0.1879777    0.1047764  69.47 0.0007148379    1.629    0.386
        35  -9.2818     80.6534    223.3441   1.2493243054e+02   1.9675376816e+01    0.1262814   0.06889842  65.29 0.0007044601    1.798    0.444
        36 -10.1403    247.1464    250.0827   9.8750957722e+01  -9.0207963044e+00    0.2160845    0.1292507  15.33  0.001457227    1.422    0.297
        37 -10.6504    250.3891    245.5729   9.7556523777e+01  -9.0298813148e+00    0.3263482    0.1434918 -25.05  0.001892386    2.483    0.597
        38 -10.0408     72.5969    250.0955   1.2849402573e+02   1.6273337310e+01    0.1599752    0.1385702  28.96  0.001262646    1.646    0.392
        39 -10.3103      5.3370    235.4035   1.3855105986e+02   2.6142745922e+01    0.1788989    0.1350895  69.42 0.0008831373    1.173    0.148
        40 -12.4425     16.2520    238.3116   1.3696401738e+02   2.4607039818e+01    0.8895373    0.2417638  41.35  0.004961383    2.688    0.628
        41 -13.0720     19.8393    248.3795   1.3684058802e+02   2.2591247882e+01     1.043663     0.245547  39.08  0.005421395    3.246    0.692
        42 -12.5429      6.5475    244.3021   1.3869843694e+02   2.4554430966e+01    0.5282198    0.3594282  62.04  0.003449521    1.110    0.099
        43 -10.8823      1.4492    245.0240   1.3948749184e+02   2.4912091533e+01    0.1746209   0.07296408 -84.76 0.0006275278    2.085    0.520
        44 -10.8784    123.2837    221.4128   1.1671618971e+02   1.3758454698e+01    0.3696092    0.1965658  47.86  0.002025954    1.559    0.358
        45  -9.6459     13.3745    221.7410   1.3668258810e+02   2.7749502583e+01    0.1279664   0.07726257 -78.30 0.0006068354    1.559    0.359
        46 -10.0461    141.8393    220.9071   1.1312116376e+02   1.0880798187e+01    0.1886198    0.1520672  29.21 0.0008256179    1.269    0.212
        47  -9.9256    174.2065    219.6498   1.0683575701e+02   5.7276652493e+00    0.1839589   0.09662136  34.35 0.0007996134    1.694    0.410
        48 -11.1293    235.3317    216.6935   9.5416600508e+01  -3.7967624292e+00    0.2333661    0.1653135  -0.80  0.001499446    1.335    0.251
        49 -10.1053    191.6695    217.4934   1.0327395558e+02   3.1237477770e+00    0.1929202    0.1152609 -38.22  0.001082942    1.968    0.492
        50 -10.8677      5.0871    226.2225   1.3823014942e+02   2.7737360335e+01    0.2893394   0.07090851  54.34  0.001518435    2.793    0.642
        51 -10.9257      9.8021    217.0677   1.3706210232e+02   2.8923273867e+01    0.2539341     0.129381  60.95 0.0008511785    1.479    0.324
        52  -9.5867     37.9915    217.5175   1.3221913681e+02   2.5980240617e+01     0.153373   0.08956408  43.82 0.0005123747    1.546    0.353
        53 -10.3310     31.2941    215.7896   1.3329561595e+02   2.7020158185e+01    0.1806224    0.1306042  57.26  0.001362186    1.175    0.149
        54  -9.5872    201.5447    215.5370   1.0116142893e+02   1.7524552694e+00     0.126552   0.09955612  22.02  0.000806293    1.088    0.081
        55  -9.7930    194.5359    215.5015   1.0243432604e+02   2.9213084423e+00    0.1254095    0.1024906  27.69 1.160482e-05    1.003    0.003
        56  -9.5528    250.4803    219.4417   9.3357112145e+01  -6.3713944304e+00    0.1184699   0.08770391  13.59 0.0002813481    1.034    0.033
        57  -9.5954    170.3091    213.3267   1.0662653581e+02   7.3225195916e+00    0.1252158   0.09090541  12.29 0.0003457031    1.657    0.397
        58 -11.0534     21.0637    212.2359   1.3488782354e+02   2.8723618941e+01    0.2912692    0.1284502  62.22  0.001750595    1.864    0.463
        59 -10.5323    241.5217    211.8716   9.3550170769e+01  -4.1807404346e+00    0.2334604    0.1514983  49.64  0.001353073    2.007    0.502
        60 -10.2108    208.9727    212.0898   9.9255203803e+01   9.8464979731e-01    0.1889862    0.1522556  21.82 0.0004589621    1.022    0.022
        61  -9.8293      2.2862    212.3254   1.3811275734e+02   3.0461626044e+01    0.1424547   0.09995723  62.92 0.0004464683    1.142    0.125
        62 -12.0368      4.4722    207.0770   1.3750934830e+02   3.1232943013e+01    0.4861761    0.2061323  79.02   0.00290882    2.014    0.504
        63 -11.2880     18.6602    202.8544   1.3478836354e+02   3.0718491242e+01    0.3055929    0.2011688 -75.56 0.0007683934    1.455    0.313
        64 -10.0965    175.1643    202.6596   1.0402350794e+02   8.1290329845e+00    0.1864995    0.1804971  84.76 0.0005780091    1.263    0.208
        65  -9.5001    223.5912    201.8042   9.4878792487e+01  -7.7518763403e-02    0.1536025    0.1151466 -41.00 0.0005522158    1.682    0.405
        66  -9.4087    184.4562    208.5162   1.0319338634e+02   5.6252626039e+00     0.128643    0.1065642  27.32 0.0001173134    1.047    0.045
        67  -9.1002    218.2950    201.6751   9.5798044091e+01   8.2170829765e-01    0.1098458    0.1012141  72.05 0.0003319026    1.622    0.384
        68  -9.7453     34.6451    201.0372   1.3172357794e+02   2.9444475670e+01     0.150604    0.1137668  82.53 0.0004482587    1.086    0.079
        69  -9.6768    227.1480    196.8589   9.3364582003e+01  -1.7125215883e-02    0.1803261    0.1274474  11.34 0.0006729504    1.351    0.260
        70  -9.4449    203.0191    195.9798   9.7581077135e+01   4.2385188049e+00    0.1587847    0.1338291  23.07 0.0006292227    1.005    0.005
        71 -10.4285    215.5409    194.6853   9.5044725492e+01   2.2452843815e+00    0.2159297    0.1207198 -28.36 0.0006333003    1.934    0.483
        72  -9.7884    232.3164    191.3068   9.1438594268e+01  -1.4524231008e-01    0.1318137   0.08517969  10.64  0.000298845    1.629    0.386
        73  -9.2208      1.5263    188.4419   1.3714053612e+02   3.5033077354e+01    0.1059068   0.07700125  78.65 0.0001798942    1.019    0.019
        74  -9.4102     61.6268    184.8065   1.2496538772e+02   2.9554314084e+01    0.1723634    0.1004677 -85.63 0.0009487702    1.723    0.419
        75 -11.3520     15.9445    182.7423   1.3407738475e+02   3.4918945797e+01     0.359982    0.1700495  79.51   0.00194262    1.929    0.482
        76  -9.7502      1.9981    180.2908   1.3662752950e+02   3.6605251865e+01    0.1488986    0.1091974  71.96 0.0006215486    1.089    0.081
        77 -10.2995    244.4124    178.2973   8.6876925130e+01  -4.4548814051e-01    0.2314157    0.1130354 -25.32    0.0011092    2.067    0.516
        78 -10.8513    224.2358    178.3431   9.0393960402e+01   3.0366196768e+00    0.2265845     0.210986   8.02 0.0005214948    1.183    0.155
        79  -9.0306     36.4237    178.4824   1.2963326919e+02   3.3784825941e+01    0.1164821   0.09172215  81.39 0.0001996603    1.014    0.014
        80 -10.0801    200.3645    176.7923   9.4524448189e+01   7.6329278783e+00    0.1834732     0.122613 -22.86 0.0005475624    1.656    0.396
        81  -9.6142     70.0573    177.5448   1.2237083812e+02   2.9970934603e+01     0.169106    0.1154399  39.77 0.0005433856    1.492    0.330
        82 -10.0742    166.8190    183.5897   1.0245343213e+02   1.2780716602e+01    0.1963992    0.1176258  50.33 0.0009475467    1.649    0.393
        83  -9.4793     74.9308    171.0715   1.2050845358e+02   3.0682382164e+01    0.1858611    0.1534596 -31.10  0.001115773    1.720    0.419
        84  -9.4982    210.0151    166.2425   9.0588077873e+01   7.4760947761e+00    0.1779473     0.108463  41.31 0.0005833863    1.552    0.356
        85 -11.2452     36.2422    165.0360   1.2846802456e+02   3.6650108437e+01    0.4848843    0.1896841 -70.24  0.001689169    2.202    0.546
        86 -11.1871     36.9696    157.8957   1.2760702246e+02   3.8125840840e+01    0.2292459    0.1631407  88.02  0.000286104    1.198    0.165
        87  -9.7465     67.1482    165.1347   1.2152532281e+02   3.3008817112e+01     0.183772    0.1308322  71.95  0.000964865    1.348    0.258
        88 -10.7715     51.6954    164.0525   1.2491585341e+02   3.5161013069e+01    0.3150135    0.1666208 -46.75  0.001554038    2.506    0.601
        89 -11.3376     44.4032    162.2285   1.2636767257e+02   3.6386760696e+01    0.3307467    0.1634463 -65.74  0.001709944    1.810    0.447
        90 -10.1727     48.4705    159.5098   1.2514582772e+02   3.6526433360e+01    0.2256928    0.1688154 -88.32  0.001428641    1.156    0.135
        91  -9.5254    246.3692    162.6956   8.3413787264e+01   1.3375819337e+00    0.1185364    0.1062971 -73.55 0.0007033988    1.750    0.429
        92  -9.4777    200.4625    162.5616   9.1657372132e+01   9.9128371477e+00    0.1388923     0.126659  18.61  0.000182832    1.028    0.027
        93 -11.3996     22.6372    156.1225   1.3067614494e+02   3.9894443609e+01     0.355594    0.2922986  67.01  0.002521284    1.169    0.144
        94  -9.0679    147.6647    156.3320   1.0145526097e+02   2.1516477355e+01    0.1477247    0.1123056  79.83  0.000705219    1.734    0.423
        95 -10.2532     11.7535    153.4232   1.3287425786e+02   4.1404148280e+01    0.2328562    0.1137964  24.66   0.00130245    2.640    0.621
        96 -10.3718    178.2288    151.5388   9.3820856742e+01   1.6291969168e+01    0.2498916    0.2023627 -38.58  0.000566051    1.287    0.223
        97 -10.2678    207.0309    146.0493   8.6852796070e+01   1.1344918641e+01    0.2213249    0.2013913  10.29 0.0007325774    1.014    0.014
        98  -9.8084     30.5668    144.5175   1.2771795131e+02   4.1720039583e+01    0.1213998   0.09699851 -88.89 7.442145e-05    1.016    0.016
        99 -10.6311     22.6621    144.1475   1.2956665233e+02   4.2520337156e+01    0.1840294    0.1378778  60.51 0.0005213204    1.297    0.229
       100 -10.1437      2.9176    144.0394   1.3413753808e+02   4.4094285593e+01    0.1741203    0.1101982 -54.58    0.0011307    1.722    0.419
       101  -9.4563    239.9715    141.0188   7.9853166992e+01   5.6273346777e+00    0.1640936    0.1456103   8.19 0.0005176257    1.058    0.055
       102  -9.8889     55.2046    136.1621   1.2052173062e+02   4.1000297169e+01    0.1816494    0.1439582 -79.54 0.0002230209    1.110    0.099
       103 -10.2064     15.8576    139.8079   1.3077299240e+02   4.4050667936e+01    0.2053968   0.09883865  14.44  0.001012629    3.386    0.705
       104  -9.7501    236.7580    138.5880   7.9851447856e+01   6.6090231644e+00    0.1700001    0.1334273  53.08 0.0005018428    1.488    0.328
       105  -9.8695     87.8987    137.8983   1.1236034095e+02   3.6140293763e+01    0.1897912    0.1788771 -38.76 0.0003154961    1.214    0.177
       106 -10.6941      2.7862    136.5571   1.3359172770e+02   4.5729688087e+01    0.2755614    0.1116386 -72.79  0.001367214    1.886    0.470
       107 -10.6383      9.2266    136.6376   1.3207124654e+02   4.5258754744e+01    0.2053647    0.1411921 -70.45 0.0002887966    1.239    0.193
       108 -10.7737     21.6717    135.8748   1.2897548102e+02   4.4450728099e+01    0.2467472    0.1841969  66.10 0.0009819401    1.292    0.226
       109  -9.3535    138.3360    135.3167   9.9224041883e+01   2.7668018453e+01    0.1503354    0.1185698   0.60 0.0007048153    1.697    0.411
       110  -9.2924    122.6869    135.3209   1.0303832213e+02   3.0721162760e+01    0.1493091    0.1134281  82.18   0.00045376    1.653    0.395
       111  -8.9465     40.2887    135.6301   1.2427559073e+02   4.2770563798e+01    0.1320831   0.08193243  75.88 0.0007022407    1.712    0.416
       112  -9.1291    250.3146    134.3053   7.6691871919e+01   4.6659862515e+00    0.1381763   0.09589887   7.40 0.0004771481    1.622    0.383
       113 -10.1622    106.9876    133.2727   1.0656976850e+02   3.4036223714e+01    0.2442816    0.2080219 -58.30 0.0008900235    1.152    0.132
       114  -9.3429    227.3096    132.2644   8.0035336722e+01   9.4592289444e+00    0.1406461    0.1026736  12.66 0.0002125682    1.535    0.348
       115 -10.9706     36.8971    130.5259   1.2449315040e+02   4.4277679187e+01    0.3487334    0.2289166 -68.40  0.002067559    1.290    0.225
       116 -11.2335     32.7234    125.7449   1.2497008034e+02   4.5771983059e+01    0.3393833    0.1775236  46.94  0.001054551    2.036    0.509
       117 -10.3778     73.9427    129.7340   1.1456117997e+02   4.0064227537e+01    0.2404252    0.1801237 -64.49  0.000697986    1.227    0.185
       118 -11.5474      2.3461    124.3430   1.3267002981e+02   4.8446288363e+01    0.4927113    0.1452845 -72.31    0.0022683    2.481    0.597
       119  -9.6553     82.0078    125.2896   1.1157123824e+02   3.9921595450e+01    0.1833937    0.1727831  81.09 0.0004492805    1.061    0.058
       120  -9.7382     47.2252    124.8216   1.2095268850e+02   4.4522843632e+01    0.1670895    0.1389884 -45.90 0.0005280249    1.331    0.249
       121 -10.0936    226.0112    124.2399   7.8396106463e+01   1.1001684988e+01    0.1829693    0.1189703  47.30 0.0008660762    1.597    0.374
       122  -9.4948    219.5393    124.5090   7.9592323004e+01   1.2314220336e+01    0.1442718    0.1330308  -6.86 0.0003103141    1.003    0.003
       123 -11.3178     10.5879    122.3976   1.3038506855e+02   4.8331488746e+01    0.2453832    0.1816827  86.46  0.001038382    1.164    0.141
       124 -10.9319     20.9296    121.4233   1.2756531654e+02   4.7777616589e+01    0.2470569    0.1731114 -26.94  0.001283722    2.004    0.501
       125 -12.0186     17.5805    116.3301   1.2785988019e+02   4.9195077457e+01     0.446065    0.2437466 -58.26  0.002565488    1.582    0.368
       126  -9.9121    249.8366    118.6039   7.3223047641e+01   7.0598340501e+00    0.1749746    0.1343865  65.57 0.0009438345    1.697    0.411
       127  -9.4550     33.4875    118.5510   1.2379388230e+02   4.7354552966e+01    0.1245344    0.1033642 -74.40 8.604712e-05    1.025    0.025
       128  -9.3185    220.3870    117.1485   7.7682559416e+01   1.3336291696e+01    0.2070757    0.1256659 -43.52 0.0005179243    1.697    0.411
       129 -10.2514     86.0605    116.4519   1.0866941570e+02   4.1334545471e+01    0.2136303    0.1759763 -59.58 0.0003578763    1.134    0.118
       130 -11.3909     51.1202    116.4320   1.1853574984e+02   4.6037637881e+01     0.326466    0.1760334 -63.02            0    1.598    0.374
       131  -8.9083    166.3068    115.6902   8.8041035273e+01   2.5678913171e+01    0.1521614    0.1230662 -82.24  0.000253545    1.615    0.381
       132 -11.8956     35.5394    110.0613   1.2195911556e+02   4.9123413197e+01    0.5031972    0.3079191 -75.21  0.001185209    1.460    0.315
       133 -10.6155    249.0108    111.9532   7.1811857624e+01   8.2072215553e+00    0.2141293     0.187282 -20.67   0.00055724    1.018    0.018
       134  -8.7979    212.6609    112.6837   7.7960787945e+01   1.5758970270e+01    0.1544102    0.1116223  12.91 0.0007048359    1.704    0.413
       135 -10.5387      6.6854    107.1941   1.2979585091e+02   5.2007533667e+01     0.238229    0.2016895  80.65 0.0009960409    1.188    0.158
       136 -11.0162      2.5410    105.3729   1.3075109167e+02   5.2662694085e+01    0.2117508    0.1587161 -75.48 0.0001828487    1.025    0.025
       137 -11.9258     16.4126    109.1334   1.2729769146e+02   5.0917900207e+01    0.4077044    0.3086761  66.92 0.0007717179    1.387    0.279
       138 -10.4461     10.9450    109.4903   1.2887348666e+02   5.1216205987e+01    0.2327869    0.2011755 -49.30  0.001177555    1.301    0.231
       139 -10.4560     55.9798    108.7896   1.1576794153e+02   4.7251534168e+01    0.4118451    0.1686294 -52.97  0.001780505    2.133    0.531
       140 -11.6574     23.5371    107.4901   1.2504502115e+02   5.0753456625e+01    0.3351966    0.2495554 -86.67  0.001305696    1.221    0.181
       141  -9.8903     91.3449    107.9678   1.0528976180e+02   4.2423703788e+01    0.2019797    0.1700318 -54.58 0.0004222469    1.117    0.105
       142 -11.0227    243.7850    104.4398   7.0828290305e+01   1.0389564366e+01     0.226983    0.1584755 -23.15 0.0006807821    1.362    0.266
       143 -10.1625    223.2423    104.0100   7.3976256643e+01   1.4843987875e+01    0.2265923     0.212009  42.17 0.0004277311    1.130    0.115
       144 -10.7628     74.2554    102.4255   1.0901427849e+02   4.6327640474e+01    0.3086254    0.2363327 -86.27  0.001357551    1.521    0.343
       145 -10.7230    247.6823    102.0637   6.9687933818e+01   9.9442754575e+00    0.2025749     0.168652 -25.01 0.0007246311    1.081    0.075
       146 -10.0676    119.6301    101.6613   9.5838911614e+01   3.8637497978e+01    0.2319291    0.1807416  -6.28  0.001087115    1.685    0.406
       147 -10.3236     35.9347    101.6047   1.2046150280e+02   5.1039815602e+01    0.3018257    0.1663907  38.10   0.00160956    2.042    0.510
       148 -11.8325      3.3632    100.2331   1.2993885189e+02   5.3767365021e+01    0.3873834    0.2200924  44.18 0.0003069078    2.030    0.507
       149 -10.7742      1.8767     93.7933   1.2960623801e+02   5.5290241643e+01    0.3751027    0.1160428 -68.72  0.001747975    2.288    0.563
       150 -12.0315     29.1834     98.2382   1.2195225013e+02   5.2414135191e+01    0.4556752    0.2492818 -61.77   0.00180169    1.469    0.319
       151 -11.7561     25.6597     91.7329   1.2195649829e+02   5.4191100419e+01    0.2672358    0.2056197 -69.59  0.000306471    1.081    0.075
       152 -10.5290     22.9699     86.8169   1.2196869063e+02   5.5516736117e+01    0.2580665    0.1395091 -60.96 0.0005117333    1.452    0.311
       153  -8.7908    145.0000     99.9953   8.8874172721e+01   3.3584722795e+01     0.259249   0.08717488 -41.49 0.0008045659    2.957    0.662
       154  -9.8654     66.0230     98.4780   1.1062387268e+02   4.8371750849e+01    0.2616098    0.1852757 -12.91   0.00112574    2.031    0.508
       155 -10.4206     62.1887     98.5911   1.1182782573e+02   4.8845553092e+01    0.3044169    0.2265216 -46.34  0.001028173    1.272    0.214
       156 -11.2792     20.3901     96.8331   1.2441992312e+02   5.3431638235e+01    0.2893186     0.169582 -75.04  0.001038603    1.462    0.316
       157  -9.6153     57.4821     96.4796   1.1282936720e+02   4.9916971893e+01    0.1337289    0.1176418 -63.19 0.0008099598    1.023    0.022
       158  -9.5283     98.7895     93.4262   9.9489827740e+01   4.4388989614e+01    0.1769424    0.1422687  25.54 0.0003868608    1.392    0.282
       159  -9.2910     67.3222     93.3058   1.0903316203e+02   4.9378067768e+01    0.1384679   0.09971583 -28.03 0.0003089034    1.640    0.390
       160  -9.9867     31.5101     92.3229   1.2020293879e+02   5.3570299871e+01    0.2683701    0.1029947 -64.41  0.001198658    2.125    0.529
       161 -10.7655     95.6513     90.7237   9.9685439401e+01   4.5536270929e+01    0.4183979    0.2679107   1.79  0.001608111    3.001    0.667
       162 -12.1117     11.0826     91.0418   1.2642936773e+02   5.5377992817e+01    0.3118446    0.2156662  14.95  0.002021638    1.880    0.468
       163  -9.2650     21.3019     91.3234   1.2326742723e+02   5.4618675001e+01    0.1262835   0.07467843 -45.39 0.0003663683    1.634    0.388
       164 -10.2390    171.3381     90.6785   8.0250049474e+01   2.9246272178e+01    0.1598105    0.1231381 -75.76 0.0005075809    1.714    0.417
       165 -10.2247    158.3770     89.8231   8.2864762172e+01   3.2491410363e+01    0.2251781     0.147272 -26.81 0.0009519745    1.692    0.409
       166  -9.6969    113.3003     90.6607   9.4569223250e+01   4.2242054048e+01    0.1507389    0.1191893 -83.32 0.0002909631    1.666    0.400
       167 -11.5544     48.0815     85.8463   1.1350971330e+02   5.3427520118e+01    0.5288928    0.3711307  87.57  0.001263694    1.845    0.458
       168 -10.4372     40.6956     81.4837   1.1500795196e+02   5.5181556481e+01    0.3409227    0.2203903  61.59  0.001784231    2.135    0.532
       169  -9.1228    103.7113     88.6784   9.6747582986e+01   4.4513172041e+01    0.1477893    0.1142381 -13.26 0.0003794872    1.603    0.376
       170 -10.8373    112.3716     86.2752   9.3575117508e+01   4.3345906580e+01    0.3745721    0.2763731  65.92  0.001756468    1.719    0.418
       171 -10.8300      4.5345     86.0221   1.2777078307e+02   5.6884363175e+01    0.2992301    0.2014859 -65.56   0.00197642    1.138    0.121
       172 -11.0777     66.8201     84.9134   1.0713293517e+02   5.1336529288e+01    0.4250433    0.2660773 -15.87   0.00169253    2.568    0.611
       173  -9.7214     88.0170     83.5043   1.0000603500e+02   4.8416605801e+01    0.2187306    0.1763274 -50.35 0.0005050171    1.172    0.147
       174  -9.8975     15.0429     83.8424   1.2405124216e+02   5.6746755874e+01    0.1905187    0.1311229  34.65    0.0012101    1.760    0.432
       175 -10.6533    117.8025     83.0260   9.1098316717e+01   4.2911452071e+01    0.2855502     0.239367 -19.64  0.001456046    1.275    0.216
       176 -10.0917     29.5902     81.7991   1.1883315372e+02   5.6124511103e+01    0.1955757    0.1765701  11.01  0.001116726    1.341    0.254
       177 -10.1058     74.7873     81.1447   1.0354701054e+02   5.1029839326e+01    0.2149354     0.192456  52.64 0.0004963556    1.265    0.209
       178  -9.8841     70.9918     79.4712   1.0432785256e+02   5.1952668796e+01    0.1856106    0.1773382 -16.13  0.000515251    1.099    0.090
       179 -10.8369     23.0156     79.9828   1.2070468929e+02   5.7054863439e+01     0.311822    0.1792418 -32.50 0.0008282926    2.016    0.504
       180 -11.5185     21.0747     76.9801   1.2079390078e+02   5.7870098312e+01    0.4143453    0.2315296 -35.62  0.001966978    1.942    0.485
       181 -11.5371     11.7961     79.0214   1.2432538340e+02   5.8031463521e+01    0.4716685    0.1829992 -61.70 0.0004164927    1.876    0.467
       182 -11.1850      3.2085     78.6753   1.2713761936e+02   5.8587842856e+01     0.251536    0.2288923 -80.06  0.001068153    1.193    0.162
       183 -11.6276      6.9449     73.5798   1.2506336812e+02   5.9518449064e+01    0.3132152    0.2408305   2.33  0.001042227    1.660    0.398
       184 -10.5682     91.5955     78.1706   9.7351276292e+01   4.8939465677e+01    0.3351128    0.2168247 -38.23  0.001595336    1.503    0.335
       185 -10.5620    151.4056     77.6084   8.0879831757e+01   3.6417121427e+01    0.4051356    0.2673106  49.39  0.001798396    1.512    0.339
       186 -12.0101     57.8891     74.1560   1.0730022157e+02   5.4881585786e+01    0.4228079    0.3089969  74.42 0.0004150633    2.024    0.506
       187 -11.7904     62.4165     71.5361   1.0500693945e+02   5.4862329887e+01    0.4267578    0.3315216 -48.90   0.00137398    1.143    0.125
       188  -9.6730    121.9958     76.4685   8.7949366282e+01   4.3334428822e+01    0.2252307    0.1490785  47.44 0.0008074169    1.549    0.354
       189 -11.4358    102.7517     73.3645   9.2477073978e+01   4.7876174154e+01    0.3584637    0.2799754 -66.82  0.001197511    1.585    0.369
       190 -11.4004     38.2112     69.4674   1.1305567888e+02   5.8092977749e+01    0.5742906    0.3946358  81.99  0.003041463    2.178    0.541
       191  -9.9038    138.8905     74.8888   8.3056270378e+01   3.9861606308e+01    0.2092563    0.1862007 -82.65 0.0004701645    1.314    0.239
       192 -12.0207     44.8216     75.2679   1.1213576640e+02   5.6147703988e+01    0.2195153    0.1998272 -56.05 0.0002727133    1.083    0.077
       193 -10.3303     16.4438     72.8900   1.2162168231e+02   5.9099999361e+01    0.3059356    0.1250158 -67.60  0.001472184    2.042    0.510
       194 -11.9140     17.5958     67.2603   1.2007923827e+02   6.0263202584e+01    0.5067533    0.3155529 -16.17  0.001229374    2.036    0.509
       195 -11.0736     19.4756     61.0996   1.1802178354e+02   6.1473109065e+01    0.5287655    0.2554557  50.72  0.002462945    3.347    0.701
       196 -11.7824     76.1657     71.1373   1.0021188770e+02   5.2965093235e+01    0.4788887    0.3680816  51.42  0.001770289    1.547    0.353
       197 -11.5177     94.4090     68.6013   9.3515570328e+01   5.0398506937e+01    0.6162797    0.2749572 -38.25  0.001963706    2.239    0.553
       198 -10.4069    144.4740     70.0075   8.0167680540e+01   3.9441137643e+01    0.2230966    0.2061051  39.83 0.0003330343    1.077    0.071
       199 -10.4696     68.7430     69.9931   1.0237902732e+02   5.4314529668e+01    0.2407723     0.182089 -33.75 0.0002647689    1.263    0.208
       200 -10.5441     68.7125     66.6999   1.0139668449e+02   5.5010140039e+01    0.2499722      0.17019 -34.62 0.0002124211    1.416    0.294
       201 -11.9918     49.8583     68.8530   1.0868938418e+02   5.6997327744e+01    0.4297188    0.2925651 -12.01  0.002227153    1.895    0.472
       202 -10.9745     51.0830     63.5514   1.0675190361e+02   5.7988243377e+01    0.3584548    0.1786955 -38.17  0.001560211    1.983    0.496
       203 -10.8122     27.5368     69.8375   1.1701563429e+02   5.8959669895e+01    0.2585105    0.1483106 -44.98   0.00123972    1.519    0.342
       204 -11.0462     30.9434     66.0359   1.1487580795e+02   5.9506512468e+01     0.303429    0.1744316 -60.72 0.0005948917    1.480    0.324
       205  -9.6749    160.9272     69.5454   7.6285526020e+01   3.5531291561e+01    0.2212305    0.1495218  52.12 6.851296e-05    1.468    0.319
       206  -9.3272    123.4322     68.4607   8.5017223389e+01   4.4550632555e+01    0.1483829    0.1440517 -24.86 6.531479e-05    1.039    0.038
       207 -11.8642      3.9764     65.0209   1.2462509764e+02   6.1547860374e+01    0.4521809    0.2814487  74.96  0.001840793    2.114    0.527
       208 -11.2686     77.0592     63.4473   9.7506263893e+01   5.4407415433e+01    0.3403735    0.2370952 -48.23 0.0004862011    1.366    0.268
       209 -10.6342     99.3176     65.2766   9.0911940601e+01   5.0132659762e+01    0.3262078    0.1857447 -35.78  0.001435179    1.732    0.423
       210  -9.7625    216.4883     64.7529   6.4891553990e+01   2.2518097900e+01    0.3146037    0.1578496  48.35  0.001294933    2.115    0.527
       211  -9.5005    138.7042     65.6880   8.0186120482e+01   4.1571938621e+01    0.1549628    0.1182302  12.30 0.0002911009    1.597    0.374
       212  -9.3092    135.4578     65.4549   8.0914767868e+01   4.2372888624e+01    0.1506464    0.1460205   4.02 3.211756e-05    1.002    0.002
       213  -9.6346    153.9818     63.5290   7.5929169022e+01   3.8260579432e+01    0.2223195    0.1199676  33.59 0.0005828573    2.409    0.585
       214 -11.2392     83.9627     61.7660   9.4638151034e+01   5.3602661400e+01    0.4388281    0.3254327  21.98  0.001953217    1.504    0.335
       215 -10.7582     86.5459     56.5072   9.1991878544e+01   5.4167304513e+01     0.297736    0.2449239 -17.27 0.0008708287    1.201    0.167
       216 -11.2864     87.1891     52.6205   9.0405020357e+01   5.4776002195e+01    0.3760273    0.2528478 -47.65  0.001432476    1.548    0.354
       217 -11.4050     58.0832     61.4168   1.0354983183e+02   5.7567975886e+01     0.496162    0.1800913 -45.56  0.001407467    2.385    0.581
       218 -11.7520     63.3646     60.1097   1.0122490404e+02   5.7126830745e+01    0.4703513    0.2487005  30.79  0.002227506    2.136    0.532
       219 -10.4428      6.9977     41.2388   1.1822607267e+02   6.6417885421e+01    0.2482714    0.1179229 -56.39 0.0008132793    1.558    0.358
       220 -12.2344      5.1306     52.2457   1.2164565529e+02   6.4229897534e+01    0.6190619    0.2496934 -66.58  0.001995247    2.028    0.507
       221 -10.6253     11.0824     62.6581   1.2154063818e+02   6.1676271434e+01    0.2094837    0.1591427 -69.44  0.000397285    1.174    0.148
       222 -10.1224      8.0000     59.9954   1.2216069431e+02   6.2425867079e+01    0.2363853    0.1344434 -66.36 0.0008715334    1.420    0.296
       223  -9.6086    201.2023     61.8545   6.6460562825e+01   2.6690088030e+01    0.1956565    0.1708455  12.59 0.0003820678    1.286    0.223
       224 -10.8842     45.3645     50.4324   1.0489632645e+02   6.1352330324e+01    0.5371736    0.1605693 -43.19  0.002046581    2.935    0.659
       225 -11.6149     29.8674     60.8528   1.1398487449e+02   6.0717961897e+01    0.5872711    0.2668553  10.49  0.002555751    3.356    0.702
       226 -12.2903    233.1567    246.9515   1.0055007803e+02  -6.7823234014e+00    0.4388455    0.3204458  17.26  0.003242128    1.065    0.061
       227  -9.8739     43.7183     57.3136   1.0768131611e+02   6.0128137557e+01    0.1509882    0.1302888  48.46 0.0001800012    1.457    0.313
       228 -11.0807    128.7684     57.0121   7.9799944666e+01   4.5388922518e+01    0.4653939    0.3121611  -7.52  0.001275515    1.981    0.495
       229 -11.1934    123.2147     56.6678   8.1132500883e+01   4.6712307889e+01    0.6041797    0.3294595 -57.96  0.002167809    3.006    0.667
       230 -11.9826    128.0735     50.9598   7.7888303097e+01   4.6554032763e+01     0.669422    0.4048763  -1.47  0.001983378    2.727    0.633
       231 -10.1632    114.5349     57.4065   8.3760749612e+01   4.8493675129e+01    0.2602376    0.2001436  42.95 2.617689e-05    1.309    0.236
       232 -10.3561    117.5963     54.8127   8.2007017167e+01   4.8280293586e+01    0.2970904    0.2319358  -3.48 0.0003759061    1.447    0.309
       233 -11.2274    101.1581     56.0067   8.7185143820e+01   5.1512228182e+01    0.5571532    0.2137192  46.98  0.002045629    2.726    0.633
       234 -10.6904     75.2222     56.0371   9.5665785141e+01   5.6165928776e+01     0.204008    0.1901219   2.95 0.0003283827    1.101    0.092
       235 -10.0026     62.1667     54.5181   9.9829177632e+01   5.8416537280e+01    0.2520995      0.21416 -72.50  0.001481869    1.514    0.339
       236 -10.7931     12.6133     51.6627   1.1849100997e+02   6.3934166320e+01    0.2892421    0.1608208 -61.54 0.0009763913    1.452    0.311
       237  -9.2673    157.3711     52.3058   7.1601361695e+01   3.9218419757e+01     0.163325    0.1124422  26.36  0.000703321    1.759    0.431
       238  -9.5490    179.4851     50.7973   6.6890665481e+01   3.3817700875e+01    0.1954127    0.1464749  -8.59 0.0003394006    1.566    0.362
       239 -10.5883     69.7930     50.5014   9.5652407682e+01   5.8077415545e+01    0.3354326    0.2537541 -61.58  0.001493769    1.676    0.403
       240 -10.0415     51.8476     50.1638   1.0226707419e+02   6.0636689392e+01    0.2638764    0.1824341 -23.39  0.001471033    1.483    0.326
       241 -10.6033    113.8684     48.7546   8.0881826896e+01   5.0116384004e+01    0.3564925    0.2262686 -49.33   0.00101709    1.834    0.455
       242 -10.8482     81.5572     50.1402   9.1394315544e+01   5.6223691627e+01    0.2382421    0.1993065  41.37  0.000302245    1.316    0.240
       243 -10.3575     77.0086     50.5473   9.3108844834e+01   5.6917521872e+01    0.1916758    0.1336537  36.38  0.000408662    1.521    0.343
       244 -10.4911    104.0389     46.8889   8.3023520743e+01   5.2514993912e+01    0.4147816    0.2060277 -40.10  0.001745733    1.999    0.500
       245  -9.6525     95.0596     48.5492   8.6383739616e+01   5.4031479627e+01    0.3289322    0.1868135  -1.33  0.001089769    3.941    0.746
       246 -11.2115    152.7462     47.9102   7.1127552043e+01   4.1044858029e+01    0.4271567    0.2871925  62.99  0.001460811    1.542    0.352
       247 -10.8173     61.1263     47.3182   9.7715911355e+01   5.9957770657e+01     0.325801    0.2621589 -26.07  0.001291357    1.108    0.097
       248  -9.1131     25.6760     48.2952   1.1222575580e+02   6.3703142940e+01    0.1094168    0.0920279  82.49 0.0007020499    1.621    0.383
       249 -11.2838     11.5256     44.2831   1.1707313922e+02   6.5534198393e+01    0.4266929    0.1939936 -42.35  0.001537833    1.801    0.445
       250 -10.6731    142.5890     45.6433   7.2570893736e+01   4.3906321776e+01    0.3425623    0.2567402 -76.67 0.0009320954    1.814    0.449
       251 -10.6933    121.8430     43.4034   7.6788413647e+01   4.9183826358e+01    0.4339733    0.3059254 -24.79  0.002119843    1.444    0.307
       252  -9.5329     18.6481     46.2664   1.1458720325e+02   6.4657066417e+01    0.1053751   0.08892918  73.32 0.0006987334    1.623    0.384
       253  -9.1119    233.3095     45.3010   5.7571156133e+01   2.1225471131e+01    0.1344855    0.1054409  25.58 0.0003692476    1.602    0.376
       254 -10.1382    163.9519     45.2799   6.8016854398e+01   3.8590134232e+01    0.2058763    0.1879691  49.01 0.0002211342    1.070    0.065
       255 -11.8720     88.5961     40.8174   8.5523014574e+01   5.6576182826e+01    0.6003222      0.33828 -17.79  0.002512099    2.282    0.562
       256 -10.2298     51.0945     44.9843   1.0077036755e+02   6.1738300235e+01    0.2315124    0.1606999 -32.62 0.0004335468    1.275    0.216
       257 -11.4311     52.2055     41.1040   9.8917374460e+01   6.2329584550e+01    0.4116634    0.1887086 -45.89  0.001934548    1.938    0.484
       258  -9.5070      1.5076     44.5037   1.2139432699e+02   6.6023622447e+01    0.1172884   0.08479074 -50.96 7.497912e-05    1.050    0.047
       259  -9.9881    110.4174     41.8457   7.9295903206e+01   5.1976007365e+01    0.2379205     0.195789  62.46 0.0005610149    1.405    0.288
       260 -10.4755     67.0058     40.9873   9.3145213663e+01   6.0252564296e+01    0.3780774    0.2297394  -1.71  0.001685617    2.493    0.599
       261 -10.9793     70.1213     35.9978   9.0019512631e+01   6.0621661329e+01    0.3417671    0.2261504 -18.60  0.001786291    1.570    0.363
       262 -11.7275     20.8157     37.7874   1.1111166359e+02   6.6202589909e+01    0.3104537    0.1853666 -48.05 0.0004805262    1.308    0.236
       263 -12.7946     26.1201     36.4036   1.0829148677e+02   6.6037603766e+01    0.5885218    0.3709009 -42.94   0.00221616    1.258    0.205
       264 -10.3227    225.8281     40.1814   5.7136294763e+01   2.3661075994e+01    0.2769367     0.188524 -56.96  0.001398958    1.492    0.330
       265  -9.4196    220.4215     41.5361   5.8150111835e+01   2.4791250458e+01    0.1387457    0.1299818 -56.64 8.919636e-05    1.012    0.012
       266 -11.7878    224.7874    247.0990   1.0195206120e+02  -5.6028954607e+00     0.391491    0.1816348 -25.32  0.002197204    2.641    0.621
       267 -11.2675     98.0122     31.9635   7.9042771401e+01   5.6093051345e+01    0.3645931    0.2835189  25.53 0.0004622722    1.260    0.206
       268 -10.9698     97.3254     40.9349   8.2799651379e+01   5.4858091315e+01    0.4054628    0.2256848  50.95   0.00127422    1.939    0.484
       269 -11.7534    101.5057     36.9312   7.9978536481e+01   5.4629441629e+01    0.4956684    0.3042455  35.53 0.0005810842    1.668    0.400
       270 -12.0786     97.1336     36.9779   8.1313316991e+01   5.5520406527e+01    0.2862273    0.2787734 -40.49  0.000310405    1.206    0.171
       271 -11.8467     80.1587     36.8848   8.6799135263e+01   5.8767252897e+01    0.4776855    0.4191353 -70.58  0.002776174    1.600    0.375
       272 -10.5636     77.5178     33.4841   8.6334158967e+01   5.9783004344e+01     0.424579    0.2174286 -18.56  0.001721557    2.679    0.627
       273  -9.1465    188.2465     39.3509   6.1994062489e+01   3.3155935199e+01     0.144723     0.111156  19.33 0.0002380326    1.585    0.369
       274 -10.8831     47.2617     57.4699   1.0637329116e+02   5.9702947467e+01    0.3396895    0.2724218  78.55  0.001451649    1.824    0.452
       275  -9.3062     61.7959     37.9499   9.3936549976e+01   6.1574906563e+01    0.1684345    0.0933378 -39.19 0.0002908129    1.620    0.383
       276  -9.8170    182.5338     37.5277   6.2338662943e+01   3.4866054656e+01    0.1469616    0.1378109 -75.13 1.247631e-05    1.072    0.067
       277  -9.3778    127.4682     36.4461   7.2824986434e+01   4.8895374260e+01    0.1447082    0.1368095  23.95  7.64518e-05    1.012    0.012
       278 -10.4234     85.0865     34.9052   8.4329348016e+01   5.8187452447e+01    0.1882047    0.1847154  22.11 0.0004687176    1.223    0.182
       279 -11.1543      5.7174     31.4322   1.1605527069e+02   6.8449513128e+01    0.5007333    0.1703957 -37.74  0.002305173    2.602    0.616
       280 -10.9663     10.9258     34.3700   1.1452062589e+02   6.7566366191e+01    0.3456854    0.2051142  -1.22  0.001465618    2.008    0.502
       281 -10.9578     18.2424     31.8910   1.1033752662e+02   6.7545112513e+01    0.3487344     0.250133 -44.89  0.002340465    1.107    0.097
       282 -10.2411    139.9792     34.0271   6.9084502740e+01   4.6192943732e+01    0.2131523    0.2076882  45.79 0.0003190785    1.050    0.047
       283  -9.6675    206.7906     33.4310   5.7672067442e+01   2.9193798335e+01    0.2073408    0.1211834  53.65  0.000946644    1.723    0.420
       284 -10.2803    129.8701     32.6543   7.0856590734e+01   4.8842862360e+01    0.2007852    0.1836479  46.41 0.0008152405    1.071    0.066
       285 -10.1867    124.1354     33.0090   7.2357609708e+01   5.0158672554e+01     0.253482    0.1952542  49.41 0.0007537982    1.251    0.201
       286  -9.5016     64.5593     33.3797   9.1037562694e+01   6.1942073538e+01     0.237735    0.1151134  52.80 0.0009273189    3.470    0.712
       287  -9.4708    145.1422     32.1701   6.7340754940e+01   4.5150424202e+01     0.191353    0.1697714 -75.94  0.000275542    1.280    0.219
       288  -9.8959    177.6347     31.3330   6.1209136921e+01   3.6920970618e+01     0.239416     0.164442 -65.22  0.001109919    1.720    0.419
       289  -9.7032     90.0471     31.5302   8.1331929593e+01   5.7757015623e+01    0.1934017    0.1307334  43.46 0.0004179386    1.485    0.327
       290  -9.9308     73.7770     31.3587   8.6779344847e+01   6.0768865785e+01    0.2157876    0.1574442  24.62 0.0001481712    1.381    0.276
       291 -10.8865     50.1105     29.2171   9.5089414016e+01   6.4720859155e+01    0.4038542    0.2044847 -32.63  0.001392458    1.820    0.450
       292  -9.5970     42.9245     31.5643   9.9102377102e+01   6.5215231044e+01    0.1700393    0.1176877  23.81  0.001015074    1.563    0.360
       293  -9.7499    139.9354     28.8174   6.7231615127e+01   4.6878265301e+01    0.3866287    0.1992325 -12.39  0.001498305    2.563    0.610
       294  -9.8376     82.8145     30.1991   8.3148418919e+01   5.9335190020e+01    0.3398883    0.2298371 -66.69  0.001474213    3.024    0.669
       295  -9.8139     80.4431     26.4414   8.2354398380e+01   6.0330338545e+01     0.245645    0.1864642  -7.20   0.00115751    1.277    0.217
       296  -9.2940    162.9939     28.9613   6.2874165624e+01   4.1001797078e+01    0.1693011    0.1660649 -12.29 0.0003828905    1.063    0.059
       297 -11.2787     70.5088     26.1383   8.5735522340e+01   6.2131795705e+01    0.4797061    0.3221072  31.06  0.002650378    1.492    0.330
       298 -11.1401    214.6860     27.3620   5.5047128863e+01   2.7961708302e+01    0.2317888    0.2273729  73.08 0.0002324793    1.101    0.092
       299  -9.7847     21.3695     28.0812   1.0752303331e+02   6.8017953494e+01    0.2221195    0.1008605 -57.78  0.001093057    2.283    0.562
       300 -10.5168     10.1306     25.1934   1.1191460375e+02   6.9385900699e+01    0.2731766    0.1704243 -32.67  0.000808489    1.340    0.254
       301 -11.2299      2.0131     24.0971   1.1557190587e+02   7.0065012562e+01    0.4781383     0.156204 -54.63  0.002420152    2.131    0.531
       302 -10.2844    181.2033    248.2311   1.0952286252e+02   7.7806193548e-01    0.2136875   0.08637686 -34.67  0.001036798    3.561    0.719
       303 -10.5009    147.6308    245.2227   1.1504519417e+02   6.3331994302e+00    0.1381643    0.1077406 -32.94 0.0009548833    1.741    0.426
       304 -11.0537     87.8464     25.4469   7.9484467639e+01   5.9064619075e+01    0.4326952    0.2981746 -52.44  0.002175092    2.002    0.500
       305 -10.7305     84.5916     21.2445   7.8711639174e+01   6.0271476432e+01    0.3519256    0.2069534   7.51  0.001569517    2.315    0.568
       306 -12.1587     74.2617    238.3644   1.2733701019e+02   1.7955768069e+01    0.4968469    0.3414722 -70.80  0.003563628    1.631    0.387
       307 -10.1686    109.7060    243.2072   1.2154740272e+02   1.2301457329e+01    0.2018767    0.1393728  60.85 0.0008510705    1.274    0.215
       308  -9.3678     63.4610    243.5447   1.2956152875e+02   1.8472155425e+01    0.1059879    0.0800756  61.42 9.382292e-05    1.058    0.055
       309 -11.2856     37.3429    242.7018   1.3381495090e+02   2.1668393237e+01    0.2520169    0.1267211  46.58  0.001715493    1.559    0.358
       310 -11.3729     35.6840    239.6720   1.3392002024e+02   2.2355015555e+01    0.3223306    0.1969633 -45.49  0.001958662    3.398    0.706
       311 -10.1237     16.6197     26.9471   1.0937624255e+02   6.8603754582e+01    0.1653791    0.1115824 -45.05 0.0003184114    1.172    0.147
       312 -11.4756    129.6251     24.2003   6.7760902408e+01   4.9978931970e+01    0.4558067    0.3216145 -67.86  0.002143098    1.997    0.499
       313 -10.6180    129.3741     19.2256   6.5936083780e+01   5.0620434333e+01    0.2476539    0.1375847 -29.38 0.0006010907    1.845    0.458
       314  -9.7963    112.0429     24.9727   7.2292141608e+01   5.4008823983e+01    0.1708576    0.1561691  11.15 0.0007013188    1.028    0.028
       315  -9.5726    153.6900     28.7067   6.4466933948e+01   4.3422460564e+01    0.1513163     0.105045  31.47 0.0002310626    1.588    0.370
       316 -10.4028    173.9281     24.0760   5.9514051712e+01   3.8750122954e+01    0.2127942    0.1978786  73.82 0.0003534546    1.030    0.029
       317 -10.2654     93.9129     24.1655   7.7051066901e+01   5.8024939887e+01    0.1982576    0.1834448 -40.23 0.0005982893    1.276    0.216
       318  -9.6769     34.9912     22.8079   9.9027475004e+01   6.7647418407e+01    0.2044057    0.1198938  -7.94  0.001072794    2.105    0.525
       319 -10.9532    156.4321    241.2948   1.1301082790e+02   5.5185006017e+00    0.1791798     0.114983 -42.04  0.001124191    2.014    0.503
       320  -9.8893    134.7807     22.4224   6.5983625553e+01   4.8929320368e+01    0.2090036    0.1204997  48.75 0.0007848581    1.601    0.375
       321  -9.9464    120.4406     21.3614   6.8777431185e+01   5.2513558743e+01    0.2357304    0.1381418 -18.61 0.0006849546    1.828    0.453
       322 -10.4384     88.8648    241.2424   1.2502886837e+02   1.5540324665e+01     0.178108    0.1400049 -36.37  0.001226471    2.126    0.530
       323 -10.1619    162.0170     20.0411   6.0094318685e+01   4.2291840724e+01    0.2116542    0.1988039  63.58 0.0003315069    1.010    0.010
       324  -9.3319     48.7007     20.3518   9.1817934782e+01   6.6356940264e+01    0.1329688    0.1054651 -12.20 0.0008439014    1.062    0.058
       325 -10.2439     45.5231     20.5191   9.3271980295e+01   6.6755179557e+01    0.2140131    0.1172937  35.69 0.0008213565    1.992    0.498
       326  -9.1069    151.3036     18.7195   6.1467659073e+01   4.5191446545e+01    0.1406911    0.1074924 -68.10 0.0002989991    1.551    0.355
       327 -11.1561    107.9444     17.1583   7.0171100600e+01   5.5879829594e+01    0.3065532    0.2065412  51.86 0.0004517002    1.416    0.294
       328  -9.6601     46.8258    241.4120   1.3219387010e+02   2.0812855639e+01    0.1274489   0.08699857  39.34 0.0002992046    1.565    0.361
       329 -10.1284    217.5589     16.4863   5.1839085096e+01   2.8491010236e+01    0.2370587    0.1066505  58.37 0.0008888135    2.155    0.536
       330  -9.3861     50.3210    240.3101   1.3154713160e+02   2.0589963169e+01   0.08360832   0.08327221  72.93 0.0004419325    1.647    0.393
       331 -10.4831    195.7518    238.2412   1.0563149777e+02  -2.3759642224e-01    0.2328703    0.1634526  23.63  0.001534647    1.253    0.202
       332 -10.8692     31.6489    237.4988   1.3446076326e+02   2.3157498513e+01    0.2339749    0.1440491  73.57  0.001282953    1.262    0.208
       333  -9.9861     30.6574     12.9962   9.6669724040e+01   6.9734176084e+01    0.1722298    0.1181692 -30.31 0.0004695519    1.186    0.157
       334 -10.5186     29.1805    232.9005   1.3462304994e+02   2.4203759334e+01    0.2411149    0.1258142  62.97  0.001097289    1.460    0.315
       335 -10.3202    159.9241    235.8901   1.1170387701e+02   5.7245259786e+00    0.1837996     0.138897  27.10 0.0006999521    1.283    0.221
       336  -9.4125    231.3147    235.3140   9.9098827827e+01  -5.2950825964e+00    0.1187429   0.07115999  14.00 0.0003818265    1.641    0.391
       337 -10.3390    177.5803    234.9494   1.0839412718e+02   3.0458456043e+00    0.2313158    0.1376129  29.42 0.0009759419    1.549    0.354
       338  -9.7030    248.3238     11.7247   4.7907448490e+01   2.1775558109e+01    0.1337986   0.08093966 -61.95 0.0001910229    1.581    0.367
       339 -11.2762    153.4169    234.2731   1.1268049178e+02   6.9876174150e+00    0.2320751    0.1905761  -8.40 0.0009624629    1.610    0.379
       340  -9.4897    115.4931    244.4889   1.2065220336e+02   1.1265170141e+01    0.1140945   0.08834391  50.22 0.0008103391    1.032    0.031
       341 -10.0070    167.0111    233.7242   1.1013579811e+02   4.8992852670e+00    0.1713433    0.1326872  39.11   0.00102641    1.029    0.028
       342  -9.8523     24.0650    232.3063   1.3543174667e+02   2.4839019032e+01    0.1428546   0.09989633  65.21 0.0006328788    1.043    0.041
       343 -10.0032     79.9068    231.4921   1.2578233301e+02   1.8365856539e+01    0.1677087   0.08924181  44.83 0.0004533986    1.525    0.344
       344  -9.4458     58.3176    230.2975   1.2951062805e+02   2.1336233251e+01   0.08784357   0.08663385   4.83 0.0003676522    1.612    0.380
       345 -10.1986    190.5878    226.9052   1.0490390092e+02   2.0279207460e+00    0.2812372     0.118001 -43.83  0.001362533    2.994    0.666
       346  -9.5056    249.2977    227.3138   9.4856130255e+01  -7.0447587893e+00    0.1177269   0.06986758  11.23 0.0003527078    1.605    0.377
       347 -10.1669    129.5857    226.8435   1.1617338696e+02   1.1885722153e+01    0.2681732    0.1251752  53.07  0.001331274    2.058    0.514
       348 -10.2116     87.6079    227.2026   1.2400688579e+02   1.8050540529e+01     0.141875    0.1026991 -59.61  0.000951551    1.677    0.404
       349 -10.3534     66.4615    226.5441   1.2778530680e+02   2.0976284528e+01    0.2703709    0.1087946  49.11 0.0009868325    1.948    0.487
       350 -10.2008    120.4521    226.4770   1.1784001083e+02   1.3361592490e+01    0.1197339   0.09691913  51.57 0.0002885057    1.012    0.012
       351 -10.7431    115.9787    225.7830   1.1859933234e+02   1.4159518227e+01    0.1704277    0.1181665  76.34 0.0006085327    1.646    0.392
       352  -9.8273    181.0000    224.9044   1.0635147008e+02   3.8595489920e+00    0.1693931    0.0705117 -42.56 0.0007996016    2.923    0.658
