#   1 NUMBER                 Running object number                                     
#   2 MAG_AUTO               Kron-like elliptical aperture magnitude                    [mag]
#   3 X_IMAGE                Object position along x                                    [pixel]
#   4 Y_IMAGE                Object position along y                                    [pixel]
#   5 X_WORLD                Barycenter position along world x axis                     [deg]
#   6 Y_WORLD                Barycenter position along world y axis                     [deg]
#   7 A_WORLD                Profile RMS along major axis (world units)                 [deg]
#   8 B_WORLD                Profile RMS along minor axis (world units)                 [deg]
#   9 THETA_WORLD            Position angle (CCW/world-x)                               [deg]
#  10 FWHM_WORLD             FWHM assuming a gaussian core                              [deg]
#  11 ELONGATION             A_IMAGE/B_IMAGE                                           
#  12 ELLIPTICITY            1 - B_IMAGE/A_IMAGE                                       
         1 -14.0864    187.3920     21.2916   7.1989237079e+01   3.5379893270e+01     2.285549     1.409701  -5.44  0.007570913    1.874    0.466
         2 -13.9428    193.2853     15.7218   6.9386018108e+01   3.4420343629e+01     1.925336     1.255816 -38.67  0.005545482    1.501    0.334
         3 -13.9541    199.9764      8.3645   6.6226704944e+01   3.3387312584e+01     1.761955    0.8082929  55.07  0.001436907    2.101    0.524
         4 -11.6060     32.6879      5.2505   1.0651016915e+02   7.0675717088e+01    0.4553551    0.1321302 -46.46  0.001860614    2.962    0.662
         5 -13.9472      9.7068    207.4041   1.4520530245e+02   3.2818003041e+01    0.8243669    0.6169839  65.20  0.002950624    1.200    0.166
         6 -10.7818    162.6366    249.4868   1.2448877615e+02   8.2734018167e+00    0.2030549    0.1257584  51.94  0.001541215    1.324    0.245
         7 -11.9409    140.7290    250.1031   1.2777984414e+02   1.1252180558e+01    0.4236171     0.145858  46.45  0.002468974    2.037    0.509
         8 -12.1127    126.3915    249.9357   1.2988642032e+02   1.3217516836e+01    0.4553147    0.1551382  45.71  0.002678485    2.039    0.510
         9 -11.8376    128.8519    244.5180   1.2905752516e+02   1.3520133659e+01    0.2048403    0.1809734 -83.37  0.001880083    1.448    0.310
        10 -12.1878    107.9716    248.9719   1.3253660021e+02   1.5762533309e+01    0.4751847    0.1991435  60.02  0.002854122    2.426    0.588
        11 -11.3841     98.8139    249.9716   1.3396024175e+02   1.6810662941e+01     0.333754    0.1702853  50.59  0.002034112    1.355    0.262
        12 -11.3730    101.8871    247.0952   1.3329925160e+02   1.6778111237e+01    0.2545605    0.1567193  69.35  0.001193756    1.560    0.359
        13 -12.6978     79.8579    247.2270   1.3656346872e+02   1.9498451863e+01    0.7437222    0.2205729  48.41  0.004400169    2.241    0.554
        14 -13.3521     66.1461    246.4387   1.3852282817e+02   2.1216009495e+01    0.8090683    0.4638931  40.59   0.00517753    1.658    0.397
        15 -13.6648     33.2617    246.2063   1.4323096711e+02   2.4810235895e+01     1.272974     0.393142  43.04   0.00832038    2.302    0.566
        16 -15.9558     12.0099    236.5226   1.4588357027e+02   2.8224552817e+01     16.65762     1.379646 -79.61     0.024446   14.266    0.930
        17 -13.5016     51.6192    230.6115   1.3980745784e+02   2.5052600735e+01    0.6657832    0.3425294  82.62  0.002512129    1.883    0.469
        18 -16.1794     51.2642    207.8764   1.3852440454e+02   2.8533560722e+01     10.17856     3.806878  69.82   0.05192016    3.227    0.690
        19 -11.2356     37.8186    231.4960   1.4193040175e+02   2.6409160487e+01    0.2031845    0.1160675  59.17 0.0009985896    1.190    0.159
        20 -11.8742     73.5018    195.7634   1.3383768676e+02   2.7835185651e+01    0.3043102    0.2362021 -56.61  0.001744863    1.741    0.426
        21 -11.8742     77.8804    188.6990   1.3243162674e+02   2.8446867770e+01    0.2304362    0.2073781 -57.68 0.0008488127    1.554    0.356
        22  -9.3127    113.1472    193.1897   1.2655274652e+02   2.2789599025e+01    0.2191539    0.1236818  27.85  0.001127246    2.781    0.640
        23  -9.8620    120.0400    188.4019   1.2476004291e+02   2.2499636280e+01    0.2877548    0.1705896  27.70  0.001417982    2.479    0.597
        24  -9.2973    125.8860    186.3849   1.2345501836e+02   2.1909202772e+01    0.2880414   0.09770776  40.95   0.00127475    2.698    0.629
        25 -11.1913     85.9269    176.6034   1.2973322121e+02   2.9444131555e+01    0.2015464    0.1711152  75.08 0.0003854642    1.094    0.086
        26 -13.3480     73.8515    174.1597   1.3178127122e+02   3.1490581982e+01    0.3632812    0.2519231 -45.19  0.001728491    2.173    0.540
        27 -13.4896     43.2769    129.4743   1.3343446843e+02   4.3796594733e+01    0.6153081    0.3667272  75.22  0.003698906    1.631    0.387
        28 -13.3791     57.6435    130.7191   1.3026768161e+02   4.1903184907e+01     1.852828    0.5651483 -76.06  0.005672795    6.007    0.834
        29  -9.3687    105.8301    147.0016   1.2191685471e+02   3.1880890416e+01     0.271663    0.1628221 -39.06  0.001365725    2.427    0.588
        30 -12.2322     92.4306    150.6122   1.2526316310e+02   3.3257504778e+01    0.2298392    0.2159021  54.03 0.0004578372    1.253    0.202
        31 -12.0626     46.0000    148.9646   1.3487737460e+02   3.9583210667e+01    0.3824916    0.1617609 -65.42  0.002090811    2.158    0.537
        32 -10.4173    138.4073    172.5383   1.1926955883e+02   2.2063358088e+01     0.262863    0.1557155  60.25   0.00142894    1.767    0.434
        33  -9.9953    134.3095    147.3315   1.1607108199e+02   2.7006002734e+01    0.4763067    0.1178157 -52.07  0.001547283    4.793    0.791
        34  -8.7149    192.1528    144.1765   1.0439357373e+02   1.6534171841e+01    0.1616753    0.1518099  80.74 0.0003848696    1.278    0.217
        35 -10.1415    113.0273    136.4760   1.1866680921e+02   3.2695827926e+01    0.2795452    0.2367424 -10.85  0.001005552    1.725    0.420
        36 -11.1770     70.2134    134.9918   1.2796117771e+02   3.9443847720e+01    0.3087786    0.1519387  45.93  0.001326939    1.939    0.484
        37 -13.3732     67.6479    144.8653   1.2980198958e+02   3.7804737909e+01     1.064793    0.5513217  81.99  0.005216778    2.519    0.603
        38 -10.7765    100.6892    133.7569   1.2091931967e+02   3.5246710827e+01    0.2355929    0.2184385 -32.61 0.0008311052    1.382    0.276
        39 -11.5706     50.3474    130.0461   1.3186832647e+02   4.2896985225e+01    0.3872641    0.2019072  53.91  0.001506682    1.854    0.461
        40 -13.2459     90.0622    166.8406   1.2782747124e+02   3.0598258505e+01     2.824229    0.4915803  49.30  0.002680754    5.910    0.831
        41  -9.5789    229.7010    230.0015   1.1236614740e+02   4.3387764315e-01    0.1373886     0.106365  24.14 0.0005735059    1.114    0.102
        42  -9.5969    109.1264    123.7697   1.1725016192e+02   3.5825833955e+01     0.185817    0.1602216  75.92 0.0003468877    1.106    0.096
        43 -11.0203    168.2615    113.5090   1.0230138239e+02   2.6240672393e+01    0.3784611    0.3010352 -80.03  0.001281776    1.646    0.392
        44 -11.1660    174.5072    222.4954   1.1972368696e+02   9.4529579505e+00    0.2056738    0.1523376  56.09  0.001526735    1.342    0.255
        45 -10.3939    103.5581    151.0911   1.2300462883e+02   3.1474135285e+01    0.2520511    0.2266485 -72.54 0.0008971459    1.191    0.160
        46  -8.9873    205.0115    110.3279   9.4707366039e+01   1.8788182077e+01     0.243578   0.08581221  36.28 0.0007051675    4.384    0.772
        47  -9.3603    154.2973     75.6875   9.5342164126e+01   3.5870397737e+01    0.1489516    0.1159173 -71.42 0.0002919874    1.601    0.375
        48  -9.1474    152.6692    212.9803   1.2208627458e+02   1.3954374246e+01    0.1395283     0.118241  50.43 0.0003306766    1.101    0.092
        49 -10.8575    249.0966    247.7074   1.1196571159e+02  -3.6254500842e+00    0.2217929    0.1278921 -37.51  0.001611526    2.777    0.640
        50 -10.0058     30.2983    211.7942   1.4214313584e+02   3.0154281068e+01    0.1678789   0.08933335  54.81 0.0006881197    1.357    0.263
        51 -11.2621    145.4988    245.4397   1.2664204582e+02   1.1112622245e+01    0.2243457     0.145222  80.72  0.001553667    2.387    0.581
        52 -10.7590    193.3445    195.6037   1.1308013286e+02   9.5576804997e+00    0.6529722     0.345678 -62.31  0.002333248    7.125    0.860
