#   1 NUMBER                 Running object number                                     
#   2 MAG_AUTO               Kron-like elliptical aperture magnitude                    [mag]
#   3 X_IMAGE                Object position along x                                    [pixel]
#   4 Y_IMAGE                Object position along y                                    [pixel]
#   5 X_WORLD                Barycenter position along world x axis                     [deg]
#   6 Y_WORLD                Barycenter position along world y axis                     [deg]
#   7 A_WORLD                Profile RMS along major axis (world units)                 [deg]
#   8 B_WORLD                Profile RMS along minor axis (world units)                 [deg]
#   9 THETA_WORLD            Position angle (CCW/world-x)                               [deg]
#  10 FWHM_WORLD             FWHM assuming a gaussian core                              [deg]
#  11 ELONGATION             A_IMAGE/B_IMAGE                                           
#  12 ELLIPTICITY            1 - B_IMAGE/A_IMAGE                                       
         1 -16.0084    241.5668    110.8383   3.0200924716e+01  -4.2522826742e+01    0.1524775   0.07206085  60.60   0.01361436    2.255    0.557
         2 -14.8269    246.1708     67.6309   2.9747268938e+01  -4.2953829218e+01   0.09741115   0.05543292  58.46  0.009637039    1.819    0.450
         3 -15.2323    234.0790     51.1597   2.9783033224e+01  -4.3208988274e+01    0.1373561   0.09658744 -14.92   0.01476135    1.564    0.361
         4 -13.5797     44.1617     23.6633   3.2495981253e+01  -4.4722391710e+01   0.04986747   0.03860492  84.08  0.005613065    1.546    0.353
         5 -12.6081    143.9155      4.0593   3.0749253812e+01  -4.4301083021e+01   0.03579214   0.02244463 -40.50  0.003712717    1.567    0.362
         6 -13.8040    177.1562     22.0995   3.0394931312e+01  -4.3892108623e+01   0.04580287   0.03333073 -70.34  0.004868788    1.780    0.438
         7 -13.5935    156.6855     12.1150   3.0622661601e+01  -4.4132030204e+01   0.03879881     0.029504  16.19  0.003714579    1.549    0.355
         8 -14.3961    164.7906      4.3101   3.0426400856e+01  -4.4163016852e+01    0.1268871   0.04321179 -34.27  0.009953788    2.684    0.627
         9 -11.1520    227.8695     15.7597   2.9557780139e+01  -4.3626875966e+01   0.01764587   0.01304898 -42.29  0.001596945    1.344    0.256
        10 -11.4177     20.9938     14.5072   3.2786005418e+01  -4.4965713684e+01   0.01705895   0.01005125  15.23  0.001465767    2.680    0.627
        11 -12.1186     39.6156      7.9330   3.2430655878e+01  -4.4921571504e+01   0.02274087   0.01170699  49.04  0.002138652    1.962    0.490
        12 -12.5710      9.7868      5.7437   3.2889358630e+01  -4.5130348439e+01   0.02622056     0.016689 -84.17  0.002427448    2.436    0.589
        13 -11.8847      2.6922      3.1913   3.2981225072e+01  -4.5201869218e+01   0.02356889   0.01988988  -3.97  0.002814522    1.240    0.194
        14 -10.6726    223.7164      5.2065   2.9525299078e+01  -4.3766595734e+01   0.01518729  0.009653718 -88.38  0.001371783    2.562    0.610
        15 -12.1522    206.1777      3.9914   2.9783558035e+01  -4.3895397355e+01   0.02814014   0.01134889 -34.98  0.002374923    2.309    0.567
        16 -12.7319    164.4902     11.8108   3.0498651057e+01  -4.4084649506e+01   0.02418871   0.01923734 -50.92   0.00225028    1.328    0.247
        17 -11.5308     17.8632      2.8748   3.2734555091e+01  -4.5111671577e+01   0.01703662  0.008963731  76.05  0.001432872    2.759    0.638
        18 -10.9338     86.0837      3.2942   3.1651194199e+01  -4.4679623315e+01   0.01597448  0.008860569 -26.23  0.001501108    1.798    0.444
        19 -10.1247    217.9404      1.5283   2.9580349530e+01  -4.3843945336e+01   0.01015948  0.006232657 -30.66  0.001027037    1.577    0.366
        20 -10.7648    231.8291      9.6711   2.9441826407e+01  -4.3665369909e+01   0.01517717    0.0116093 -14.94  0.001709196    1.388    0.279
        21 -10.5825    101.0078    175.9307   3.2907823227e+01  -4.2712383459e+01  0.009101636  0.008769406   0.97            0    1.027    0.026
        22 -11.2614    220.5506    173.4457   3.1063147260e+01  -4.1987194773e+01    0.0172716   0.01000852  36.99  0.001645553    2.010    0.502
        23 -12.4606    244.7306    144.7260   3.0450511187e+01  -4.2139575835e+01   0.03580349    0.0235991 -16.87  0.003707654    1.667    0.400
        24 -11.7441    239.9669    143.9806   3.0515656477e+01  -4.2178453852e+01   0.01608182   0.01533831 -64.09   0.00144312    1.107    0.097
        25 -10.2060     53.6957    143.6595   3.3372796372e+01  -4.3355265016e+01  0.006882838  0.004839252  25.45 0.0005951826    1.678    0.404
        26 -11.1263     11.6791    140.1879   3.4004317838e+01  -4.3648121180e+01   0.01855149  0.009643989 -51.93  0.001621863    2.396    0.583
        27 -13.8876    246.3482    226.5298   3.1130235922e+01  -4.1250967466e+01   0.05999018     0.039837  33.68  0.006231574    1.722    0.419
        28 -11.6942    159.2416    231.5179   3.2481211012e+01  -4.1746514902e+01   0.01214719  0.009332373  60.04   0.00115962    1.348    0.258
        29 -13.7542    204.3778    220.0885   3.1703901334e+01  -4.1587228145e+01    0.0565218   0.04723584 -23.68   0.00550963    1.169    0.145
        30 -10.8707      2.6309     88.4559   3.3714253646e+01  -4.4270341031e+01   0.01519515  0.009542975 -56.59  0.001487119    1.955    0.488
        31 -10.4359    101.0000     84.4835   3.2128931952e+01  -4.3706832524e+01   0.01436534  0.003727597  59.95 0.0009396586    3.975    0.748
        32 -12.0760     39.1143     82.2511   3.3082420699e+01  -4.4115571405e+01    0.0301847   0.01353741 -43.02  0.002600487    2.307    0.566
        33 -12.1034     46.5435     79.0632   3.2937671409e+01  -4.4104612148e+01   0.03106528   0.01099592  44.06  0.002282239    3.295    0.696
        34 -10.3700    144.8862     80.7790   3.1414522485e+01  -4.3469314031e+01   0.01274209  0.008620615 -47.15  0.001344966    1.551    0.355
        35 -11.5551    231.9130     78.6189   3.0061577190e+01  -4.2930243758e+01   0.01233265  0.009907277  70.63 0.0009163127    1.373    0.272
        36 -11.5701    220.8254     77.4572   3.0219769611e+01  -4.3015139173e+01   0.01707166  0.008869313 -53.05  0.001305362    2.500    0.600
        37 -11.7858      5.1263     75.9316   3.3568371667e+01  -4.4392393817e+01    0.0166638    0.0127014 -76.86  0.001829918    1.637    0.389
        38 -11.0602      2.5239     83.0192   3.3669966427e+01  -4.4330565491e+01  0.009917947  0.006432904  59.93 0.0007232197    1.585    0.369
        39 -12.6144     13.9441     72.8290   3.3401483450e+01  -4.4372649813e+01   0.03217018   0.02165456 -63.93  0.003259423    1.918    0.479
        40 -10.4503    136.3245     70.6702   3.1458674753e+01  -4.3632930355e+01  0.006836604  0.004916684 -62.69 0.0007050185    1.701    0.412
        41 -10.7804     83.5103     68.9746   3.2268373484e+01  -4.3984706440e+01     0.010826  0.008739381 -27.99  0.001260897    1.199    0.166
        42 -10.8915     74.7714     69.1506   3.2407233753e+01  -4.4037403409e+01   0.01490118  0.009342548 -22.42  0.001516388    1.628    0.386
        43 -12.4204    226.9911     71.8448   3.0076012549e+01  -4.3034821301e+01   0.02039655   0.01596959  84.11  0.002297929    1.543    0.352
        44 -11.3165     94.9880    111.9149   3.2458902958e+01  -4.3446615034e+01   0.01669762   0.01204212 -87.20   0.00175108    1.828    0.453
        45 -11.7623    224.4829    111.4626   3.0464799184e+01  -4.2627336021e+01    0.0144349  0.009658001  62.73  0.001367938    1.595    0.373
        46 -11.5540    148.3311    110.2402   3.1617860755e+01  -4.3129305103e+01   0.02250624   0.01192833  79.15  0.001810843    3.120    0.679
        47  -9.6958    132.5026     63.5072   3.1455198869e+01  -4.3734567542e+01  0.006467808  0.006245187 -25.59  0.000810592    1.016    0.016
        48 -11.2668    143.6260    100.7962   3.1608508430e+01  -4.3261203916e+01   0.02433135  0.008514883  54.14  0.001928132    2.742    0.635
        49 -11.1268     16.5746    103.3047   3.3618085441e+01  -4.4023070868e+01   0.01557375  0.009078698 -35.71  0.001555848    1.637    0.389
        50 -10.4060    164.5607     53.2671   3.0867910102e+01  -4.3639434838e+01    0.0119198  0.006578428  63.46  0.001126204    1.984    0.496
        51 -11.4334    199.0928     51.3003   3.0318747889e+01  -4.3436695246e+01    0.0164808   0.01251574  89.96  0.001801571    1.670    0.401
        52 -11.7368     85.2181     47.5769   3.2055186691e+01  -4.4206043167e+01   0.02341431   0.01636728 -24.51  0.002550459    1.416    0.294
        53 -12.7195     81.4963     38.9731   3.2038490714e+01  -4.4322665570e+01   0.03497349   0.02185813  67.19  0.003553509    1.790    0.441
        54 -12.0669    182.9213     46.1055   3.0520927272e+01  -4.3597512160e+01   0.02560947   0.01402488 -10.65  0.002180384    2.621    0.618
        55 -10.4411     97.1631     46.8150   3.1860782744e+01  -4.4139035314e+01  0.009298537  0.007643207  16.95  0.001073741    1.339    0.253
        56 -10.4633    113.0000    100.9975   3.2084738276e+01  -4.3452416361e+01   0.01066652  0.003727537  59.86 0.0008036713    2.951    0.661
        57 -11.3815    197.0334     43.5101   3.0280684451e+01  -4.3533469850e+01   0.01019909  0.008972366  55.02 0.0009374935    1.169    0.145
        58 -11.0732      2.3724     41.4412   3.3317606258e+01  -4.4786432077e+01   0.01258008   0.01067473  47.54  0.001508196    1.199    0.166
        59 -11.3685    190.9121     36.9002   3.0315575716e+01  -4.3644101696e+01   0.02041837  0.009703981  77.12  0.001392699    4.332    0.769
        60 -11.2386     97.1762     36.3413   3.1768563438e+01  -4.4252245351e+01   0.00935631   0.00838278  40.30  0.001018399    1.139    0.122
        61 -12.0205     40.1869     28.9060   3.2605025442e+01  -4.4690118362e+01    0.0230577   0.01627078  56.11  0.002438684    1.442    0.306
        62 -11.5440    211.0509    214.9546   3.1560205877e+01  -4.1600421491e+01   0.01639101   0.01412599  10.82  0.001576426    1.239    0.193
        63 -10.6564    145.9101     28.1221   3.0933559631e+01  -4.4029802658e+01   0.02163938  0.009478274 -56.23  0.001410276    4.519    0.779
        64 -11.2690    241.4702     26.1108   2.9444263366e+01  -4.3426729323e+01   0.01329483   0.01077454 -39.09 0.0009958375    1.208    0.172
        65 -12.8038    158.1402    224.6187   3.2440417243e+01  -4.1828317755e+01   0.01659852   0.01558348 -22.24  0.001364897    1.030    0.030
        66 -14.3865    179.3352    218.4642   3.2067851426e+01  -4.1762558089e+01   0.06196195   0.02340696 -26.62  0.004883286    2.719    0.632
        67 -13.8722    156.7939    213.4636   3.2367625834e+01  -4.1957851912e+01   0.04994144   0.03766216  24.91  0.005560592    1.506    0.336
        68 -14.3717    245.0321    199.9204   3.0923023287e+01  -4.1545482943e+01   0.07728294   0.03767293  53.68  0.006956017    2.037    0.509
        69 -11.0169    187.0829     19.3731   3.0217051432e+01  -4.3856538660e+01   0.01514633   0.01115872 -34.27  0.001134089    1.307    0.235
        70 -10.5893    128.6590     18.1182   3.1113509775e+01  -4.4248253171e+01   0.01309811  0.009635467 -20.73  0.001158745    1.380    0.275
        71 -12.1988    249.4892    186.1690   3.0738337717e+01  -4.1664467301e+01   0.02942241    0.0164333  63.74  0.002558663    1.968    0.492
        72 -12.7478    142.2641    218.9901   3.2634872465e+01  -4.1988188310e+01    0.0213442   0.01629454  14.89   0.00237248    1.520    0.342
        73 -13.0171    138.1678    205.2752   3.2582871310e+01  -4.2162785882e+01   0.05013102   0.02872172 -33.65   0.00500422    1.658    0.397
        74 -11.3435    203.3508    204.9223   3.1591083304e+01  -4.1757546031e+01   0.01284328   0.01060334 -47.27 0.0008965184    1.244    0.196
        75 -10.0263    123.8920    206.1036   3.2808101102e+01  -4.2242237645e+01  0.008341075  0.007179477  21.95            0    1.230    0.187
        76 -12.1787    202.7831    196.8204   3.1530852525e+01  -4.1848614463e+01   0.01281355   0.01203965  -2.91  0.001153629    1.059    0.056
        77 -12.0757    202.5089    193.4802   3.1506576179e+01  -4.1886407035e+01   0.01482518   0.01048878 -29.46  0.001625766    1.366    0.268
        78 -13.2731    196.0344    185.1230   3.1533201898e+01  -4.2017723246e+01   0.02803462   0.01988473  57.43  0.003094756    1.445    0.308
        79 -13.0814    241.5482    217.2716   3.1123136239e+01  -4.1381254413e+01   0.02161052   0.01930892 -45.40  0.002039402    1.134    0.118
        80 -10.7523     50.5078    218.4995   3.4041412885e+01  -4.2554331643e+01   0.01196509  0.006400671 -12.77  0.001038244    2.356    0.575
        81 -13.2505    245.6280    177.2148   3.0718933541e+01  -4.1785454479e+01   0.04720622   0.02574145  52.56  0.004603597    1.834    0.455
