#   1 NUMBER                 Running object number                                     
#   2 MAG_AUTO               Kron-like elliptical aperture magnitude                    [mag]
#   3 X_IMAGE                Object position along x                                    [pixel]
#   4 Y_IMAGE                Object position along y                                    [pixel]
#   5 X_WORLD                Barycenter position along world x axis                     [deg]
#   6 Y_WORLD                Barycenter position along world y axis                     [deg]
#   7 A_WORLD                Profile RMS along major axis (world units)                 [deg]
#   8 B_WORLD                Profile RMS along minor axis (world units)                 [deg]
#   9 THETA_WORLD            Position angle (CCW/world-x)                               [deg]
#  10 FWHM_WORLD             FWHM assuming a gaussian core                              [deg]
#  11 ELONGATION             A_IMAGE/B_IMAGE                                           
#  12 ELLIPTICITY            1 - B_IMAGE/A_IMAGE                                       
         1 -13.3950    171.8535     60.2793   5.1493908222e+01   3.4178808540e+01     2.030395     1.254527  26.98  0.006495144    2.567    0.610
         2 -13.2581    187.7847     46.0743   4.5144040130e+01   3.2429104733e+01    0.9010836    0.7717083 -47.09  0.002996713    1.167    0.143
         3 -14.1867    216.6218     13.3808   3.4027197159e+01   2.9803682032e+01     2.306151     1.109485  57.62   0.01051171    2.186    0.542
         4 -11.5282     53.6250      6.4441   6.2440879489e+01   6.6855388783e+01     0.476297    0.2117096  16.87  0.001801076    4.050    0.753
         5  -9.7620    167.1000    223.3381   8.9634561019e+01   3.6812802057e+00    0.2315399    0.1987093 -58.73  0.001006228    1.470    0.320
         6 -13.1040    247.0361    245.3325   7.7995381893e+01  -1.1001741306e+01     1.284928     1.024325 -27.40    0.0093487    1.496    0.332
         7 -13.8841    248.3628    230.1654   7.5228237319e+01  -9.2263682123e+00     1.913919    0.6614838 -38.93  0.008847712    2.925    0.658
         8 -19.3304     31.0890    139.8566   1.1038057524e+02   4.2856206226e+01     19.52167     6.608066 -73.72    0.0705701    3.076    0.675
         9 -10.4383     57.2261    211.4090   1.1221057576e+02   2.2880461704e+01     0.180753    0.1654593 -71.85 0.0006223302    1.231    0.188
        10 -11.5531     61.6231    188.6156   1.0867770325e+02   2.7485796605e+01    0.2946619     0.244498 -54.23  0.001497423    1.316    0.240
        11  -8.3984     75.4492    209.0864   1.0788925157e+02   2.0963939985e+01     0.171755    0.1235095 -77.81 0.0008608517    1.415    0.293
        12 -11.6776     72.5649    187.1058   1.0582344487e+02   2.6362687187e+01    0.2479478    0.2003916  70.57 0.0004378022    1.197    0.164
        13 -10.4442    179.6642    174.1769   7.7926484711e+01   1.0723579007e+01    0.3037708    0.2431727 -71.25 0.0009216131    1.718    0.418
        14 -10.2999     35.5929    209.4876   1.1672684358e+02   2.5869141258e+01    0.1608409    0.1348312  84.24 0.0006233536    1.071    0.067
        15 -12.8447    237.7571    172.7481   6.6384390901e+01   8.4644851314e-01    0.5461591    0.3925529  15.75  0.003094823    1.498    0.332
        16 -11.7162     39.1472    206.5867   1.1571303545e+02   2.6110615299e+01    0.2659346    0.1911185  34.74   0.00162062    1.488    0.328
        17  -9.8965     87.4946    207.0001   1.0488482676e+02   1.9690509967e+01    0.1797792    0.1628074  79.89 0.0003548345    1.064    0.060
        18  -9.6236     65.2804    206.1802   1.0986200440e+02   2.2990098940e+01     0.107473   0.09582848  15.63 0.0002216518    1.406    0.289
        19 -11.1110    145.7806    170.2427   8.4825349273e+01   1.7953862628e+01     0.344655    0.2613628  59.03  0.001600177    1.527    0.345
        20 -11.2268    230.2491    166.7958   6.6484376229e+01   3.0654795415e+00     0.310021    0.2033791 -53.60  0.001542726    1.945    0.486
        21  -9.4046    186.5226    164.5062   7.4444363295e+01   1.1337941037e+01    0.2679441      0.19797 -33.16 0.0007866808    1.319    0.242
        22  -9.9804    191.6904    166.0011   7.3685076652e+01   1.0070440254e+01    0.2997576    0.2341155 -40.58 0.0006753287    1.261    0.207
        23  -9.8489    186.4931    167.5376   7.5092271857e+01   1.0748954906e+01    0.2734717    0.1989987 -19.80 0.0009937983    1.499    0.333
        24 -11.4189     63.1481    201.3787   1.0981316179e+02   2.4347681031e+01      0.18366    0.1612181 -81.80 0.0003415478    1.121    0.108
        25 -10.1028     53.6563    199.4335   1.1178095044e+02   2.5999465202e+01     0.284787    0.1692057 -38.67  0.001345439    2.547    0.607
        26  -9.3601      1.1866    163.3778   1.2076060053e+02   3.9604276649e+01    0.1209462   0.06866988 -62.52  0.000670496    1.571    0.363
        27  -9.5506    126.0559    157.3302   8.7064524133e+01   2.4604436436e+01    0.2106436    0.2015327  45.57 0.0005917997    1.044    0.042
        28 -11.1494     92.0589    153.7811   9.5399969431e+01   3.1467055554e+01    0.3332084    0.3003269  20.86 0.0003979814    1.216    0.177
        29 -12.4541     97.5895    147.9114   9.2727911395e+01   3.1981034700e+01    0.6916592    0.5639075 -36.86  0.002573411    1.310    0.236
        30 -11.8145    133.8672    145.7798   8.2569415464e+01   2.5760111095e+01     1.307305    0.3617732 -54.77  0.003134356    5.406    0.815
        31 -10.5251    112.4863    150.9331   8.9288899313e+01   2.8626619997e+01    0.3958644    0.2782159  74.70  0.001358387    1.992    0.498
        32 -10.4390    109.6911    147.9858   8.9425607241e+01   2.9838604916e+01    0.3010674    0.2310762  75.60   0.00036769    1.633    0.388
        33  -9.7014    174.5284    148.8925   7.3601533800e+01   1.6845894119e+01    0.2823398    0.2437109  84.74 0.0007453717    1.472    0.321
        34  -9.0880    179.4839    141.4985   7.0837000655e+01   1.7349281105e+01    0.1501234    0.1444344 -31.03 1.335317e-05    1.037    0.036
        35 -10.1313    152.3395    137.7129   7.6119785996e+01   2.3801992488e+01     0.359365      0.26263 -69.99 0.0007516027    1.795    0.443
        36 -12.1688     96.5009    134.8902   9.0296837402e+01   3.5340342677e+01    0.4758022    0.4494314  22.51  0.001279602    1.114    0.102
        37 -11.5441    108.7539    135.0568   8.6859132104e+01   3.3106547317e+01    0.5407432    0.3329546 -32.95  0.002213154    1.975    0.494
        38 -11.3448    105.7322    130.6559   8.6701184706e+01   3.4714286774e+01    0.4989069    0.3612884 -57.36  0.001295224    1.395    0.283
        39 -10.1765    117.9939    135.1325   8.4327774628e+01   3.1342314759e+01    0.4590353    0.3136194  76.62  0.001830362    2.310    0.567
        40  -9.4278    135.5714    135.2610   7.9706800622e+01   2.7816367036e+01     0.228141    0.1457031 -36.55 0.0009544594    1.668    0.400
        41 -10.4740    192.2608    193.9127   7.9185420566e+01   4.7369589722e+00    0.7441025    0.3830325 -62.13  0.002236108    5.683    0.824
        42 -10.0790    135.8821    128.7470   7.8058090581e+01   2.9223167386e+01     0.359252    0.1697264 -45.73  0.001324165    2.087    0.521
        43  99.0000     75.7584    246.5838   1.1170865996e+02   1.3271454640e+01    0.3955068    0.1232427 -60.39  0.001712213    3.401    0.706
        44 -10.1980    115.4632    127.4776   8.3215127938e+01   3.3626177979e+01    0.3033373    0.2649065  -7.36 0.0006262276    1.289    0.224
        45 -10.7124    135.0860    120.6527   7.6245473667e+01   3.1196416695e+01    0.7464771    0.0839068 -44.94  0.001339981    8.784    0.886
        46 -10.1057    120.8421    122.8967   8.0608778242e+01   3.3625639957e+01     0.339725    0.2755738 -53.61  0.001602173    1.243    0.196
        47 -10.4499    103.4262    122.6425   8.5465640161e+01   3.7042647405e+01    0.2937044    0.2452301 -11.78 0.0005594039    1.389    0.280
        48  -9.5141    110.6254    117.1479   8.2024781785e+01   3.6963815126e+01    0.2408025    0.2083243  51.27 0.0003141358    1.219    0.180
        49 -11.0032    134.4295    106.1691   7.2615246467e+01   3.4483055992e+01    0.5394808    0.1905862 -45.55  0.001728526    2.830    0.647
        50 -11.7944    118.6717    110.4935   7.8020256766e+01   3.6870397785e+01    0.5922201    0.4184722  68.55  0.001969907    1.950    0.487
        51  -9.9409    205.3850    110.4142   5.8405903190e+01   1.7925880437e+01    0.2646032    0.2437329  42.68 0.0008045936    1.175    0.149
        52  -9.2290     90.7540    105.1737   8.4872609449e+01   4.3405510995e+01    0.2137037    0.1997741 -74.20 0.0008154002    1.168    0.144
        53  -9.8209    165.7245    112.6395   6.6815555468e+01   2.6196315968e+01    0.4031302    0.2267983  39.13 0.0008191619    1.955    0.489
        54  -8.9211     83.3574    194.6900   1.0423086033e+02   2.3055511169e+01    0.3531268   0.09536996  39.86  0.001203709    3.217    0.689
        55 -10.2208     50.9405    246.5896   1.1655238582e+02   1.6448578424e+01    0.2963697    0.1268241 -66.82  0.001552961    2.420    0.587
        56 -11.2448     68.2163    244.8463   1.1304767172e+02   1.4600438946e+01    0.1580989    0.1281472  68.14 0.0003775286    1.082    0.076
        57 -12.6031    193.3025     40.1390   4.2868646052e+01   3.1922428568e+01     0.580023    0.4795636 -26.74  0.001622944    1.384    0.277
        58  -8.8841     90.8295    229.1453   1.0681707427e+02   1.4559436474e+01    0.1527844    0.1341181  33.66   0.00031271    1.203    0.169
        59  -9.7449     72.1145    216.3470   1.0945142437e+02   1.9851302128e+01    0.1140565   0.07474128 -59.27 0.0002391669    1.628    0.386
