#   1 NUMBER                 Running object number                                     
#   2 MAG_AUTO               Kron-like elliptical aperture magnitude                    [mag]
#   3 X_IMAGE                Object position along x                                    [pixel]
#   4 Y_IMAGE                Object position along y                                    [pixel]
#   5 X_WORLD                Barycenter position along world x axis                     [deg]
#   6 Y_WORLD                Barycenter position along world y axis                     [deg]
#   7 A_WORLD                Profile RMS along major axis (world units)                 [deg]
#   8 B_WORLD                Profile RMS along minor axis (world units)                 [deg]
#   9 THETA_WORLD            Position angle (CCW/world-x)                               [deg]
#  10 FWHM_WORLD             FWHM assuming a gaussian core                              [deg]
#  11 ELONGATION             A_IMAGE/B_IMAGE                                           
#  12 ELLIPTICITY            1 - B_IMAGE/A_IMAGE                                       
         1 -13.5898     26.7764     56.5380   8.9955306870e+01   6.3088963983e+01     1.423993     1.066555  -2.94  0.008740294    1.281    0.219
         2 -13.5441    233.3989     34.2452   3.3576042465e+01   2.4506014508e+01     1.043476    0.8391672  26.88  0.006587618    2.136    0.532
         3 -13.0994    210.9557     22.7111   3.3196994066e+01   3.0544467580e+01    0.6244396    0.4206375 -64.44   0.00386892    1.297    0.229
         4 -11.1308    238.5670     20.1735   3.0410191572e+01   2.5199505304e+01    0.3875584    0.1827946 -46.52  0.002212555    1.747    0.427
         5 -13.0355    147.8554     17.5524   3.9302227117e+01   4.5440059547e+01    0.7223693    0.5137809 -26.06  0.004221347    1.658    0.397
         6 -12.2871      4.3250      3.5625   8.0589450390e+01   7.3968262858e+01    0.4198208    0.2633961  12.48  0.002896451    1.365    0.267
         7 -11.1915    196.1842     17.0958   3.3360912800e+01   3.4385892430e+01     0.237618     0.160974 -84.36   0.00143439    1.320    0.242
         8 -12.1996    178.3176    249.4184   8.6308309513e+01  -2.9397050942e+00    0.4744489    0.3533457  18.71  0.002958058    1.145    0.127
         9 -11.7190    170.6983    249.6066   8.7886574954e+01  -1.8993935493e+00    0.4583414     0.237952  20.81  0.002220883    2.017    0.504
        10 -14.5296      5.6484    239.4607   1.2144011626e+02   2.1851093893e+01     5.257757    0.8389273 -79.58    0.0159854    6.767    0.852
        11 -14.0445     21.8257    193.1974   1.1492350557e+02   3.0622280326e+01     1.157956    0.8123266  43.46  0.003784519    1.408    0.290
        12 -13.0628      6.0125    205.9741   1.1947162864e+02   2.9089929507e+01    0.4072055    0.3187975 -72.43 0.0008187393    1.276    0.216
        13 -14.2985     12.5879    201.1029   1.1768552081e+02   2.9623887115e+01     1.013771    0.6717581  88.89  0.003362054    1.298    0.229
        14 -11.0606     49.9200    244.7979   1.1295579784e+02   1.5948179103e+01    0.2462062    0.1340365  51.79  0.001066023    1.564    0.361
        15 -10.7728     41.9582    236.3351   1.1394548964e+02   1.8656481041e+01    0.3097047    0.2785175  65.76  0.001973896    1.140    0.123
        16 -12.5102     72.0464    222.2943   1.0600366857e+02   1.7899106102e+01    0.7953728    0.4513186  43.14  0.002512059    1.570    0.363
        17 -12.1216     77.9271    231.4431   1.0567088911e+02   1.5108725554e+01    0.6071962    0.2726463  41.21  0.002060673    1.913    0.477
        18 -11.7558     77.4899    226.5264   1.0522902045e+02   1.6224822143e+01    0.3880379    0.3256469  54.12  0.001273579    1.055    0.052
        19 -11.7963    152.6585    230.9168   8.8873103018e+01   4.0209767921e+00    0.3826239      0.18492  31.31  0.001726635    1.917    0.478
        20 -12.4556     53.2063    220.2134   1.1009037123e+02   2.0816917869e+01    0.8783707    0.4739086  72.17  0.003435729    2.149    0.535
        21 -10.6811     38.8066    211.0873   1.1252338554e+02   2.4610656697e+01    0.4135474    0.1901781  58.25  0.001864012    2.243    0.554
        22 -11.0907     19.9570    225.2471   1.1775328199e+02   2.3454453443e+01    0.2643242    0.1249622  45.45  0.001305194    1.805    0.446
        23 -10.0031    200.6595    208.6810   7.5016060657e+01   6.7053881593e-01     0.141242   0.09405164  -5.23 0.0005786481    1.714    0.417
        24 -11.3663     43.6669    202.9713   1.1061841299e+02   2.5950621060e+01    0.5653969     0.321916  89.17  0.002754371    1.863    0.463
        25 -11.3375     40.3872    179.5363   1.0892784525e+02   3.2042020472e+01    0.2507405    0.2348955 -57.23 0.0005448631    1.188    0.158
        26 -11.5848     48.5891    172.9619   1.0594261306e+02   3.2753550855e+01    0.2689574    0.2288492 -57.90 0.0004237859    1.186    0.157
        27 -13.8069     24.9302    143.7842   1.0883715744e+02   4.2683238240e+01     1.337732     0.784707 -53.28   0.00673624    1.560    0.359
        28 -12.8932      2.9983    112.4762   1.1157980938e+02   5.2119839776e+01    0.7093503    0.5354548 -66.65  0.002845912    1.090    0.083
        29 -13.1070      2.7881    124.1136   1.1313925485e+02   4.9266116677e+01    0.9869145    0.4215013 -69.77  0.003321464    1.873    0.466
        30 -13.8979     18.6150    124.0377   1.0805246156e+02   4.8218020176e+01     1.805262    0.9360018  64.79  0.007638193    2.790    0.642
        31 -14.8801      5.7500    140.8370   1.1414657053e+02   4.4913737596e+01     2.693309    0.9554045 -79.88  0.008184119    2.739    0.635
        32 -14.0893     13.9860    134.4239   1.1093623961e+02   4.5949621326e+01     1.371763    0.7765957  86.61  0.005013773    1.957    0.489
        33 -10.4555     62.0101    162.9624   1.0079107938e+02   3.3618479708e+01    0.2134882    0.1995236 -77.59 0.0003421208    1.019    0.019
        34 -12.7820     46.7301    159.3999   1.0461288965e+02   3.6437052392e+01    0.5154498     0.307252 -33.06   0.00146602    2.251    0.556
        35 -11.2417     70.7819    156.5175   9.7214410494e+01   3.4063904465e+01    0.4688569    0.3543195 -21.08  0.001043509    1.689    0.408
        36 -11.8374    109.5826    143.3772   8.3420090365e+01   3.0996732075e+01    0.5984632    0.4267918 -32.96  0.002679353    1.580    0.367
        37 -11.6555     67.8223    143.3647   9.5725122559e+01   3.7865544288e+01    0.6784019    0.3954252  62.83  0.002684767    2.422    0.587
        38  -9.5910     87.5567    143.4962   8.9813961579e+01   3.4815286584e+01    0.1519148    0.1457589 -64.07 0.0001459627    1.010    0.010
        39 -11.2330     75.5486    141.1745   9.2950294513e+01   3.7297148253e+01    0.3073571    0.2545796 -56.66 0.0004998568    1.145    0.127
        40 -11.6843    159.0805    132.7115   6.8183356600e+01   2.3568767957e+01     0.869273    0.5329123 -34.52  0.003668103    1.751    0.429
        41 -12.8120    105.1448    132.4720   8.2217043690e+01   3.4479352469e+01     0.852814      0.71824 -80.40  0.002848054    1.360    0.265
        42 -11.7934    242.4999    134.5036   5.3025585137e+01   7.2218168871e+00    0.2930256     0.110059 -40.62  0.001225876    2.217    0.549
        43 -10.4221    124.7088    132.4535   7.6729195516e+01   3.0706721533e+01    0.3097906    0.1502104  45.87  0.001140591    2.145    0.534
        44 -10.7361     90.2518    128.4545   8.5725014121e+01   3.8124884751e+01    0.4961879    0.2991752  63.47  0.001164997    2.551    0.608
        45 -12.0039    121.7807    128.0296   7.6458408975e+01   3.2327037850e+01    0.7348043    0.3441746  34.87  0.002624212    2.389    0.581
        46 -11.8102    112.7777    125.4302   7.8338532797e+01   3.4716477199e+01    0.3601476    0.2795982   9.01   0.00164588    1.611    0.379
        47 -12.6970     47.0784    118.6665   9.7598445836e+01   4.6834733256e+01    0.8050244    0.5323817 -47.45  0.003998134    1.390    0.280
        48 -10.2514    102.6909    119.7669   7.9877642782e+01   3.7988913644e+01    0.3230607    0.2421958  49.70 0.0008442387    1.424    0.298
        49 -11.2348     89.8242    115.9091   8.2854265552e+01   4.1248238928e+01    0.6112854    0.4039326  37.55  0.002768885    1.555    0.357
        50 -10.7556     71.8967    117.6677   8.9054672207e+01   4.3757738392e+01    0.3730801    0.2103503  59.24  0.001393431    2.774    0.640
        51 -11.2592     20.7412    110.8467   1.0523637868e+02   5.1340741907e+01    0.5262256     0.273094 -63.89  0.002534661    1.632    0.387
        52 -10.2453    111.4902    111.5141   7.5175611183e+01   3.8194902117e+01    0.1542632    0.1501644 -19.55 0.0008103751    1.018    0.018
        53 -11.5167     50.7953    107.6010   9.3948885752e+01   4.9126049075e+01    0.5320827    0.3313304 -40.13    0.0025322    1.567    0.362
        54 -11.4269    136.7286    107.1919   6.7184869699e+01   3.3848830098e+01    0.7093931    0.4227683  67.51  0.002628968    2.581    0.613
        55 -11.1459     89.5080    107.1614   8.0714781508e+01   4.3363381778e+01    0.5469278    0.3426941  75.62   0.00187491    3.472    0.712
        56 -11.4547    126.4403    105.7825   6.9484338491e+01   3.6367615637e+01    0.5445453    0.3330246  18.22  0.001959303    2.808    0.644
        57 -10.5943     69.7003    104.1306   8.6499803393e+01   4.7354197907e+01    0.2646984    0.2031063  43.36   0.00133571    1.418    0.295
        58 -12.1830    249.3420    101.3970   4.5417943231e+01   1.1621760609e+01    0.3678828    0.2180803 -29.82  0.001914736    1.849    0.459
        59 -10.7063     51.8964     89.8762   8.9199908318e+01   5.3163965684e+01    0.2321424    0.1794046 -25.75  0.001245602    1.281    0.220
        60 -11.7610     22.1272     86.1022   9.9866175344e+01   5.7150614908e+01    0.4554554    0.3770182 -37.43   0.00187613    1.060    0.057
        61 -11.4304      7.3048     82.4127   1.0503309899e+02   5.9023676525e+01    0.3655456    0.1970387 -17.58  0.001855221    2.118    0.528
        62 -10.1575     47.1880     82.1731   8.8920547134e+01   5.5481328987e+01     0.182834    0.1699415  81.01  0.001087151    1.358    0.264
        63 -10.5035      1.5294     78.9927   1.0670774410e+02   6.0110468431e+01    0.1976134    0.1024251 -63.42  0.001034985    1.602    0.376
        64 -10.6468     25.8270     75.2040   9.5726899244e+01   5.9287580877e+01    0.3059534    0.1512008   6.79  0.001368184    2.546    0.607
        65 -11.1078     60.3551    249.2198   1.1116433768e+02   1.3761859393e+01    0.3157223    0.1827264  24.50  0.001610293    2.018    0.505
        66 -13.1274     27.7553     49.5088   8.7184459399e+01   6.4338628817e+01    0.8022361    0.6908095 -30.07  0.005345192    1.149    0.129
        67 -13.6273      7.2534     57.3810   9.9280832819e+01   6.4478142495e+01    0.9566991    0.6673465 -50.60  0.003853342    1.228    0.186
        68 -12.6038     15.7595     59.7858   9.5988630029e+01   6.3394691447e+01    0.5999696    0.4454272  42.60   0.00363616    1.789    0.441
        69 -13.7118    137.0184    234.6440   9.2855574738e+01   5.7231645841e+00    0.8913924    0.8336572 -48.58  0.004590327    1.215    0.177
        70 -14.3898    122.0110    235.0121   9.6230106491e+01   7.9397675114e+00     1.506743     1.025837  46.07  0.005489624    1.387    0.279
        71 -12.9256     89.6881    240.9379   1.0410937678e+02   1.1501793689e+01    0.5827301    0.4823782 -88.11  0.003050045    1.306    0.235
        72 -14.0214     97.7957    233.8330   1.0149277986e+02   1.1787194980e+01     1.476365     1.175822  51.77  0.007524314    1.151    0.131
        73 -11.2364    217.2399     32.9481   3.4789632701e+01   2.7976679041e+01    0.3167608    0.1902674  71.84  0.001823183    1.597    0.374
        74 -12.8994     25.8006    243.9340   1.1777156937e+02   1.8888913269e+01    0.7540604    0.3334261  68.86  0.003309643    2.322    0.569
