#   1 NUMBER                 Running object number                                     
#   2 MAG_AUTO               Kron-like elliptical aperture magnitude                    [mag]
#   3 X_IMAGE                Object position along x                                    [pixel]
#   4 Y_IMAGE                Object position along y                                    [pixel]
#   5 X_WORLD                Barycenter position along world x axis                     [deg]
#   6 Y_WORLD                Barycenter position along world y axis                     [deg]
#   7 A_WORLD                Profile RMS along major axis (world units)                 [deg]
#   8 B_WORLD                Profile RMS along minor axis (world units)                 [deg]
#   9 THETA_WORLD            Position angle (CCW/world-x)                               [deg]
#  10 FWHM_WORLD             FWHM assuming a gaussian core                              [deg]
#  11 ELONGATION             A_IMAGE/B_IMAGE                                           
#  12 ELLIPTICITY            1 - B_IMAGE/A_IMAGE                                       
         1 -15.0661      7.4828    132.7849   1.4179480697e+02   4.6809446500e+01     6.717136     1.259057 -73.39    0.0197166    5.777    0.827
         2 -13.5143    215.0173      8.8499   6.0994362508e+01   3.0638537227e+01     1.010144    0.7711005  70.54  0.003337393    1.218    0.179
         3 -13.5394    199.7020     27.1707   6.7091063336e+01   3.2210248276e+01     1.528996      1.33725  27.21  0.007931678    1.475    0.322
         4 -13.1323     61.6449    175.8024   1.3444343821e+02   3.1335501966e+01    0.5184219    0.2716731 -47.46  0.001708128    2.325    0.570
         5 -12.2438    240.2744    248.5299   1.0908478769e+02  -1.2797960718e+01    0.9627915    0.3544507  28.99  0.004113633    2.988    0.665
         6 -11.7386    125.6637    249.7122   1.3062049861e+02   5.9619055240e+00    0.5311018    0.1997303  40.25  0.002321439    2.378    0.579
         7  -9.8905     66.4803    250.0633   1.4136701051e+02   1.5032287525e+01    0.1837669    0.1241695  57.13 0.0005464595    1.187    0.157
         8 -11.3075     46.5078    248.7378   1.4465763520e+02   1.7946348314e+01    0.3349012    0.2621806  63.99  0.001755968    1.202    0.168
         9 -13.3350      6.2797    243.2394   1.5078043694e+02   2.3607021541e+01     1.678036    0.8382684 -86.86   0.01116107    1.582    0.368
        10 -12.5993     19.2645    240.0600   1.4855081068e+02   2.2822438965e+01    0.6032342    0.3963253 -65.37  0.003403523    1.779    0.438
        11 -12.8551     34.8370    245.7618   1.4638082465e+02   1.9950517270e+01    0.7824893    0.5872982  84.29  0.005881414    1.148    0.129
        12 -11.5339     28.8848    248.3979   1.4751984304e+02   2.0165002186e+01    0.3839855    0.3118012  89.62  0.001851111    1.329    0.248
        13 -11.5691     99.1472    248.1560   1.3536099995e+02   1.0534690803e+01     0.330157    0.2989575  20.16  0.002252975    1.621    0.383
        14 -10.4831    198.4839    247.4657   1.1654135116e+02  -6.0663431328e+00    0.2013754    0.1200968 -54.64  0.001042656    2.489    0.598
        15 -11.0464    162.3214    249.2550   1.2363682404e+02  -1.9301465721e-01    0.2806558    0.1612465  38.81  0.001505523    1.487    0.328
        16 -10.9270    138.8908    249.7446   1.2813851540e+02   3.7330526867e+00    0.2620117    0.1970224  54.48  0.001633122    1.122    0.109
        17  -9.7655    139.3060    245.3269   1.2749101440e+02   4.4119727833e+00    0.1187973   0.09749633  13.10 0.0003741462    1.651    0.394
        18 -10.1298     80.9772    249.2775   1.3875393322e+02   1.3096760631e+01    0.1754334    0.1312549  62.73  0.001173532    1.048    0.046
        19 -11.2096     50.1699    236.1162   1.4305490460e+02   1.9882583310e+01    0.2411811    0.2136627  57.13  0.000943133    1.418    0.295
        20 -13.1199     45.5527    215.2950   1.4211406664e+02   2.4681195250e+01     1.077572    0.7464586 -85.82  0.005635549    1.214    0.176
        21 -13.0080     30.0955    233.1455   1.4630341517e+02   2.2930027189e+01    0.3154804    0.2455193 -88.62 0.0007562487    1.223    0.182
        22 -14.0618     35.1186    226.8818   1.4497537417e+02   2.3580115870e+01    0.8160943    0.5362808  64.88  0.002409676    1.220    0.180
        23 -12.3754     97.3191    228.9028   1.3357122739e+02   1.4472334471e+01     1.112513    0.1413718  45.73  0.003088766    5.670    0.824
        24 -12.4081    119.3609    231.8005   1.2960619200e+02   1.0268691012e+01    0.9796658    0.1557531  41.51  0.002695865    5.489    0.818
        25  -9.3274    174.6726    223.3301   1.1729162967e+02   1.9249839395e+00    0.1348726    0.1022335  71.85 -0.0001726823    1.709    0.415
        26 -11.4932     57.6446    212.2641   1.3950775841e+02   2.3756891380e+01    0.5888845    0.2101063  58.07  0.002376442    3.134    0.681
        27  -8.8159    152.5126    213.0565   1.2013458844e+02   7.9192794113e+00    0.1811874    0.1388743 -53.80 0.0003851848    1.448    0.309
        28 -12.4022      9.8783    207.2137   1.4801778303e+02   3.0318795789e+01    0.5988445    0.4286903  34.49  0.002867489    1.841    0.457
        29 -10.9271     55.9370    205.7557   1.3917989167e+02   2.5375742456e+01     0.370986    0.1709846  52.72  0.001846619    1.997    0.499
        30 -11.7515     57.7809    199.2528   1.3811295222e+02   2.6548611610e+01     0.281467     0.223374 -79.90 0.0004757579    1.151    0.132
        31 -11.6432     36.8877    195.7013   1.4197761384e+02   2.9914708228e+01    0.9820176    0.3398524  70.20  0.002404978    9.355    0.893
        32  -9.4598    195.0137    198.5378   1.0877459582e+02   2.5054478717e+00    0.3008686    0.1612017 -67.73 0.0008095753    6.554    0.847
        33 -10.0744      8.5164    193.7281   1.4730213699e+02   3.3271942061e+01    0.2145538    0.1385892  66.80 0.0007104196    1.339    0.253
        34 -12.0019     64.4612    190.6997   1.3572086892e+02   2.7548582194e+01    0.2713234    0.2332952 -75.63 0.0004850664    1.184    0.155
        35 -10.7081    216.4348    248.9013   1.1344272887e+02  -9.1880877704e+00    0.2651457    0.1375812  26.30  0.001343918    1.951    0.487
        36 -11.9904     83.2284    168.2583   1.2831870202e+02   2.9987537916e+01    0.7388741    0.6333025 -44.71  0.004246927    1.369    0.270
        37 -10.5841     96.0429    152.6348   1.2245205131e+02   3.1615400695e+01    0.3702407    0.3083402 -45.34 0.0008419709    1.292    0.226
        38  -9.3628     99.0895    148.6422   1.2091093704e+02   3.2043589888e+01    0.2176743    0.1882945 -62.85  0.000549734    1.097    0.088
        39 -11.9959     84.5553    151.6918   1.2517733022e+02   3.3709321520e+01    0.3088179    0.2559224 -49.12 0.0006070656    1.263    0.209
        40 -12.1697     67.3641    143.5636   1.2813368902e+02   3.8168875117e+01    0.6593437    0.4263787  65.02  0.003162724    1.836    0.455
        41 -10.8475     75.3342    177.6150   1.3157888270e+02   2.8992513606e+01    0.2480817    0.2135423 -86.74 0.0003268905    1.030    0.029
        42 -10.0448    108.4815    137.6074   1.1620423816e+02   3.2976890492e+01    0.4893084    0.3215146 -18.86  0.001395591    2.721    0.632
        43 -10.5718     95.4724    134.8797   1.1904359919e+02   3.5926816773e+01     0.241144    0.2308612  16.27 0.0004277696    1.192    0.161
        44 -11.2124     26.6009    129.1143   1.3645312539e+02   4.6131207314e+01    0.3315152      0.21574  58.08  0.001348218    1.791    0.442
        45  -8.9729    106.0897    124.0739   1.1377952085e+02   3.6574642731e+01     0.202763     0.190841 -24.26  0.001105607    1.151    0.131
        46 -10.2598    158.6361     76.9280   8.7789942794e+01   3.4979433426e+01    0.2660928     0.206141  43.37  0.000583788    1.308    0.236
        47 -11.5494      2.4366     49.5652   1.2874549508e+02   6.4552185760e+01    0.3273493    0.1574733 -54.34  0.001110841    1.589    0.371
        48 -11.4293    171.9133    248.2444   1.2167292651e+02  -1.6811226647e+00    0.3198694    0.2154378  39.25  0.001870445    1.238    0.193
        49  -9.3545     95.5504    172.8932   1.2615285963e+02   2.6921802598e+01    0.2524154    0.1758914  62.65 0.0005508753    1.470    0.320
        50 -11.7325    145.8446    247.4469   1.2652282492e+02   2.9321226084e+00     0.373399    0.3110345 -32.31  0.002383483    1.588    0.370
