#   1 NUMBER                 Running object number                                     
#   2 MAG_AUTO               Kron-like elliptical aperture magnitude                    [mag]
#   3 X_IMAGE                Object position along x                                    [pixel]
#   4 Y_IMAGE                Object position along y                                    [pixel]
#   5 X_WORLD                Barycenter position along world x axis                     [deg]
#   6 Y_WORLD                Barycenter position along world y axis                     [deg]
#   7 A_WORLD                Profile RMS along major axis (world units)                 [deg]
#   8 B_WORLD                Profile RMS along minor axis (world units)                 [deg]
#   9 THETA_WORLD            Position angle (CCW/world-x)                               [deg]
#  10 FWHM_WORLD             FWHM assuming a gaussian core                              [deg]
#  11 ELONGATION             A_IMAGE/B_IMAGE                                           
#  12 ELLIPTICITY            1 - B_IMAGE/A_IMAGE                                       
         1  -8.8342    112.4799     95.4970   9.7429796284e+01   4.2048806178e+01    0.1533327    0.1513546   1.99 9.747347e-06    1.010    0.010
         2  -9.7979    115.9897    210.4975   1.2043692019e+02   1.5026889580e+01    0.2099738    0.0971693  55.18 0.0008104193    2.544    0.607
         3  -9.3829     97.3282    204.6866   1.2392676976e+02   1.9338397535e+01    0.1468126   0.09491726  65.52 0.0005863713    1.670    0.401
         4 -10.4722    139.9983    199.9965   1.1332127663e+02   1.2972845689e+01    0.2401173    0.1720736  69.46  0.001155585    1.792    0.442
         5  -9.6263    124.6648    200.3262   1.1691685038e+02   1.5649794813e+01    0.1496354    0.1040373  67.59  0.000705153    1.718    0.418
         6  -9.8212    115.4879    194.4903   1.1816256963e+02   1.8514039267e+01    0.1447448    0.1299213  56.10 0.0001388716    1.015    0.015
         7  -9.6721    102.6080    192.2162   1.2090949483e+02   2.1225614728e+01    0.1992242    0.1297782 -49.81 0.0009586503    1.711    0.415
         8 -11.6573    128.3085    189.2465   1.1424079529e+02   1.7362028865e+01    0.3170399    0.2627716  81.08  0.001421079    1.369    0.270
         9 -11.4223    140.6473    186.8876   1.1089923173e+02   1.5576622581e+01      0.31166    0.2063949  46.55  0.001473796    1.429    0.300
        10 -10.6430     93.9823    185.4320   1.2200818833e+02   2.4202333099e+01    0.4252498    0.1800512 -55.19  0.001693576    2.416    0.586
        11 -12.0412    121.7053    182.4253   1.1466394472e+02   2.0072677348e+01    0.4118177    0.3201575 -47.58  0.002109912    1.396    0.284
        12 -11.9229    137.2576    179.7349   1.1039849238e+02   1.7756544102e+01    0.4734208     0.214308  52.42  0.001692474    2.602    0.616
        13 -11.4850    153.0075    177.5547   1.0624790401e+02   1.5174950882e+01    0.3061115    0.2260196  34.59  0.001495723    1.313    0.238
        14 -11.9506    142.3548    171.9763   1.0768573895e+02   1.8464129960e+01    0.4195727    0.2999581 -86.35   0.00182525    2.065    0.516
        15 -11.5950    135.0757    171.8051   1.0942666433e+02   1.9925179789e+01    0.3788491    0.2366185 -54.82  0.001677099    1.712    0.416
        16 -10.5039    119.2547    172.7428   1.1354717233e+02   2.2722383480e+01    0.2714333    0.1900718 -60.33  0.001281231    1.513    0.339
        17  -9.5846    112.4796    173.0276   1.1531643688e+02   2.3899324337e+01    0.2274128    0.1471501 -57.67 0.0007088477    1.605    0.377
        18 -10.6369    110.9958    185.5035   1.1781338732e+02   2.1299739880e+01    0.2753761     0.205338 -41.20  0.001378616    1.576    0.365
        19 -11.4818    128.9099    168.4987   1.1031718239e+02   2.1864419765e+01    0.3948085    0.2208954 -63.09  0.001571842    2.182    0.542
        20 -12.1073    138.7351    163.9074   1.0695554493e+02   2.0970520192e+01    0.4924729    0.3290543 -55.18  0.002220516    1.596    0.374
        21 -11.9310    153.4376    163.3268   1.0326832955e+02   1.8124780443e+01    0.4723869    0.3119291  88.78  0.001732756    2.965    0.663
        22  -9.3521    114.4520    159.0001   1.1218054001e+02   2.6833844309e+01    0.2367774    0.1497939 -55.35  0.001036403    1.615    0.381
        23 -12.1040    145.6219    162.4394   1.0496270316e+02   1.9909889333e+01    0.5917715    0.3169904 -67.49  0.001978445    3.276    0.695
        24 -10.0958    164.4991    155.5020   9.8994060718e+01   1.7508270387e+01    0.1522234    0.1481725  23.41 0.0008106952    1.001    0.001
        25 -10.6092    158.8102    155.1490   1.0024145606e+02   1.8776230383e+01      0.21491    0.1854341   2.40 0.0007526749    1.315    0.239
        26  -9.3248    111.4030    153.7758   1.1195357903e+02   2.8652171290e+01    0.2192041    0.1409687 -44.47 0.0009498896    1.667    0.400
        27  -9.9144    119.4802    164.0348   1.1185082664e+02   2.4699131595e+01    0.2337317    0.1500284 -53.42  0.001035676    1.604    0.376
        28  -9.2795    104.5701    153.2151   1.1369099210e+02   3.0049411664e+01    0.2163337    0.1395564 -45.11 0.0009464551    1.661    0.398
        29  -9.4717    129.0000    152.0224   1.0693928171e+02   2.5638862455e+01    0.2580042   0.08897387 -50.54 0.0008059596    2.967    0.663
        30  -9.8021    122.5911    150.6956   1.0833369250e+02   2.7227433000e+01    0.2999823    0.1470768 -47.85  0.001134989    2.087    0.521
        31  -9.2111    117.3676    144.8251   1.0847143371e+02   2.9646321766e+01    0.2331934     0.140633 -42.45 0.0009562172    1.791    0.442
        32 -10.6796    148.2043    143.5077   1.0017877760e+02   2.3575992538e+01      0.30279    0.2256655 -47.13 0.0009720357    1.364    0.267
        33  -9.9471    138.4885    142.9997   1.0249973983e+02   2.5758786265e+01    0.2447401    0.1558745 -48.29  0.000851849    1.597    0.374
        34 -10.1702    162.7931    150.5924   9.8297704976e+01   1.8911003618e+01    0.2277064    0.1440591  54.25 0.0009379188    1.727    0.421
        35  -9.0460    175.3246    141.3323   9.3333056293e+01   1.8157114106e+01    0.1595213     0.122201   2.09 0.0007050791    1.707    0.414
        36  -8.6132    107.6450    140.3251   1.1017324944e+02   3.2601720429e+01    0.1648917    0.1193455  75.42  0.000704622    1.768    0.434
        37  -9.4480    156.1637    136.1899   9.6525440970e+01   2.3453259029e+01    0.2222678    0.1914279 -86.93 0.0008146955    1.357    0.263
        38  -8.9541    116.0000    122.9762   1.0378050403e+02   3.5096752636e+01    0.2630689    0.0891785 -49.34 0.0008028518    2.945    0.660
