#   1 NUMBER                 Running object number                                     
#   2 MAG_AUTO               Kron-like elliptical aperture magnitude                    [mag]
#   3 X_IMAGE                Object position along x                                    [pixel]
#   4 Y_IMAGE                Object position along y                                    [pixel]
#   5 X_WORLD                Barycenter position along world x axis                     [deg]
#   6 Y_WORLD                Barycenter position along world y axis                     [deg]
#   7 A_WORLD                Profile RMS along major axis (world units)                 [deg]
#   8 B_WORLD                Profile RMS along minor axis (world units)                 [deg]
#   9 THETA_WORLD            Position angle (CCW/world-x)                               [deg]
#  10 FWHM_WORLD             FWHM assuming a gaussian core                              [deg]
#  11 ELONGATION             A_IMAGE/B_IMAGE                                           
#  12 ELLIPTICITY            1 - B_IMAGE/A_IMAGE                                       
         1 -13.9533    216.1563      7.9981   3.8394266667e+01   2.9838056712e+01     2.507571     1.534835  41.96   0.01116135    2.145    0.534
         2 -13.1840    176.0599     53.2702   5.6183371911e+01   3.4186448701e+01     1.813468     1.260335  28.95  0.005024177    1.800    0.444
         3 -13.4977    190.8297     39.6803   4.9789279684e+01   3.2352178143e+01     1.127172     1.042317 -30.49  0.003984644    1.151    0.131
         4 -12.8178    195.8744     33.7589   4.7412279986e+01   3.1850926150e+01     0.746333    0.6413666 -22.86  0.001292245    1.287    0.223
         5  -9.4319     61.4879    219.9461   1.1889851355e+02   2.1162643024e+01    0.1560389    0.1045172 -67.13 0.0008007148    1.577    0.366
         6 -12.7977    247.7652    246.5058   8.6809787410e+01  -1.1365601594e+01     1.301278    0.4669079 -31.09  0.006573961    2.918    0.657
         7 -10.6505     37.5696    211.9034   1.2286297971e+02   2.5664533445e+01    0.1722176    0.1165754  76.63 0.0001121712    1.205    0.170
         8  -9.7239    184.6323    212.7602   9.2863651265e+01   2.8357402665e+00    0.2126277    0.1793674 -49.15  0.001288985    1.469    0.319
         9  99.0000     43.0916    209.3272   1.2159813794e+02   2.5557253218e+01     0.417036    0.1585256  67.44  0.001714641    3.380    0.704
        10 -10.3690     43.8152    205.2108   1.2112328791e+02   2.6321978797e+01    0.1790033    0.1347668 -79.73  0.001194593    1.252    0.201
        11 -11.1418    192.4135    206.0536   9.0145095923e+01   2.5621861899e+00    0.5422932    0.1936073  29.91  0.001763718    3.934    0.746
        12  -8.0802     86.2179    206.4271   1.1252708833e+02   2.0475393195e+01    0.1185464   0.09259093 -43.36 0.0006838579    1.693    0.409
        13 -10.3157     67.3336    204.2049   1.1624032932e+02   2.3589295764e+01    0.3740885    0.2036188 -46.93 0.0009479762    2.598    0.615
        14  -8.6620     71.3318    201.1277   1.1507920663e+02   2.3694389439e+01    0.3315956    0.1654158  87.28  0.001442761    2.747    0.636
        15  -9.2720     41.4280    232.5703   1.2359311068e+02   2.1195572540e+01    0.1230828    0.1110518  76.10 0.0007326027    1.340    0.253
        16 -10.8934     57.2175    201.2651   1.1804944458e+02   2.5523260353e+01    0.3230098    0.2164578 -42.80  0.001728729    2.218    0.549
        17 -11.9310     58.6061    196.2714   1.1726840564e+02   2.6411799553e+01    0.4173801    0.2733826 -55.74  0.001736215    1.733    0.423
        18 -10.8625    202.6283    199.4558   8.6919275434e+01   1.8330208711e+00    0.2597655    0.2284764  44.39  0.001575098    1.311    0.237
        19 -10.8355    193.2808    195.4954   8.8043762773e+01   4.1431731901e+00    0.8402016    0.4882667 -64.76  0.002989436    4.442    0.775
        20  -8.4887     49.6146    216.9914   1.2094365693e+02   2.3234198909e+01    0.2853712    0.2109181  -0.62   0.00162019    2.801    0.643
        21  -8.8784     44.5261    198.5527   1.2041697388e+02   2.7638544161e+01    0.1227315   0.09599989  75.22 0.0001340072    1.025    0.024
        22  -9.3177    167.7677    231.4909   9.9168004575e+01   2.7297415050e+00    0.2145708    0.1804747   3.39 0.0009586979    1.296    0.228
        23  -9.6977     82.1556    195.1665   1.1206508120e+02   2.3434688397e+01    0.2353336    0.2010845  44.80 0.0004255608    1.217    0.178
        24 -11.6370    149.3316    188.4604   9.6075192850e+01   1.3541916184e+01    0.3962784    0.3443279  68.08  0.001732492    1.267    0.211
        25 -10.6817     95.6729    189.1391   1.0827106221e+02   2.2691737178e+01    0.4197088    0.2952372  74.84  0.002228036    1.534    0.348
        26 -10.4857     98.9711    186.0242   1.0708013929e+02   2.2847281786e+01     0.602787     0.226214  43.75  0.002393924    2.434    0.589
        27 -10.8099     99.2425    180.8796   1.0626020819e+02   2.3936142117e+01     0.312883    0.2856552 -24.02  0.000976898    1.381    0.276
        28 -10.9708    150.5974    179.2077   9.4110662341e+01   1.5154378270e+01    0.4573561    0.3047884 -70.72  0.001618105    2.157    0.536
        29 -11.7718    144.1918    179.0262   9.5529098658e+01   1.6404485631e+01    0.5219782    0.3396032 -56.77  0.001754932    1.721    0.419
        30 -11.0150    139.9332    172.2395   9.5244995994e+01   1.8630477235e+01    0.6285821    0.2587609  46.36  0.002331247    2.390    0.582
        31 -10.3794    133.5276    186.0134   9.9188466418e+01   1.6931806110e+01    0.2091617    0.1408488 -53.74  0.001033968    1.598    0.374
        32 -10.6373    188.8925    176.4821   8.5234738134e+01   8.2882468304e+00    0.7065451    0.4280291 -59.58  0.002221264    2.589    0.614
        33 -10.7365    238.8831    175.8546   7.5423128182e+01  -7.6297717621e-01    0.2222808    0.1665222   1.22  0.001259193    1.268    0.212
        34 -10.6280     58.9750    229.9039   1.2020405502e+02   1.9562845842e+01    0.1704652     0.131366  75.89 0.0004134896    1.092    0.084
        35 -10.4155     50.3447    224.4157   1.2138510738e+02   2.1687094703e+01    0.2849013     0.136625 -83.37  0.001539782    2.128    0.530
        36  -9.8251    240.4662    169.4915   7.3821608974e+01  -5.3049465432e-02    0.1368548    0.1153444  -5.87 4.052549e-05    1.005    0.005
        37  -9.6969     64.9006    223.8242   1.1857769285e+02   1.9961533045e+01    0.1531621    0.1032507  85.03 0.0006560653    1.397    0.284
        38  -8.6259    194.4959    172.5244   8.3258950363e+01   7.9234517625e+00    0.1456907    0.1311297   9.14 2.748681e-05    1.021    0.021
        39 -11.0299     90.2224    158.1091   1.0483267526e+02   3.0607034225e+01    0.2748385    0.2582958  49.02 0.0003962227    1.134    0.118
        40 -11.6940     96.1740    151.4723   1.0213992632e+02   3.1219494103e+01    0.6266045    0.4897333 -23.49  0.003140267    1.707    0.414
        41 -10.8291    133.8687    145.8440   9.1342784730e+01   2.5617003829e+01     1.273751    0.3219947 -54.60   0.00293103    6.032    0.834
        42  -9.7818    187.2236    151.9743   8.0328263735e+01   1.3239391488e+01    0.2700734    0.2207116  38.77 0.0009123651    1.211    0.174
        43  -9.8326    113.4383    151.0686   9.7612643936e+01   2.8317827671e+01    0.3575555    0.2427512 -84.08  0.001326674    2.009    0.502
        44  -9.4427    174.4185    148.7182   8.2377554992e+01   1.6574147203e+01    0.3193635    0.2569026 -85.36  0.001017024    1.738    0.425
        45  -9.6018    143.7122    145.5705   8.8845947983e+01   2.3683346321e+01    0.2726582    0.1929427 -69.19  0.001184376    1.812    0.448
        46 -11.3047    107.9773    137.9060   9.6339188645e+01   3.2406753422e+01    0.5791859    0.4487071 -50.73  0.002890482    1.264    0.209
        47 -10.9091    105.5841    131.0569   9.5500700298e+01   3.4468335077e+01    0.4793289    0.4107291 -25.13  0.002470493    1.329    0.248
        48 -11.7347     95.9576    137.4495   9.9492799326e+01   3.4613815883e+01    0.3195364     0.282757 -83.04 0.0003299567    1.131    0.116
        49 -10.3876    135.8906    128.6041   8.6851353361e+01   2.9103670225e+01    0.7401501    0.1208295 -49.35  0.001463117    7.360    0.864
        50 -10.2352    114.8883    128.9038   9.2473374904e+01   3.3249228968e+01    0.3560392    0.3038163  -7.37 0.0008573984    1.412    0.292
        51  -9.1107    160.9945    127.9814   8.0508285542e+01   2.3802369257e+01    0.2587278    0.2029344 -86.89  0.001145048    1.757    0.431
        52 -10.5107    102.4412    124.7094   9.4942538179e+01   3.6546650419e+01    0.2923413    0.2429726 -25.13 0.0004946152    1.378    0.274
        53 -10.1039    120.1152    123.0946   8.9672829247e+01   3.3587315639e+01    0.4135428    0.2338657 -28.40  0.001481054    2.636    0.621
        54  -9.6146     55.7402    223.3530   1.2028607191e+02   2.1226928687e+01     0.133405    0.1066786  68.74  0.000275768    1.047    0.045
        55  -9.3058    110.0371    118.1264   9.1238958554e+01   3.6703745543e+01    0.2203965     0.213957 -67.88 0.0003170977    1.029    0.028
        56 -10.0716    231.2051    113.7193   6.2833972090e+01   1.0958985510e+01    0.2706171    0.2665184   0.82 0.0007526131    1.108    0.097
        57 -10.0861    134.7451    105.9788   8.1286947134e+01   3.4388697426e+01     0.649388     0.142705 -47.73   0.00151745    5.127    0.805
        58  -9.2911    167.4736    112.2863   7.4951616333e+01   2.5604485204e+01    0.3425581    0.2500956 -74.54  0.001130951    1.955    0.489
        59  -8.2734    146.2504    112.9749   8.0223335616e+01   3.0316364006e+01    0.1992739    0.1348669 -43.50 0.0004553341    1.459    0.315
        60 -10.9562    118.4552    110.5512   8.6946859508e+01   3.6806354007e+01    0.5859404    0.3925616  60.19  0.002493751    1.851    0.460
        61  -9.6833    205.3977    110.1111   6.6495520162e+01   1.7241275561e+01    0.3269789    0.2295931  43.40  0.001182794    1.498    0.332
        62  -9.4679    129.6197     96.1492   7.9881580921e+01   3.7635780596e+01     0.376522    0.1878076  58.77  0.001261562    2.848    0.649
        63  99.0000     43.1741    221.3771   1.2249735919e+02   2.3134866548e+01    0.2073061     0.143622  24.09  0.001290731    2.078    0.519
        64  -8.0795     81.2687    220.3197   1.1504512152e+02   1.8410767723e+01    0.1050897   0.09656501 -31.56 0.0003044649    1.561    0.359
        65  -8.6320    154.5944     82.1971   6.9415980515e+01   3.4646385583e+01    0.2150004    0.1514175 -23.85 0.0004629524    1.579    0.367
        66  -8.3231    184.3260     77.3237   6.1672622307e+01   2.8183802851e+01      0.15931    0.1209001  17.64 0.0007048566    1.689    0.408
        67  -9.2079     68.9486     71.9373   9.1482290377e+01   5.4175352070e+01    0.2062144    0.1833786 -30.80 0.0003003247    1.011    0.011
        68 -10.7444     71.9254    245.3335   1.1906992954e+02   1.5063772520e+01    0.2818241    0.1588202 -73.77  0.001737958    1.912    0.477
        69  -8.9664     75.6365    247.5544   1.1858373358e+02   1.4180983608e+01    0.1101839   0.08822539  62.63 0.0002213358    1.071    0.067
        70  -8.4679     84.1844    245.5818   1.1687188649e+02   1.3355194752e+01    0.1112798   0.07057597  77.26 0.0001014012    1.639    0.390
        71 -19.5437     20.9326    146.1614   1.2075440834e+02   4.1881355212e+01     19.34268     4.734569 -75.34   0.06683028    3.850    0.740
        72  -9.5539     55.8468    217.0649   1.1974599758e+02   2.2451242539e+01     0.259579    0.1207115  74.52  0.001218926    2.577    0.612
