#   1 NUMBER                 Running object number                                     
#   2 MAG_AUTO               Kron-like elliptical aperture magnitude                    [mag]
#   3 X_IMAGE                Object position along x                                    [pixel]
#   4 Y_IMAGE                Object position along y                                    [pixel]
#   5 X_WORLD                Barycenter position along world x axis                     [deg]
#   6 Y_WORLD                Barycenter position along world y axis                     [deg]
#   7 A_WORLD                Profile RMS along major axis (world units)                 [deg]
#   8 B_WORLD                Profile RMS along minor axis (world units)                 [deg]
#   9 THETA_WORLD            Position angle (CCW/world-x)                               [deg]
#  10 FWHM_WORLD             FWHM assuming a gaussian core                              [deg]
#  11 ELONGATION             A_IMAGE/B_IMAGE                                           
#  12 ELLIPTICITY            1 - B_IMAGE/A_IMAGE                                       
         1 -10.6260     39.5631      7.9732   4.8050397937e+01   7.2881831065e+01    0.6301513     0.261104 -41.58  0.002592535    2.800    0.643
         2 -13.1791     44.5889     23.6540   5.4926725228e+01   6.9494759319e+01     1.542111    0.9921907 -58.85  0.007076701    2.334    0.571
         3 -12.1223     77.8627     13.9150   3.5164920217e+01   6.3563056492e+01    0.5336459     0.357316  -8.17  0.002626807    1.780    0.438
         4 -11.1710     75.7438     25.8849   4.1956997771e+01   6.2546268292e+01    0.5026442    0.3485512   1.41  0.002371755    1.876    0.467
         5 -11.7126    178.2857     23.8829   2.1380438846e+01   3.7336634706e+01    0.4627899     0.376985 -45.66   0.00284801    1.131    0.116
         6 -10.0702    116.5306     17.3171   2.7491821154e+01   5.3351866286e+01    0.3419676    0.1588874 -49.58  0.001361292    2.512    0.602
         7 -11.0118    227.2907     16.1109   1.5699180779e+01   2.7764551873e+01    0.3909885    0.2681172 -81.25  0.002600073    1.491    0.329
         8 -12.9532    166.7818     11.2893   1.8831546094e+01   4.1268062723e+01    0.8397569    0.5338159  64.32  0.004569928    1.550    0.355
         9 -12.8745    172.3143      3.0559   1.5958317019e+01   4.0671438758e+01     1.325676    0.5842364 -82.11  0.005801527    2.528    0.604
        10 -11.0788    232.1509      9.3227   1.3930611702e+01   2.7466422125e+01    0.3904503    0.2255764 -63.39  0.002328641    1.593    0.372
        11 -10.9419    223.4270      5.1217   1.3418054221e+01   2.9497672633e+01    0.3040783    0.1103704 -50.91  0.001512118    2.271    0.560
        12 -11.5047    145.7739      4.8614   1.8848347317e+01   4.6993739120e+01    0.5223233     0.259569  70.99  0.002456342    1.827    0.453
        13 -10.5488    141.7795      1.6038   1.8155222621e+01   4.8265700701e+01    0.3144816    0.1709827  89.03  0.001419573    1.818    0.450
        14 -10.9167    121.3593      4.3291   2.1581669642e+01   5.3299353857e+01    0.4833384    0.3902946  77.21  0.002780882    1.123    0.109
        15 -10.6205    106.8085      5.3090   2.4246628356e+01   5.7012289498e+01    0.4440761    0.2412556 -77.91  0.001867547    2.381    0.580
        16 -10.2674    208.3472      4.3456   1.4009712617e+01   3.2587954000e+01    0.1866381    0.1811979  50.96 0.0009367874    1.281    0.220
        17 -10.6420    204.6644      4.6736   1.4293576039e+01   3.3326865762e+01    0.2109983    0.1312158  66.28   0.00125886    1.725    0.420
        18 -10.6731    129.7509      4.1274   2.0403296805e+01   5.1141245138e+01    0.4285108    0.2356616  71.97  0.002059926    1.637    0.389
        19  -9.9332    134.4968      2.5083   1.9252200602e+01   5.0050587224e+01    0.2407948    0.2200732  75.90  0.001008099    1.063    0.059
        20 -11.0955     71.2928      5.8852   3.2858253608e+01   6.6023402348e+01    0.5144123    0.2143378  63.64  0.002074994    2.255    0.557
        21 -11.7592     83.9775      3.5766   2.8109209817e+01   6.3063813877e+01    0.8691194    0.3417639  68.89  0.003107512    2.412    0.585
        22 -10.4393     61.6594      2.0749   3.3815145129e+01   6.8719608325e+01    0.5254228    0.1280772  50.22  0.001788946    3.153    0.683
        23 -12.0535    156.0284     11.5875   1.9973580787e+01   4.3852221095e+01    0.5523828     0.518672 -49.44  0.003549673    1.102    0.092
        24 -12.3197    158.2785      3.9871   1.7373514590e+01   4.3962349099e+01    0.8687907    0.3792154  66.22  0.003976294    2.100    0.524
        25 -11.3395    191.1370     37.1353   2.3692161467e+01   3.3016933402e+01    0.3862448    0.1759217 -50.93  0.001744906    2.217    0.549
        26  -9.8574     53.6468    143.4210   8.5235581282e+01   4.0053860320e+01    0.2560453    0.2241199 -89.18  0.001171344    1.191    0.161
        27 -12.2491     11.2189    140.1793   9.9086011494e+01   4.4750056229e+01    0.5370527    0.2937687  66.84  0.002603773    1.846    0.458
        28 -13.4297    240.8963    125.1803   3.7980391009e+01   1.2813691029e+01     1.017771    0.8844997  45.59  0.007532431    1.501    0.334
        29 -13.3916    245.1456    110.5707   3.4542606047e+01   1.4019137153e+01     1.257203    0.8428586 -46.41   0.00807761    1.618    0.382
        30 -10.8762      4.4974    124.7969   1.0040550644e+02   4.9026013890e+01    0.2774581    0.1761795  51.71  0.001312679    1.523    0.343
        31  -9.4004    208.8079    123.1673   4.2107228193e+01   1.8039255865e+01    0.1752884    0.1330268  -5.38 0.0006375635    1.306    0.234
        32 -11.5164     10.7918    122.3959   9.7931352341e+01   4.9281197266e+01    0.3819427      0.18122  40.18  0.001732468    2.010    0.503
        33  -9.5021    203.3241    122.6381   4.2862661380e+01   1.9032704532e+01    0.1254589   0.09721649 -59.45 0.0007041576    1.785    0.440
        34 -10.6538    154.4958    120.5452   5.1634854372e+01   2.8272001319e+01    0.2967755    0.1360248 -39.80  0.001206993    2.151    0.535
        35 -11.4741    190.3226    113.9207   4.3081591138e+01   2.2627563870e+01    0.8705732    0.4258666 -16.99  0.003252776    3.353    0.702
        36 -10.9833    212.6779    112.7744   3.9276456534e+01   1.8866889570e+01    0.5038423     0.251305 -30.65  0.002528234    1.770    0.435
        37 -11.1573    222.8043    108.6320   3.6954988529e+01   1.7748343126e+01    0.4940264    0.3605379 -46.59  0.003067397    1.469    0.319
        38 -10.6902    148.5293    109.9059   5.0377088376e+01   3.1386686396e+01    0.4804595    0.2528299 -45.92  0.002037803    1.989    0.497
        39 -10.2876     16.1746    103.9923   9.4011455442e+01   5.3720774850e+01    0.2453921    0.2069976  17.85  0.001411242    1.246    0.198
        40  -9.9302     30.6176    102.0327   8.7650349820e+01   5.3080984963e+01    0.2727806    0.1879532 -26.59  0.001327416    1.657    0.397
        41  -9.8498    112.5005    100.4829   5.7175919544e+01   4.0600375852e+01    0.1510461    0.1453094  15.38 0.0001332056    1.005    0.005
        42  -9.3757    208.8521     94.1748   3.5658885970e+01   2.2131102416e+01     0.174253     0.139112  -5.89 0.0006430516    1.310    0.236
        43  -9.8702    178.5359     92.9889   4.0088926082e+01   2.8142906554e+01     0.208488    0.1898904  43.40  0.001057619    1.167    0.143
        44 -10.5072     17.9153    127.8221   9.5794517404e+01   4.7414650983e+01    0.2085633    0.1804713 -41.02  0.001009099    1.244    0.196
        45 -10.4375     12.8455     89.8566   9.3721082110e+01   5.7639666188e+01    0.2191543     0.176429 -45.25  0.001161393    1.215    0.177
        46 -13.0218     14.8936     73.2041   9.0154738595e+01   6.1848147929e+01    0.9658691    0.6794727  25.64  0.005131228    1.482    0.325
        47 -12.4354      4.4614     75.7687   9.5966887825e+01   6.1751123984e+01    0.8197411    0.4985639  74.13  0.003672794    1.832    0.454
        48 -10.7412      2.2302     88.1398   9.8432628724e+01   5.8624143323e+01     0.412719    0.2439032  75.71  0.001880299    1.783    0.439
        49 -10.7687      2.5163     83.9297   9.7873637348e+01   5.9709829590e+01     0.345957    0.2282811 -80.33 0.0009708246    1.412    0.292
        50 -10.2379    193.6709     87.1213   3.6182956553e+01   2.5996830693e+01    0.2866823    0.1948426  68.17  0.001397046    1.853    0.460
        51 -12.3045     41.3721     82.1053   7.8892356241e+01   5.7081769680e+01     0.972128     0.694429  21.15  0.004839918    1.436    0.303
        52 -10.8996     47.0099     76.0049   7.4671237148e+01   5.7877247315e+01    0.5016621    0.3173159  50.97  0.002246369    1.860    0.462
        53  -9.3402    100.5490     83.5142   5.5916624268e+01   4.6614434915e+01     0.151695    0.1464173  14.99 0.0001629459    1.017    0.017
        54  -9.5513    144.8515     81.0313   4.3410184000e+01   3.7313127064e+01    0.2145225      0.17008  81.93   0.00104529    1.578    0.366
        55  -9.8168    215.1571     79.7089   3.1496390670e+01   2.2917537234e+01    0.2321436    0.1456522 -40.88 0.0009913868    1.417    0.294
        56  -9.9764    220.8709     77.7278   3.0361558648e+01   2.2130630757e+01    0.2960199    0.1620814 -60.32  0.001405471    2.650    0.623
        57 -10.0373    169.4528     76.4357   3.7333946132e+01   3.2597695160e+01    0.2485995    0.2414166 -18.18  0.001343229    1.030    0.029
        58  -9.5590    226.9484     71.7835   2.8344676214e+01   2.1781058833e+01    0.1957116    0.1261699 -65.54  0.001095245    2.008    0.502
        59  -9.2826    170.2218     71.3844   3.5823426823e+01   3.3184639924e+01    0.1904317    0.1330811  74.31 0.0009464392    1.718    0.418
        60 -10.4730     75.5732     69.0774   6.0069308298e+01   5.4733142194e+01    0.5271118    0.3424237  14.64  0.002167339    2.166    0.538
        61 -11.8755    214.7494     67.4673   2.8689310644e+01   2.4554665340e+01     0.383301    0.1989666 -31.25  0.001988153    1.666    0.400
        62 -10.8905     25.5019     65.1676   8.2719758171e+01   6.3052009067e+01    0.4213369     0.262237 -75.04  0.001986612    1.764    0.433
        63  -9.7809    179.4518     66.4750   3.3029721206e+01   3.1870937693e+01    0.2719476     0.134371  61.01  0.001212049    2.178    0.541
        64 -10.6635    233.1942     63.9750   2.5977802866e+01   2.1608936011e+01    0.1921651    0.1768831  81.41  0.001415965    1.284    0.221
        65  -9.1060    132.4449     63.5216   4.0832515925e+01   4.3104316049e+01    0.1441337    0.1420657  29.67   0.00017155    1.023    0.022
        66  -9.6195     83.4813     68.9941   5.7031659637e+01   5.3176287121e+01     0.232986    0.1498796 -44.20  0.001033406    1.593    0.372
        67 -11.0885    209.7955     60.0960   2.7487278310e+01   2.6423721435e+01    0.4494466    0.1651998 -43.82    0.0019286    2.483    0.597
        68  -9.5583    200.1398     63.8315   2.9532619618e+01   2.7880594956e+01    0.1734978    0.1475661  -0.65 0.0008975628    1.327    0.246
        69  -9.2274     76.4805     59.4985   5.6278920993e+01   5.6549581203e+01     0.149498    0.1430164  18.85 8.851694e-05    1.001    0.001
        70 -10.2772    220.4835     53.5094   2.4822773086e+01   2.5147605676e+01    0.1897181    0.1196574  68.21  0.001108039    1.822    0.451
        71 -11.1864    215.0156     50.9473   2.4749478672e+01   2.6495524562e+01    0.3261449    0.2567444  17.64  0.002032469    1.635    0.388
        72  -9.8837    164.7480     53.6843   3.1695412835e+01   3.6932283545e+01    0.2553477    0.1730544 -16.43  0.001258619    1.707    0.414
        73  -9.7367     35.1413     52.8257   7.3620251838e+01   6.4982311934e+01    0.2107043    0.2000432  48.97  0.001060271    1.180    0.153
        74 -11.0181     85.3141     47.9932   4.8470908886e+01   5.6824350030e+01    0.5740478    0.3946089  54.56  0.002630292    1.468    0.319
        75 -11.6630     81.6142     39.7601   4.6304175348e+01   5.9064006796e+01    0.7429755    0.4247771 -41.36  0.003273709    1.853    0.460
        76 -11.0706    197.9316     53.3023   2.7143952725e+01   2.9659047438e+01    0.5471525    0.3238162  -4.85    0.0025185    2.565    0.610
        77 -11.4044      3.3504     41.2793   9.0636361246e+01   7.0513798389e+01    0.4774305    0.4081052  51.62   0.00289128    1.365    0.267
        78 -11.2869    185.2410     40.0888   2.5123757369e+01   3.3976835315e+01    0.4235743      0.23549 -59.64  0.002030979    2.011    0.503
        79 -11.7849    240.3104    229.1779   5.6007149666e+01   6.1750077013e-01    0.3344326    0.2023519  22.96  0.002502486    1.511    0.338
        80 -11.8087     40.1701     29.8957   6.0868803275e+01   6.9138759259e+01    0.5037464    0.3465185 -40.33  0.002191036    1.463    0.317
        81 -11.6757    248.3550    224.8476   5.4172928320e+01   2.9125325189e-01    0.5044391    0.2562782 -13.67  0.003414984    1.651    0.394
        82 -10.0204     97.3299     36.5056   3.9873869526e+01   5.5839377435e+01     0.252436    0.1370991 -32.12 0.0008985752    1.941    0.485
        83 -10.7888      5.8484     35.3691   8.7237133506e+01   7.1807080078e+01    0.3753231    0.2396224  33.16  0.001934895    1.729    0.422
        84 -10.6325     86.5635     31.2260   4.0828141546e+01   5.9217430325e+01    0.2968332     0.178376  36.54  0.001290118    1.798    0.444
        85 -10.0264     90.2932     28.3301   3.8373771659e+01   5.8715676759e+01    0.2683865    0.2510804 -38.81  0.001534674    1.147    0.129
        86  -9.2995    229.2438     29.9824   1.8703532184e+01   2.6046327733e+01    0.1550232   0.08280677 -30.47 0.0006853094    1.585    0.369
        87 -10.1180    145.6465     28.1570   2.6655505856e+01   4.4741097578e+01    0.4685879     0.221941 -69.21  0.001638144    3.486    0.713
        88 -10.6433      3.8893    230.2646   1.0471300562e+02   2.5699779730e+01    0.2500002   0.09831036  28.25  0.001381886    1.913    0.477
        89  -9.3947    111.3205    228.6736   8.0279766212e+01   1.5310872562e+01    0.1204137   0.07971909  47.89  0.000704719    1.683    0.406
        90  -9.7523     67.2976     28.6555   4.6586003534e+01   6.4056040212e+01    0.1402247    0.1144181 -76.03  0.000703454    1.672    0.402
        91  -9.8471     31.8031    227.3855   9.8367433695e+01   2.3976321415e+01    0.1609942   0.09648795  14.62 0.0009486438    1.699    0.411
        92 -11.3625    173.2853     20.5911   2.0938638474e+01   3.8834368780e+01    0.3321498      0.22021  65.97  0.001420016    1.504    0.335
        93  -9.3694    102.8279     26.1339   3.4038124856e+01   5.5869487588e+01    0.2034665     0.162577  35.06 0.0007549547    1.305    0.234
        94  -9.8584    224.3719     22.8872   1.7417837202e+01   2.7676601143e+01    0.2021296     0.142609 -70.39  0.001323035    1.392    0.281
        95  -9.4947     86.6507     22.3199   3.6674129815e+01   6.0396903812e+01    0.1472168    0.1096966 -73.08 0.0007048503    1.738    0.425
        96  -9.7736    187.2855     19.5748   1.9360921120e+01   3.5726618477e+01    0.2283687    0.1185858  81.80  0.001127114    2.024    0.506
        97 -10.2223    128.2585     18.5575   2.5961701774e+01   5.0195045681e+01    0.3143164    0.2496265  75.62  0.001180378    1.184    0.155
        98 -11.1259    158.8451    225.6593   6.9835519895e+01   1.0018729898e+01    0.1968312    0.1421974 -13.77 0.0008450267    1.352    0.260
        99 -12.6018    209.4076    215.8559   5.8991295696e+01   5.3445602323e+00    0.5869722    0.3236057   7.81  0.003558097    1.722    0.419
       100  -9.9508     94.4138     16.9827   3.2069529285e+01   5.9080404362e+01    0.2797032    0.1928897  84.76 0.0008718434    1.666    0.400
       101 -10.0983    247.6516     16.3547   1.4673389328e+01   2.4037134517e+01    0.1806968   0.08973606 -51.54  0.001099578    1.662    0.398
       102 -10.9004     50.8605    218.3728   9.3375193616e+01   2.3874398157e+01    0.2668535    0.2155512  42.25  0.001821521    1.060    0.056
       103 -12.9144    182.0910    218.3092   6.4267333367e+01   8.2226869644e+00    0.6238418    0.3438389 -16.45  0.003541238    1.967    0.492
       104  -9.2232     64.6359     16.3156   4.1118380898e+01   6.6414649732e+01    0.1401102    0.1102687 -78.57 0.0007040385    1.767    0.434
       105  -9.6218     20.6062     15.2457   6.6390625803e+01   7.4819415785e+01    0.2384066    0.1484388   5.64  0.001178641    1.856    0.461
       106  -9.8300    129.6883     12.9820   2.3682266025e+01   5.0378004386e+01    0.2664261    0.1711837  46.90  0.001183138    1.615    0.381
       107 -10.1289     78.1908    219.6054   8.6956528832e+01   2.0732947318e+01    0.1791718    0.1021661  17.21 0.0009504022    1.699    0.411
       108  -9.9217     67.4872    217.5113   8.9321878616e+01   2.2304006330e+01    0.1238298    0.1006615  32.40 0.0008104473    1.004    0.004
       109 -12.6726    244.0404    200.8807   5.1123146359e+01   3.2815880028e+00    0.7068452    0.4662022 -21.35  0.004289418    1.275    0.216
       110 -12.5340    247.8267    185.0503   4.7980479366e+01   4.6575871337e+00    0.9736952    0.3234012 -36.54  0.004903231    2.829    0.647
       111  -9.9679    141.2545    206.3499   7.0819316448e+01   1.5177157636e+01    0.2237632    0.1414694 -31.07  0.001266381    1.726    0.421
       112  -9.7087    202.9573    196.9968   5.7121124998e+01   8.5011173194e+00    0.1530664    0.1465584  21.72  0.001113751    1.666    0.400
       113 -10.6677    204.4759    192.5340   5.6112658553e+01   8.9023197678e+00    0.3593398    0.1626596  18.84  0.001713388    2.593    0.614
       114 -11.2356    195.9947    185.2284   5.6379803455e+01   1.1005441190e+01    0.3003527    0.2766912 -19.69  0.002143081    1.433    0.302
       115 -10.0095     37.3008    185.4609   9.4471016810e+01   3.1938754486e+01    0.2404736    0.1193971  17.16  0.001129979    2.068    0.516
       116  -9.6778     26.3184    180.6707   9.7156324495e+01   3.3988721933e+01    0.1396985   0.07635934  53.10 0.0007022704    1.685    0.406
       117  -9.2696    172.3228    163.6628   5.7010740142e+01   1.7699074607e+01    0.1183171      0.10786  81.94 0.0007050768    1.715    0.417
       118 -10.9484    220.1355    155.8990   4.6928834712e+01   1.1743821964e+01    0.3278297    0.1732296  43.12   0.00179946    2.217    0.549
       119  -9.2455    104.4906    155.4889   7.1716760850e+01   3.0133252393e+01     0.288125    0.1404223 -73.74 0.0008102323    5.668    0.824
       120  -9.6615     20.8229    155.8232   9.7084137540e+01   4.0218783306e+01    0.1914311    0.1785652 -49.54  0.001222904    1.195    0.163
       121 -10.2746    163.8649    152.2374   5.6528663289e+01   2.0972224398e+01    0.2988773    0.1968541  11.61   0.00143923    1.739    0.425
