#   1 NUMBER                 Running object number                                     
#   2 MAG_AUTO               Kron-like elliptical aperture magnitude                    [mag]
#   3 X_IMAGE                Object position along x                                    [pixel]
#   4 Y_IMAGE                Object position along y                                    [pixel]
#   5 X_WORLD                Barycenter position along world x axis                     [deg]
#   6 Y_WORLD                Barycenter position along world y axis                     [deg]
#   7 A_WORLD                Profile RMS along major axis (world units)                 [deg]
#   8 B_WORLD                Profile RMS along minor axis (world units)                 [deg]
#   9 THETA_WORLD            Position angle (CCW/world-x)                               [deg]
#  10 FWHM_WORLD             FWHM assuming a gaussian core                              [deg]
#  11 ELONGATION             A_IMAGE/B_IMAGE                                           
#  12 ELLIPTICITY            1 - B_IMAGE/A_IMAGE                                       
         1 -13.7330    244.8706    110.1815   3.2711341722e+01   1.4383378253e+01     1.585604     0.723802 -50.90  0.009052136    1.756    0.431
         2 -11.1470     39.8266      7.7332   4.6651907895e+01   6.9055892992e+01    0.4900326    0.2347237 -32.29  0.002617367    2.519    0.603
         3 -11.7992     48.5306     35.4732   5.4895975059e+01   6.4089767387e+01    0.8672755    0.5966848 -85.29  0.003553034    4.183    0.761
         4 -13.1425     44.6806     23.3708   5.1582421642e+01   6.6406525557e+01    0.9302507    0.8215006 -62.60  0.006120745    1.632    0.387
         5 -12.5435     78.0425     14.1022   3.6490524988e+01   6.0639429534e+01    0.4480175    0.3422481  10.63  0.002811993    1.678    0.404
         6 -12.4610     75.7800     25.4813   4.1264263046e+01   5.9938411227e+01    0.4564386    0.3515302  52.69    0.0028265    1.075    0.070
         7 -11.2065    227.0767     16.1332   1.8262678334e+01   2.9638400284e+01    0.3786997    0.2166181  88.19  0.002387443    1.545    0.353
         8 -10.4981    116.3650     16.9500   2.9466516834e+01   5.1830662387e+01    0.3934048    0.1905002 -61.19  0.001817467    2.805    0.644
         9 -10.1335     19.9332     15.3651   6.0526723941e+01   7.1503482970e+01    0.3739584    0.1670558  20.93  0.001634819    2.787    0.641
        10 -12.3519    158.7458      4.1258   2.0945971276e+01   4.3810812945e+01    0.6952516     0.300827  64.96  0.003861777    2.000    0.500
        11 -12.8533    164.7683     12.0003   2.2132706591e+01   4.1804982567e+01    0.7378597    0.3359232  66.49  0.004142873    1.911    0.477
        12 -13.1139    172.2929      2.9291   1.9535755076e+01   4.1144148317e+01      1.13705      0.49554  88.99  0.006167205    2.130    0.531
        13 -12.0696    156.2248     12.1545   2.3011530216e+01   4.3575311446e+01    0.4650302    0.3035639  81.53     0.002519    1.257    0.204
        14 -10.7395    223.4084      4.5095   1.6523207735e+01   3.1469791819e+01    0.3269821   0.07593696 -54.37  0.001601185    3.172    0.685
        15 -11.2794    232.0453      9.4900   1.6887668883e+01   2.9511984770e+01    0.3618128    0.2137507 -79.12  0.002756187    1.340    0.254
        16 -10.8596    107.3346      5.4755   2.7569036274e+01   5.4903516004e+01    0.5038621    0.1921794  78.71  0.002086669    2.971    0.663
        17 -11.5015     71.2589      5.8109   3.5159994785e+01   6.2854819252e+01    0.4048677    0.1817616  62.18  0.002034022    1.825    0.452
        18 -10.8445    208.0335      4.4978   1.7384442867e+01   3.4165868887e+01    0.2001018    0.1382746  86.89  0.001346702    1.259    0.206
        19 -11.6623    145.9553      4.7818   2.2347028005e+01   4.6457390337e+01    0.4881972    0.1872187  73.44  0.002453152    2.133    0.531
        20 -10.6356    141.3178      1.5734   2.2055683334e+01   4.7737296292e+01     0.282748    0.1188569  79.30   0.00144468    2.046    0.511
        21 -11.1051    131.3393      3.7975   2.3740550893e+01   4.9716354192e+01    0.5739425    0.1707723  61.74  0.002606269    2.584    0.613
        22 -10.8864    121.0154      4.5236   2.5258583959e+01   5.1933151268e+01    0.4542877    0.2629636  76.27  0.002690261    1.410    0.291
        23 -11.6833     85.6128      3.6212   3.0979442829e+01   5.9897835208e+01      0.56368    0.2510682  61.27  0.002644561    1.704    0.413
        24 -11.4208     80.2124      3.4078   3.2080212553e+01   6.1104868950e+01    0.5019048    0.1997803  68.27  0.002314807    2.256    0.557
        25 -10.6964     61.3992      1.9793   3.6370844204e+01   6.5268833776e+01    0.4070271    0.1275458  51.70  0.001832633    2.278    0.561
        26  -9.4952    217.8426      1.8538   1.6371348957e+01   3.2691750896e+01    0.1471367   0.08354499 -69.70 0.0007470286    1.323    0.244
        27  -9.1208      1.6703      1.6695   6.5631240890e+01   7.5668260424e+01    0.1211145   0.07125936   0.95 -8.153335e-05    1.716    0.417
        28 -10.6677    162.8780    152.1220   5.3310112233e+01   1.9624081582e+01    0.2763262    0.2308238 -52.75  0.001548135    1.179    0.152
        29  -9.9487     53.5467    143.5102   8.2797215121e+01   3.9739344748e+01    0.2813196    0.2693673 -42.37  0.001422064    1.035    0.034
        30 -12.4549     10.6542    139.7634   9.7940296571e+01   4.5035239291e+01    0.5706797    0.3930306  65.74  0.002762492    1.666    0.400
        31  -8.8979    108.3328    141.6591   6.4615566440e+01   3.1562202129e+01    0.1597309    0.1224486  74.62 0.0007051325    1.751    0.429
        32 -13.4420    240.8891    125.2643   3.5707013043e+01   1.2586072636e+01     1.004047    0.8139721  77.13   0.00741135    1.586    0.369
        33 -11.4603    174.6374    235.2242   6.5453640240e+01   1.5512396271e+00    0.4837833    0.1383941 -42.73  0.001896897    3.091    0.676
        34 -12.1389     10.7307    121.8982   9.5564395244e+01   4.9844074919e+01    0.4764064    0.2992434  54.97  0.002193783    1.928    0.481
        35 -10.4742    203.9332    122.5064   4.0111865171e+01   1.8488576682e+01    0.1708295    0.1250181  53.27     0.001036    1.601    0.375
        36 -11.7401    190.1231    113.9238   4.0555544933e+01   2.2304287667e+01    0.8668365    0.3882896 -32.02  0.003358312    3.305    0.697
        37  -9.4192    208.9709    123.2777   3.9519608073e+01   1.7555948023e+01     0.165721    0.1496467 -58.55 0.0006235454    1.095    0.087
        38 -11.3683    212.6271    112.7628   3.7044670511e+01   1.8756282391e+01    0.5024973    0.2437082 -46.23  0.002628401    1.708    0.415
        39 -10.3132    224.4104    111.2127   3.5243042950e+01   1.7180114904e+01    0.2675281      0.12001 -49.63  0.001345886    1.846    0.458
        40 -11.3437    222.0414    107.3501   3.4838245338e+01   1.8161650459e+01    0.3471007    0.2918523  40.51   0.00244683    1.590    0.371
        41 -11.1778    148.4319    110.2134   4.7412217601e+01   3.0773065540e+01     0.479917    0.2484887 -48.27  0.002103533    1.875    0.467
        42 -11.0293     17.9367    105.0333   8.9768209485e+01   5.3706644334e+01    0.7227634      0.36727  53.21  0.002793696    2.855    0.650
        43 -10.1101     30.6748    102.0078   8.3578277545e+01   5.3267054929e+01    0.2877267    0.1882661 -18.86  0.001327343    1.668    0.400
        44  -9.6429    112.9956    100.4960   5.3563397215e+01   3.9880760736e+01    0.2141378    0.1251714  66.11 0.0008105473    2.559    0.609
        45  -9.7373    208.9984     94.2849   3.4038869656e+01   2.2354737429e+01    0.1678915    0.1422351 -65.22 0.0006765426    1.049    0.047
        46 -10.2668    178.6965     92.5270   3.7947843957e+01   2.8086886853e+01    0.2914729    0.2225748 -86.79  0.001686671    1.412    0.292
        47 -10.9149     13.1259     89.8688   8.8998990583e+01   5.7858795968e+01     0.263807     0.196604 -12.88  0.001418873    1.284    0.221
        48 -12.9973     15.0334     73.3057   8.4268530251e+01   6.1571691883e+01     1.053314    0.6161755  29.58  0.005240653    1.728    0.421
        49 -12.4431      4.9898     76.0340   9.0108057969e+01   6.1705410920e+01    0.6801973    0.4828932  64.44  0.003543595    2.012    0.503
        50 -10.9735      2.3639     88.4136   9.3873587293e+01   5.8919738166e+01    0.3925839    0.2761942 -83.48  0.002063301    1.673    0.402
        51 -10.9522      2.7348     82.3720   9.2558498319e+01   6.0354147456e+01    0.4545456    0.2205491 -66.73  0.001951175    2.040    0.510
        52 -10.3739    193.6739     87.1068   3.4640584681e+01   2.6185582769e+01    0.3032467    0.1832551  71.32  0.001470286    1.901    0.474
        53 -12.0280     40.7631     83.0078   7.4426860428e+01   5.6539385854e+01     0.781467    0.7567745 -74.88  0.004632985    1.238    0.192
        54 -11.8247     45.2216     81.1802   7.1936577827e+01   5.6320538744e+01     1.042191    0.4027369 -39.83  0.003720097    2.967    0.663
        55  -9.2354    100.5312     83.5116   5.2520067043e+01   4.5799956086e+01    0.1441604    0.1359511  48.81 0.0001774787    1.003    0.003
        56  -9.3536    145.4853     81.4906   4.1247718845e+01   3.6633077824e+01     0.134874    0.1247667 -88.54 0.0008104081    1.012    0.012
        57  -9.8773    215.1587     79.6890   3.0566165926e+01   2.3551763675e+01    0.2182254    0.1291189 -55.56  0.001319685    1.424    0.298
        58 -10.3803    220.9913     77.9091   2.9610180656e+01   2.2838448728e+01     0.271456    0.1410411 -75.01  0.001354869    2.722    0.633
        59 -10.2196    169.6140     76.1721   3.5818004489e+01   3.2533679857e+01    0.2394109    0.2105918  68.65  0.001237527    1.183    0.155
        60 -11.1847      4.3701    124.3701   9.8438456434e+01   4.9584603041e+01    0.3424819    0.2124528  47.56  0.001613373    1.846    0.458
        61 -10.4197    207.8775     73.1479   3.0146916352e+01   2.5770500090e+01    0.1894789    0.1358494 -69.30  0.001241273    1.246    0.197
        62 -10.4673     75.4223     69.1903   5.6284156597e+01   5.3543081134e+01     0.463796    0.3102375  16.46  0.002133273    1.971    0.493
        63  -9.7777     83.4871     69.0394   5.3512552333e+01   5.1966594166e+01    0.2080715    0.1422418 -41.72  0.001036205    1.601    0.376
        64 -10.9839     25.4596     65.2710   7.6665565413e+01   6.2260236973e+01    0.3936374    0.2659501 -55.74  0.001731319    1.641    0.391
        65  -9.8930    179.5228     66.3406   3.2250830009e+01   3.2062023059e+01    0.2387935    0.1481435  63.44  0.001360558    1.617    0.382
        66 -10.6483    233.1553     64.1299   2.6001141514e+01   2.2794269936e+01    0.2008398    0.1360766  68.94   0.00143432    1.659    0.397
        67  -9.0398    132.3359     63.6944   3.9372136828e+01   4.2347197597e+01    0.1390351   0.09831696 -83.22 0.0007040109    1.670    0.401
        68 -10.3963    218.6734     61.6324   2.6882671434e+01   2.5525339893e+01    0.1442817    0.1371201   2.12  0.001102007    1.667    0.400
        69  -9.6962    200.0211     63.5179   2.9164462718e+01   2.8567023796e+01     0.186657    0.1373988 -53.78 0.0008513402    1.182    0.154
        70 -11.8316    214.6550     67.4083   2.8340939846e+01   2.5413462749e+01    0.2917855     0.173027 -45.68  0.001741944    1.461    0.315
        71 -11.3768    197.2979     53.6474   2.7519879389e+01   3.0431935877e+01    0.4718992    0.4138775   2.53   0.00324442    1.909    0.476
        72 -10.2780    164.7204     53.6945   3.1493301099e+01   3.6866794340e+01    0.2087442     0.190637  63.80  0.001416375    1.276    0.216
        73  -9.8678    220.3425     53.6023   2.5277030299e+01   2.6315290287e+01    0.1932136   0.09703156  76.57  0.001130608    2.148    0.534
        74 -10.1079     34.9720     52.8920   6.7802326424e+01   6.3452809176e+01    0.2524016    0.1700346  31.07  0.001362914    1.348    0.258
        75 -11.0532     85.2450     48.0319   4.6267933269e+01   5.4997934259e+01    0.5565374    0.3183278  51.91  0.002743925    1.538    0.350
        76  -9.3507    137.9813     56.2337   3.6366275673e+01   4.2225088956e+01    0.1785195    0.1003199  61.71 0.0008830049    1.642    0.391
        77 -11.8285     81.4333     39.4284   4.4516444754e+01   5.7009424164e+01    0.6407313    0.3923698 -44.15  0.003350589    1.925    0.480
        78 -11.4353    185.8234     43.8521   2.6771762536e+01   3.3913491674e+01    0.3989865    0.3180489   6.93   0.00228289    2.399    0.583
        79 -11.8870    214.6421     52.2936   2.5553025852e+01   2.7472239294e+01    0.4144305    0.2898267 -22.66  0.002563025    2.352    0.575
        80 -11.4877      3.4612     41.3859   8.1667115594e+01   6.9138435216e+01    0.4701198     0.374834  23.03  0.002656811    1.341    0.254
        81 -10.9715      5.6691     34.9891   7.8011860589e+01   7.0130733787e+01    0.3925568    0.1757832  24.88  0.001952464    1.985    0.496
        82 -10.6195     10.8107    233.9845   1.0576373826e+02   2.0456337393e+01    0.2477783    0.1472815 -50.07   0.00126919    1.953    0.488
        83 -11.5853    240.0290    229.2983   5.2681483150e+01  -3.9048134485e+00    0.2621844    0.2294093   8.42  0.002101022    1.487    0.328
        84 -11.7380     39.9902     29.4597   5.6294570865e+01   6.6433774231e+01    0.4490338    0.3324169 -27.31  0.001998843    1.509    0.337
        85 -11.8681    162.9582    228.8172   6.6937765777e+01   4.0623021988e+00    0.4198163    0.2073792 -46.00  0.002025168    1.954    0.488
        86  -9.9958    181.1180     40.2123   2.6524256899e+01   3.5301744865e+01    0.2474784    0.1170874 -61.02  0.001259865    2.162    0.537
        87  -9.8750     66.0014     35.5046   4.8100411039e+01   6.0739798416e+01    0.3108216     0.117301  54.58  0.001211986    2.693    0.629
        88 -10.9872     90.3811     28.6104   3.8408632113e+01   5.6406469182e+01    0.3300832    0.2306231  37.17  0.001887547    1.522    0.343
        89 -11.3357      3.8337    230.2014   1.0729356340e+02   2.1917462202e+01    0.3204596    0.1923676  31.00  0.001723405    1.500    0.333
        90 -11.4997    248.6572    224.8857   5.0700809619e+01  -3.9759523097e+00    0.4744475    0.2202739 -38.70  0.002911894    1.607    0.378
        91 -10.1751    224.5632     23.2315   1.9620622863e+01   2.9284781938e+01    0.2446767    0.1353519 -53.99  0.001709515    1.395    0.283
        92 -11.5361    178.3797     23.7381   2.3354272066e+01   3.7793322621e+01    0.3492185    0.2825337 -72.79  0.002564875    1.088    0.080
        93 -11.2561    173.3328     20.8812   2.3235255849e+01   3.9124774906e+01    0.3142202    0.1522766  75.45  0.001261178    1.820    0.451
        94  -9.8509    246.3285     24.3397   1.8484984967e+01   2.5616974461e+01   0.07870695    0.0767836 -87.61 0.0005753201    1.736    0.424
        95 -10.1862     11.4353     24.2415   6.9928694707e+01   7.1338220342e+01    0.1465031    0.1188486 -49.24 0.0009522511    1.664    0.399
        96 -10.0704    145.4082     27.9628   2.8060761925e+01   4.4227291523e+01    0.3762758    0.1710184 -76.05  0.001459645    3.754    0.734
        97  -9.9083    187.0573     19.3165   2.1673837650e+01   3.6563983591e+01    0.1620523     0.118185 -85.34 0.0008438202    1.099    0.090
        98 -10.3712    128.5779     18.5679   2.8013741190e+01   4.8940945383e+01    0.2568839    0.1973878  68.15  0.001435437    1.136    0.120
        99  -9.2734    111.5050    228.5071   7.9009028847e+01   1.0526141872e+01    0.1422668    0.1246969   3.88 2.883265e-05    1.019    0.018
       100 -10.1986     31.9946    227.4853   9.9874138665e+01   2.0053122671e+01    0.2107174    0.1246334  23.95 0.0009214456    1.577    0.366
       101  -9.8424     94.2206     17.1001   3.3700526509e+01   5.6780535529e+01    0.2407174    0.1448548  88.56 0.0009869634    2.107    0.525
       102 -10.0380    247.5801     15.7830   1.7081518557e+01   2.6360027284e+01    0.1429247   0.05957043 -51.77 0.0009522985    1.691    0.409
       103 -10.3815     64.1810     16.3593   4.1347330314e+01   6.3369847171e+01     0.182201    0.1025881  62.50 0.0009441592    1.728    0.421
       104 -11.0705    158.5162    225.3269   6.7363628584e+01   5.2603062385e+00    0.2409524    0.2030169   8.58  0.001057407    1.120    0.107
       105 -12.7228    206.2292    218.3956   5.6674666569e+01   1.0594790938e+00     1.072175    0.5107755 -13.85  0.004466515    3.409    0.707
       106 -13.2336    183.9053    217.2517   6.0731572214e+01   3.7459401499e+00    0.7084489    0.4792109 -22.96  0.004103381    1.328    0.247
       107 -11.2008     50.5289    218.3884   9.4031373740e+01   2.0330576358e+01    0.4055364    0.2859744  23.85  0.002075536    1.332    0.249
       108 -10.1248     67.5190    217.5030   8.9238575665e+01   1.8585907811e+01    0.1437892    0.1334329  23.00 8.601554e-06    1.003    0.003
       109 -10.0073    141.1462    206.5951   6.8320418650e+01   1.1315555209e+01    0.2413095    0.1592708 -40.85    0.0011118    1.453    0.312
       110 -12.4450    244.3497    200.6504   4.7624881813e+01   1.0086363100e-01     0.770093    0.4863452 -41.13  0.004367993    1.284    0.221
       111 -11.4490    247.1257    192.3949   4.5927249626e+01   1.1242651891e+00    0.3927536    0.3358052 -39.34  0.002271094    1.300    0.231
       112 -12.3494    248.2525    185.7343   4.4715776159e+01   2.0585882752e+00     1.146497    0.3974524 -50.06  0.005198389    3.005    0.667
       113 -10.2720     25.5961    199.1532   9.9237236300e+01   2.7759789774e+01    0.3518895    0.1088394  36.60  0.001248151    2.758    0.637
       114  -9.0480     85.6774    198.3051   8.1566655950e+01   2.0990244568e+01    0.1544887    0.1114994  56.85 0.0003696479    1.639    0.390
       115 -10.3668    202.7162    197.0085   5.3795440820e+01   5.1928942763e+00    0.2431636    0.1441313 -33.92  0.001280663    1.440    0.305
       116 -10.6527    205.3940    192.5049   5.2555729919e+01   5.6776811342e+00    0.3880763    0.2101003  15.83  0.001925245    2.469    0.595
       117 -11.4149    195.7533    185.2095   5.3032381468e+01   8.2139801758e+00    0.3797284      0.28919 -59.13   0.00223107    1.598    0.374
       118 -10.2881     37.3866    185.1689   9.4263164470e+01   3.0304705328e+01    0.2593903     0.203009   2.01  0.001107083    1.386    0.279
       119 -10.3426     26.4173    180.2188   9.7139099741e+01   3.2709400418e+01    0.2083599    0.1356241  88.58 0.0009518205    1.677    0.404
       120 -10.8388    220.4265    156.2141   4.3804508733e+01   1.0188729987e+01    0.2360876    0.1692257 -62.59  0.001434025    1.652    0.395
       121  -9.6339     20.5137    155.9364   9.6359146577e+01   3.9855951628e+01    0.2287583    0.1388163 -70.40  0.001029264    1.581    0.367
       122 -11.4671    191.3407     37.4478   2.4908224888e+01   3.3644030967e+01    0.3168548    0.1374119 -60.38  0.001601909    2.319    0.569
