#   1 NUMBER                 Running object number                                     
#   2 MAG_AUTO               Kron-like elliptical aperture magnitude                    [mag]
#   3 X_IMAGE                Object position along x                                    [pixel]
#   4 Y_IMAGE                Object position along y                                    [pixel]
#   5 X_WORLD                Barycenter position along world x axis                     [deg]
#   6 Y_WORLD                Barycenter position along world y axis                     [deg]
#   7 A_WORLD                Profile RMS along major axis (world units)                 [deg]
#   8 B_WORLD                Profile RMS along minor axis (world units)                 [deg]
#   9 THETA_WORLD            Position angle (CCW/world-x)                               [deg]
#  10 FWHM_WORLD             FWHM assuming a gaussian core                              [deg]
#  11 ELONGATION             A_IMAGE/B_IMAGE                                           
#  12 ELLIPTICITY            1 - B_IMAGE/A_IMAGE                                       
         1 -11.2930      7.3903     57.5935   1.2189849461e+02   6.2974595090e+01    0.2263082   0.09700365 -80.96 0.0009539869    3.296    0.697
         2 -10.3308     69.3174     41.6510   9.2545315067e+01   5.9774360710e+01    0.1269109    0.1074506 -73.94 0.0005617258    1.731    0.422
         3 -12.1387    160.3340    239.6314   1.1210561415e+02   5.1382160755e+00    0.2462739    0.1700539  61.61  0.001496959    1.713    0.416
         4 -10.5115     92.4868    237.9847   1.2410765843e+02   1.5569764298e+01      0.15376   0.08211109  79.55 0.0008103652    2.551    0.608
         5 -10.1120    114.4864    234.4853   1.1981480425e+02   1.2969642116e+01    0.1186015   0.09111475  54.77 8.697625e-05    1.049    0.047
         6 -10.5557    145.0203    232.9922   1.1405681085e+02   8.5052105310e+00    0.1881364    0.1283774  65.41  0.001001849    1.726    0.421
         7 -10.2398    123.3195    233.6643   1.1811458985e+02   1.1770752480e+01    0.1212529   0.07664994  64.63 0.0005479074    1.703    0.413
         8 -10.6804     92.5835    230.7807   1.2343217505e+02   1.6748134749e+01    0.1506282   0.09888481 -89.58  0.000953374    1.697    0.411
         9  -9.8590    120.3173    227.6599   1.1799913578e+02   1.3189264116e+01    0.1234039   0.07837483  65.70 0.0007048863    1.708    0.415
        10 -10.9371     84.4036    227.2496   1.2459716313e+02   1.8483833220e+01    0.1500522   0.09745723 -89.61 0.0009514416    1.646    0.392
        11 -10.2230     72.5019    226.4940   1.2669390419e+02   2.0206968577e+01     0.113116   0.08799569  62.98 0.0002201515    1.024    0.023
        12 -10.3761    162.8381    224.6761   1.0967424904e+02   6.8709344781e+00    0.1994727    0.1331771  30.06  0.001116537    1.410    0.291
        13 -10.2944    183.1996    223.3961   1.0572646332e+02   3.7076523847e+00    0.1791076   0.09711909  47.40 0.0008883004    1.715    0.417
        14 -10.3171    114.5129    223.5161   1.1862132961e+02   1.4760427725e+01    0.1215264   0.09653389  55.49 0.0001475398    1.034    0.033
        15 -10.9500    149.1412    223.2972   1.1205323575e+02   9.3181090304e+00    0.2195907    0.1547742  83.19   0.00123513    2.154    0.536
        16 -10.5925     73.9906    219.4859   1.2582141501e+02   2.1254483594e+01    0.1755572    0.0656023  55.56 0.0008103223    2.549    0.608
        17 -10.2835    143.6807    216.4772   1.1218125894e+02   1.1292158931e+01    0.1933824    0.1165786 -51.38  0.001078177    1.987    0.497
        18 -10.4572    112.4774    216.9779   1.1826435537e+02   1.6186966478e+01    0.1641545    0.1179982 -67.70 0.0009229114    1.585    0.369
        19 -10.2000    154.6106    214.8427   1.0985195658e+02   9.7377627231e+00    0.1572599     0.120013 -68.40 0.0009472155    1.728    0.421
        20 -10.8068     76.4839    213.0545   1.2476681068e+02   2.2093345354e+01    0.1662966    0.1066276 -75.52  0.001036093    1.605    0.377
        21 -11.1884    116.5361    209.8403   1.1661758711e+02   1.6808712344e+01    0.3009748    0.2078719 -84.65  0.001747703    1.779    0.438
        22 -10.1783    148.4708    209.9766   1.1034835354e+02   1.1555981393e+01    0.1637658    0.1096456 -85.75 0.0008096547    2.533    0.605
        23  -9.9893    206.3242    208.6595   9.9161803015e+01   1.8862929963e+00    0.1151337    0.0985346  69.02 0.0006811657    1.727    0.421
        24  -9.9889    139.6621    207.3442   1.1170891675e+02   1.3478433123e+01    0.1318733   0.09043969  68.41 0.0007048991    1.774    0.436
        25 -10.8654     98.9251    205.5692   1.1960191691e+02   2.0293020559e+01    0.2450526    0.1520143  89.93  0.001326603    1.992    0.498
        26 -11.6956    186.3020    204.5039   1.0219012132e+02   5.9022611486e+00    0.2634532    0.2267028 -82.39  0.001468506    1.701    0.412
        27 -12.2554    164.8595    201.8981   1.0591277953e+02   1.0057593285e+01    0.5535495    0.3123405 -50.25  0.002828093    2.135    0.532
        28 -11.5181    162.7360    193.9910   1.0505696982e+02   1.1743646884e+01    0.3890437    0.3027551 -70.49   0.00203051    1.719    0.418
        29 -11.0297    148.9976    197.8523   1.0844266223e+02   1.3513746126e+01    0.2898532     0.184733 -73.01  0.001401728    2.464    0.594
        30 -11.1377     88.2334    197.4038   1.2082278140e+02   2.3418709773e+01    0.3911161    0.1440623 -70.77  0.001553969    3.615    0.723
        31 -10.8834    177.4984    198.0989   1.0281825126e+02   8.4347546480e+00    0.2147702     0.173383  55.06   0.00125698    1.342    0.255
        32 -11.3064    124.3098    197.2269   1.1338773352e+02   1.7835298156e+01    0.3060307    0.2279451  87.89  0.001507103    1.610    0.379
        33 -11.0273    112.6236    197.1950   1.1578834392e+02   1.9743076116e+01     0.295812     0.183514 -88.33  0.001474267    2.253    0.556
        34 -10.0051    193.6720    196.3474   9.9405124795e+01   5.8321075788e+00    0.1240054    0.1029891  74.83 0.0007049713    1.755    0.430
        35 -10.9903    186.4244    193.7064   1.0033340179e+02   7.5300655036e+00    0.2292529    0.1284284 -45.92  0.001129108    2.113    0.527
        36 -10.3582     77.5773    191.7996   1.2238584007e+02   2.6028703559e+01    0.1725569    0.1069562 -84.72 0.0009600213    1.699    0.411
        37 -10.6563    206.1739    191.3573   9.6161853238e+01   4.3576275298e+00    0.1821576    0.1534647   2.25 0.0008025526    1.138    0.121
        38 -10.3490    200.2934    191.6664   9.7320187728e+01   5.3572201093e+00    0.1194408    0.1050557  79.16 0.0003075197    1.638    0.389
        39 -10.9783    172.8909    191.1759   1.0255140828e+02   1.0382328642e+01    0.2045498    0.1760621  59.28  0.001231877    1.287    0.223
        40 -10.9738    138.9163    188.8740   1.0911653904e+02   1.6882790970e+01    0.3453726    0.1885331 -59.75  0.001628961    2.249    0.555
        41 -10.2327    210.6846    189.3470   9.4956551841e+01   3.8525652829e+00    0.1197227    0.1059892  83.63 0.0007047713    1.721    0.419
        42 -11.6289     86.8012    188.1143   1.2002999981e+02   2.5462518661e+01    0.3106239    0.1612583 -77.40  0.001490957    2.310    0.567
        43 -10.2634    192.6006    187.8183   9.8090428104e+01   7.3327800468e+00    0.1732598    0.1265859 -50.12 0.0009461718    1.709    0.415
        44 -10.7193    129.1809    187.5414   1.1095664045e+02   1.8822475652e+01    0.2389317    0.1885699 -61.64  0.001333667    1.398    0.285
        45 -10.7394    165.4836    186.6421   1.0325972981e+02   1.2499278054e+01    0.2763853    0.2117054  85.22  0.001229936    1.929    0.481
        46 -10.6343    156.2976    186.8380   1.0517440565e+02   1.4142703990e+01    0.2524547    0.1222543 -54.93  0.001083196    2.621    0.618
        47 -11.7572    120.2622    183.6981   1.1227584971e+02   2.1079907485e+01    0.5906999    0.2248814 -61.98  0.002210245    3.508    0.715
        48 -11.3309     94.9303    184.7631   1.1787695221e+02   2.4931602104e+01    0.4880491    0.1918441 -64.91  0.002056479    2.856    0.650
        49 -10.6656    204.1249    184.4849   9.5275336773e+01   5.7493558067e+00    0.1999035    0.1928288 -65.21  0.001039232    1.364    0.267
        50 -10.6472    108.7521    184.5323   1.1487355104e+02   2.2814312865e+01    0.2705594    0.1572904 -76.14  0.001290346    2.220    0.550
        51 -10.2935    183.3769    184.2295   9.9238422626e+01   9.6017170225e+00    0.1786173    0.1279353 -51.94 0.0008499583    1.720    0.419
        52 -11.0711    174.3962    183.4190   1.0088505148e+02   1.1403700309e+01     0.292537     0.243426 -73.44  0.001505124    1.611    0.379
        53 -10.9516     83.1090    181.6129   1.2002492262e+02   2.7318967601e+01    0.2246968    0.1595708 -84.51  0.001262096    1.411    0.291
        54 -11.5217    147.5655    179.7539   1.0579585169e+02   1.7021502744e+01    0.3779898    0.2320857 -56.35  0.001860466    1.898    0.473
        55 -10.9456    137.8895    178.6283   1.0767390087e+02   1.8988932452e+01    0.2579326    0.2021771 -65.89  0.001269141    1.445    0.308
        56 -10.7205    192.4294    177.7703   9.6250519878e+01   8.9643698438e+00    0.2418358    0.1315164 -43.70  0.001126428    2.061    0.515
        57 -11.4966     77.6144    175.7052   1.2049255307e+02   2.9327350498e+01    0.4524047    0.2036482  59.63  0.001940245    2.652    0.623
        58 -10.7946    183.1073    175.7351   9.7708829469e+01   1.1064440586e+01    0.2283574    0.1944876 -53.37  0.001097905    1.401    0.286
        59 -10.4668     88.4028    176.2338   1.1817567293e+02   2.7663147866e+01    0.1807533    0.1157871 -79.47  0.000953312    1.681    0.405
        60 -10.6205    105.4876    174.5251   1.1413641462e+02   2.5366763418e+01    0.2370511    0.1257743 -72.61  0.001036884    2.438    0.590
        61 -10.5943    177.3198    171.0953   9.7990986133e+01   1.2970385221e+01    0.3494346     0.241339 -73.43  0.001569589    2.524    0.604
        62 -10.3669    134.4915    170.5859   1.0704426919e+02   2.1168197281e+01    0.2732824    0.1375721 -52.15  0.001203904    2.144    0.534
        63 -10.0020    198.6615    170.3111   9.3579843598e+01   8.9929599178e+00    0.1310217    0.1113857  81.67  0.000704521    1.689    0.408
        64 -11.4716    121.2940    168.0248   1.0955539197e+02   2.4040048233e+01    0.4607118    0.2396851 -62.57  0.002018445    2.263    0.558
        65 -10.4592    168.1191    168.6798   9.9431160113e+01   1.5180847603e+01    0.2427485    0.1934988 -55.89  0.001313119    1.456    0.313
        66 -10.5534    149.5106    169.0292   1.0347226096e+02   1.8684267585e+01    0.2064305    0.1397944 -50.28  0.001034692    1.606    0.377
        67 -10.5504     88.2163    167.5310   1.1701951667e+02   2.9531709524e+01     0.250675    0.1756721 -68.15  0.001170065    1.409    0.290
        68 -10.1163    185.4082    167.1731   9.5576368701e+01   1.2079615092e+01    0.1878002    0.1330189 -51.55 0.0008662001    1.688    0.408
        69 -10.7004    192.5457    165.3088   9.3773545856e+01   1.1002666740e+01    0.2572375    0.1346915 -43.81  0.001134229    2.094    0.522
        70 -11.6025    139.2080    163.6326   1.0474820031e+02   2.1679382120e+01    0.5398228    0.2675268 -59.64  0.002180086    2.577    0.612
        71 -10.5494     98.5060    165.0536   1.1428598956e+02   2.8474595747e+01    0.2054298    0.1280045 -61.90  0.001044111    1.624    0.384
        72 -10.9172    213.5655    163.7594   8.9413242838e+01   7.1895815298e+00    0.2233826     0.176072  65.60  0.001186774    1.761    0.432
        73 -10.5402    159.5437    162.9099   1.0013584287e+02   1.7919521450e+01    0.3424779    0.1409755 -48.23      0.00131    2.672    0.626
        74 -11.0442     79.1524    162.7139   1.1843388831e+02   3.1896100191e+01    0.4071808    0.1956575 -86.92  0.001483778    3.715    0.731
        75 -11.8888    205.3628    162.0781   9.0612992916e+01   9.0366295371e+00    0.3156361    0.2404495 -34.04  0.001721476    1.356    0.263
        76  -9.2354    132.3122    163.3197   1.0624244073e+02   2.3022146049e+01    0.1369139    0.1116494  -2.26 0.0007037031    1.648    0.393
        77 -10.9814    177.7994    159.6597   9.5613104153e+01   1.4904873896e+01    0.4154171     0.196846 -48.76   0.00167104    2.460    0.593
        78 -10.4784    151.5012    160.0289   1.0132865403e+02   2.0041649542e+01    0.3098598    0.1404812 -53.41  0.001199116    2.608    0.617
        79 -10.9100     92.3513    159.0654   1.1479781227e+02   3.0732236814e+01    0.3314484    0.1607465 -60.96  0.001428392    2.056    0.514
        80 -11.5855    196.4903    156.8964   9.1250176836e+01   1.1645680221e+01    0.3735361    0.2669937 -46.24   0.00150856    1.571    0.363
        81 -10.9955    105.1009    156.9711   1.1143749295e+02   2.9138529127e+01    0.3865637    0.2239348 -70.11  0.001766026    2.022    0.506
        82 -10.9186    218.4015    157.2034   8.7146765535e+01   7.2887272567e+00    0.1916321    0.1252021 -42.61 0.0009515472    1.689    0.408
        83 -10.1733    188.4824    157.0349   9.2877953793e+01   1.3227384247e+01    0.2134742    0.1398429 -38.82  0.001009322    1.592    0.372
        84 -10.9207    167.8183    156.2384   9.7014613299e+01   1.7535301385e+01    0.3596116    0.2089893 -49.18  0.001610035    1.906    0.475
        85 -10.1932    157.4938    155.5089   9.9106519833e+01   1.9740721655e+01     0.252656    0.1379739 -56.93  0.001033207    2.328    0.570
        86 -11.0156    119.0172    154.1496   1.0764425694e+02   2.7341110027e+01    0.4286423    0.2038973 -62.30  0.001691637    2.570    0.611
        87 -11.6244    204.8615    154.6135   8.9134911782e+01   1.0357974178e+01    0.2768554    0.2051525 -40.16  0.001199729    1.431    0.301
        88 -11.1049     81.3438    153.7934   1.1661833871e+02   3.3545552402e+01    0.3814115    0.2157786 -84.23  0.001715448    2.273    0.560
        89 -10.3584    144.4053    154.2017   1.0176756919e+02   2.2577383076e+01     0.202851    0.1372486 -61.40 0.0009514948    1.735    0.424
        90 -10.8864    132.8997    151.8645   1.0395176154e+02   2.5265807796e+01    0.3972772    0.2040669 -57.93  0.001637371    2.249    0.555
        91 -10.5380     67.4007    153.1839   1.1989438636e+02   3.5611692022e+01    0.1919325    0.1123623 -80.66 0.0009541478    1.793    0.442
        92 -11.2529    190.2326    149.3995   9.0888860132e+01   1.4211337275e+01    0.3484803    0.2879109 -50.74  0.001864192    1.378    0.274
        93 -10.5705     98.3458    149.1844   1.1173120559e+02   3.1952649841e+01    0.4022041    0.1280884 -58.33  0.001397633    3.221    0.690
        94 -11.9896    200.3814    147.8328   8.8529662237e+01   1.2401189838e+01     0.425749    0.2349519 -39.98  0.001896068    1.858    0.462
        95  -9.7281    142.6430    148.3406   1.0098560528e+02   2.4111178573e+01    0.1530982    0.1137562  80.70 0.0001400728    1.819    0.450
        96 -11.0143     38.7799    146.6976   1.2598208744e+02   4.0421709240e+01    0.3629515    0.1478931 -89.68  0.001377471    3.593    0.722
        97 -11.6116    148.6735    142.6168   9.8391479190e+01   2.4072876567e+01    0.7939337    0.3192904 -49.15  0.002883245    2.658    0.624
        98 -11.4347    106.5701    143.5043   1.0867781980e+02   3.1834738988e+01    0.6932687    0.3072409 -63.39   0.00261218    2.747    0.636
        99 -10.8269     49.2418    154.5110   1.2439354210e+02   3.7543205284e+01    0.3119859    0.1462459  74.34  0.001294364    3.061    0.673
       100 -11.3265     55.2633    144.6363   1.2169357690e+02   3.9059583596e+01    0.4037268    0.2028793 -89.02  0.001754312    2.590    0.614
       101 -10.0847    208.6765    144.3070   8.6152613920e+01   1.1299904968e+01    0.1359826    0.1162108 -80.37 0.0005366845    1.645    0.392
       102 -10.5697    165.5626    142.7629   9.4626897908e+01   2.0564785742e+01    0.3601361    0.1441769 -44.92    0.0013033    2.608    0.617
       103 -11.3559     87.7534    142.1465   1.1314570946e+02   3.5200511290e+01    0.5340201    0.1711152 -61.05  0.001854608    3.247    0.692
       104 -11.3552    124.3865    140.9413   1.0379222234e+02   2.9185495015e+01    0.5787727    0.2580121 -58.87  0.002131589    2.720    0.632
       105 -10.7086    181.9765    140.8410   9.0682976694e+01   1.7474885977e+01    0.2688727     0.215749 -37.96  0.001227982    1.276    0.216
       106 -10.8631    219.8320    137.8094   8.2625567323e+01   1.0091317155e+01    0.3637643   0.09396016 -37.91  0.001131455    3.694    0.729
       107 -10.7096    172.1217    137.0495   9.1912340320e+01   2.0278495640e+01    0.3306863    0.1959976 -55.23  0.001372049    2.111    0.526
       108 -11.1065     22.6648    137.0356   1.2885147340e+02   4.4106259009e+01    0.3200017    0.1212589  84.07  0.001136701    4.337    0.769
       109 -10.4282    187.7111    134.5275   8.8048964146e+01   1.7405276409e+01    0.2719239    0.1310626 -38.92  0.001075732    2.094    0.523
       110 -10.1662    162.4892    135.0110   9.3561604744e+01   2.2724065256e+01    0.2320687    0.1477744 -42.65  0.001039063    1.609    0.379
       111 -11.1299    179.5716    132.5617   8.9280403718e+01   1.9524362088e+01    0.4070748    0.1450786 -40.04  0.001378098    2.846    0.649
       112 -10.4692    112.4932    132.6252   1.0503085885e+02   3.3199470249e+01    0.2987325    0.1997106 -87.06  0.001286749    2.200    0.546
       113 -11.0310    142.9414    130.0692   9.6940701505e+01   2.7827938832e+01    0.5429377    0.2174964 -46.16  0.001946432    2.537    0.606
       114 -11.4285    131.5945    129.4544   9.9552158054e+01   3.0258171114e+01      0.62896    0.2551939 -52.32  0.002235658    2.659    0.624
       115 -11.9146     83.0165    128.7267   1.1195431830e+02   3.8979769843e+01    0.8544494    0.2169897 -58.91  0.002656333    3.884    0.743
       116 -11.2296    204.8871    129.8175   8.3547404614e+01   1.4544517256e+01    0.2786629    0.1895723 -59.65  0.001237639    2.054    0.513
       117 -10.7843    193.0541    129.3691   8.5753359228e+01   1.7179123896e+01    0.2955556    0.2187986 -40.99  0.001314361    1.376    0.273
       118 -11.0177    168.6372    128.4001   9.0650787049e+01   2.2692770496e+01    0.4496849    0.1756335 -44.87  0.001564922    2.658    0.624
       119 -11.2132    152.7491    127.6823   9.4073438152e+01   2.6261994177e+01    0.6368166    0.1968235 -47.75  0.001934832    3.510    0.715
       120 -11.2237     72.7867    128.1400   1.1458838636e+02   4.0593063577e+01    0.4701862    0.1839397 -67.96   0.00172574    2.987    0.665
       121 -11.0440    212.3689    129.1984   8.1997965047e+01   1.3055502595e+01    0.2124669    0.1278739 -43.37 0.0009512634    1.738    0.425
       122 -11.9848     98.3461    125.3403   1.0719079002e+02   3.7308463938e+01    0.8637831    0.2909325 -59.47  0.002780489    3.495    0.714
       123 -11.3703     12.0080    128.0452   1.3059045518e+02   4.6964494609e+01     0.286726    0.1230279  89.35  0.001358728    2.414    0.586
       124 -10.1346    186.4862    128.5218   8.6883393022e+01   1.8765629685e+01    0.1495833     0.141707   9.30 0.0004756184    1.017    0.016
       125 -11.2170    179.9303    123.1493   8.6948224209e+01   2.1206176982e+01    0.4631155      0.26067 -30.51  0.001897275    1.956    0.489
       126 -10.9260    117.1438    123.4037   1.0183057226e+02   3.4378440033e+01     0.555721    0.2377161 -52.36  0.002085208    2.366    0.577
       127 -11.4932     58.7314    123.0541   1.1752944360e+02   4.3604536364e+01    0.5285144    0.2395837 -82.86  0.001820486    3.918    0.745
       128 -10.7786    188.7385    123.0900   8.5110945764e+01   1.9259898922e+01    0.3318875    0.1762408 -41.33  0.001354277    1.893    0.472
       129 -11.8640     42.7141    120.6262   1.2155312172e+02   4.5972156950e+01    0.7727942    0.2854233 -80.25  0.002496359    4.555    0.780
       130 -11.5281     27.8650    121.7109   1.2574714620e+02   4.7133483872e+01    0.5352655    0.2160188  77.34  0.001629523    6.082    0.836
       131 -10.6916    195.1083    121.4078   8.3423609375e+01   1.8148473355e+01    0.3110231    0.1893356 -51.37  0.001319358    1.947    0.486
       132 -10.6831    203.0026    121.3067   8.1867211911e+01   1.6421664388e+01    0.2109859     0.197063  28.47 0.0007659569    1.067    0.063
       133 -10.6162    172.5320    119.8130   8.7707421133e+01   2.3487485917e+01    0.3691144    0.1470937 -41.71  0.001290541    2.517    0.603
       134 -10.7749    158.4214    119.7668   9.0845837015e+01   2.6628794232e+01    0.4430988    0.1850106 -39.97  0.001574372    2.456    0.593
       135 -11.6430    141.4679    116.4161   9.4028723692e+01   3.0984211947e+01    0.8104855    0.2779858 -46.15   0.00263779    2.949    0.661
       136 -12.1352    197.9763    135.7037   8.6262358588e+01   1.4999562279e+01    0.5748767     0.212954 -38.59  0.002052285    2.691    0.628
       137 -10.8077    130.1649    116.9688   9.6978700032e+01   3.3220727550e+01    0.4292277    0.2045531 -49.25   0.00165623    2.123    0.529
       138 -11.0396      2.8693    117.1639   1.3187058334e+02   5.0008698260e+01    0.3052704    0.1146508  78.90  0.001213411    3.802    0.737
       139 -11.2745    220.0000    115.0096   7.7231957362e+01   1.3768999348e+01    0.2460803   0.07899324 -34.35 0.0008066522    2.972    0.663
       140 -10.3121    203.4814    115.4781   8.0344222083e+01   1.7324019187e+01    0.1478504    0.1413918  -8.70 9.612311e-05    1.018    0.018
       141 -11.0115    193.1553    113.9792   8.1964317253e+01   1.9911191739e+01    0.3765238    0.2156691 -35.60  0.001601147    1.725    0.420
       142 -10.7461    185.9547    114.7715   8.3612088865e+01   2.1402451360e+01     0.290028    0.2152283 -35.76   0.00139039    1.337    0.252
       143 -11.6780    108.4684    111.7229   1.0140584833e+02   3.8586222315e+01    0.7498913    0.2663031 -52.81  0.002542751    2.877    0.652
       144 -11.4952     78.5116    111.3540   1.0972346885e+02   4.3654749667e+01     0.652891    0.3121552 -73.23  0.002281908    3.416    0.707
       145 -11.8328     92.1807    109.3967   1.0538354295e+02   4.1961338386e+01    0.8831497    0.2504115 -54.06  0.002798592    3.420    0.708
       146 -11.0649    121.9868    110.5457   9.7500426823e+01   3.6251502295e+01    0.4924686    0.2127009 -46.71  0.001830547    2.275    0.560
       147 -10.9805    174.5558    110.2179   8.4834075749e+01   2.4853335377e+01    0.3834784    0.1512928 -36.56    0.0013056    2.603    0.616
       148 -11.0696    159.4523    109.9938   8.8125733811e+01   2.8339357643e+01    0.4193427    0.1510729 -40.15  0.001372034    2.794    0.642
       149 -11.2722     66.0365    109.3649   1.1292891482e+02   4.5858219899e+01    0.4499947    0.1794971 -66.08  0.001693883    2.780    0.640
       150 -11.6388     14.1414    110.1098   1.2805654771e+02   5.0857465973e+01    0.3600903    0.1787172 -87.91  0.001850351    2.014    0.503
       151 -10.6204    182.5859    108.2229   8.2626457177e+01   2.3374725412e+01    0.3001063    0.1421332 -41.50  0.001133611    2.102    0.524
       152 -10.9786    189.4779    106.9577   8.0900189555e+01   2.2010584751e+01    0.4041759    0.1472516 -36.75  0.001354605    2.700    0.630
       153 -10.9801    139.5127    103.1695   9.1087635909e+01   3.4150262869e+01    0.4997691    0.2478404 -45.95  0.001933008    2.026    0.506
       154 -11.9395     22.3589    101.8853   1.2458313233e+02   5.2129131125e+01    0.6280004     0.279969  74.88  0.002320459    4.390    0.772
       155 -11.2363    149.8528    100.8793   8.7944032288e+01   3.2316974945e+01    0.6270307    0.1894546 -45.51   0.00184533    3.469    0.712
       156 -11.5670    232.5132    102.5045   7.2098635633e+01   1.3062655600e+01    0.1430239    0.1311562 -16.89 0.0008104818    1.016    0.015
       157 -10.5889    166.6696    101.8337   8.4335575251e+01   2.8267044354e+01    0.3186836    0.1441989 -31.11   0.00109306    2.591    0.614
       158 -11.1187    128.3100    100.4262   9.3207650865e+01   3.7117798391e+01    0.4857255    0.2396369 -39.04  0.001869069    2.100    0.524
       159 -11.5431    246.5052    101.5018   6.9726682715e+01   1.0269307636e+01    0.1390222    0.1246995 -24.41 0.0001159922    1.014    0.013
       160 -10.8128    175.5834    100.7120   8.2104560358e+01   2.6392538423e+01    0.2991079    0.1507913 -32.54  0.001131116    2.093    0.522
       161 -10.3876    159.6735     99.4873   8.5270265242e+01   3.0341712009e+01    0.2908776    0.1424923 -39.10  0.001098345    2.035    0.509
       162 -10.9811     81.5889     98.6763   1.0593967288e+02   4.6089304077e+01    0.5299222    0.1779937 -58.28  0.001752347    3.278    0.695
       163 -12.1177    107.7736     96.4773   9.7725674430e+01   4.2068845936e+01    0.7043722    0.3229386 -53.53   0.00266261    2.318    0.569
       164 -11.3668     94.9531     94.5836   1.0092439971e+02   4.4811804130e+01    0.6402062    0.1937188 -48.17  0.002098086    3.075    0.675
       165 -11.7069     63.2854     95.3289   1.1076396534e+02   4.9452292646e+01    0.5350039    0.2749166 -76.38  0.002042129    3.103    0.678
       166 -11.0780    237.3309     94.3345   6.9356662440e+01   1.3282068722e+01    0.1469727    0.1065237  12.04 0.0007052164    1.729    0.422
       167 -10.4388    205.3058    104.3528   7.7201358856e+01   1.8819896073e+01    0.1565355    0.1149474   9.23 0.0004620836    1.712    0.416
       168 -10.8177    176.6944     92.4494   7.9616432606e+01   2.7641318281e+01    0.2897781    0.1393854 -35.74  0.001086999    2.068    0.517
       169 -10.8749    138.4226     90.2482   8.7769414199e+01   3.7007326100e+01    0.4633242    0.1822925 -42.81  0.001593867    2.511    0.602
       170 -11.3894    124.5663     88.0479   9.0732169223e+01   4.0471689222e+01     0.733132    0.2978577 -38.27  0.002551232    2.572    0.611
       171 -12.0162     44.7193    101.5048   1.1777500407e+02   5.0196256154e+01    0.5998167    0.3045562  76.70   0.00214195    4.302    0.768
       172 -11.3823     85.9579     85.0857   1.0108655857e+02   4.8416050809e+01     0.589734    0.2344384 -56.58  0.002086709    2.882    0.653
       173 -11.2925     48.3342     84.2693   1.1306879607e+02   5.3756451523e+01    0.3292365    0.2027297  82.10   0.00147434    2.738    0.635
       174 -11.5144    104.2501     81.3409   9.4467616013e+01   4.5957812253e+01     0.694504    0.2482954 -48.78  0.002356948    2.847    0.649
       175 -10.3520    158.3866     81.7760   8.0526867332e+01   3.3984251581e+01    0.2252443    0.1481975 -24.82 0.0009544888    1.699    0.411
       176 -10.9944    140.5842     81.6737   8.4707501003e+01   3.8191426472e+01    0.3137448     0.149997 -34.51  0.001157587    2.196    0.545
       177 -11.3269     24.1830     80.3902   1.2038650852e+02   5.6874894769e+01    0.3140938    0.1729858  89.12  0.001495416    2.539    0.606
       178 -11.4014     34.3466     88.7162   1.1861662918e+02   5.4142687329e+01     0.457971    0.2040123 -77.17   0.00188546    2.868    0.651
       179 -10.4900     74.2442     80.2440   1.0347557445e+02   5.1307423275e+01    0.2262929    0.1109471 -61.58 0.0008940297    2.450    0.592
       180 -10.2134    150.0000     79.0005   8.1628752979e+01   3.6495899958e+01    0.2594542   0.08746563 -37.29 0.0008039532    2.953    0.661
       181 -10.3777    164.6112     92.2336   8.2147800574e+01   3.0563244874e+01    0.2228163    0.1479439 -25.70 0.0009491762    1.674    0.403
       182 -10.2681    211.6866     75.6452   6.8553207412e+01   2.2019272793e+01    0.1541913    0.1137083  15.64 0.0006927607    1.736    0.424
       183  -9.7257    157.3214     75.3267   7.8839362765e+01   3.5404860391e+01    0.1612422    0.1206202  14.89 0.0006770131    1.686    0.407
       184 -10.8801    127.8563     72.4026   8.5101945638e+01   4.2833175281e+01    0.6049861    0.2138261 -33.58  0.001876621    3.288    0.696
       185 -10.3672    140.3871     73.7793   8.2340884942e+01   3.9719375722e+01    0.2251983    0.1456661 -25.30 0.0009551246    1.729    0.422
       186 -11.3885     81.8099     71.2054   9.8367768845e+01   5.2052464880e+01    0.5945322    0.1965212 -51.77  0.001998166    3.202    0.688
       187 -10.8127     94.6125     69.9308   9.3877187386e+01   5.0094903212e+01    0.4468485    0.1692184 -52.82  0.001459193    3.369    0.703
       188 -11.3385     62.5037     70.5149   1.0468481381e+02   5.5069548482e+01    0.2646185    0.1021074 -43.46  0.001043552    2.412    0.585
       189 -11.0994     51.0276     69.0547   1.0832526663e+02   5.6818778670e+01    0.3780425    0.1623792 -66.04  0.001396968    3.330    0.700
       190 -10.2251    203.5311     65.4861   6.7098530388e+01   2.5565506961e+01    0.1464636    0.1427297 -40.83 0.0002350608    1.007    0.007
       191 -10.2982    121.0000     63.9960   8.4209209096e+01   4.5907091019e+01    0.2544619   0.08359069 -38.08 0.0008097864    2.994    0.666
       192 -10.7353     73.0286     59.2666   9.7521804426e+01   5.5877215251e+01    0.3461217    0.1629873 -54.92  0.001397477    2.492    0.599
       193 -11.2945    157.0084    248.8195   1.1381467914e+02   4.4073945727e+00    0.1912595    0.1071248  56.55 0.0008907535    1.994    0.499
       194 -10.8386     92.0000     48.9945   8.7520449836e+01   5.4539269694e+01     0.394014   0.07634971 -39.44  0.001050938    4.931    0.797
       195  -9.9706    100.5153     54.4651   8.6835991677e+01   5.1917636125e+01    0.1447035    0.1331209  -7.17 -1.677473e-05    1.022    0.021
