#   1 NUMBER                 Running object number                                     
#   2 MAG_AUTO               Kron-like elliptical aperture magnitude                    [mag]
#   3 X_IMAGE                Object position along x                                    [pixel]
#   4 Y_IMAGE                Object position along y                                    [pixel]
#   5 X_WORLD                Barycenter position along world x axis                     [deg]
#   6 Y_WORLD                Barycenter position along world y axis                     [deg]
#   7 A_WORLD                Profile RMS along major axis (world units)                 [deg]
#   8 B_WORLD                Profile RMS along minor axis (world units)                 [deg]
#   9 THETA_WORLD            Position angle (CCW/world-x)                               [deg]
#  10 FWHM_WORLD             FWHM assuming a gaussian core                              [deg]
#  11 ELONGATION             A_IMAGE/B_IMAGE                                           
#  12 ELLIPTICITY            1 - B_IMAGE/A_IMAGE                                       
         1 -15.5734      6.1587     67.4628   1.0981500083e+02   6.1552443403e+01     2.048989     1.038061 -63.78  0.009707113    1.612    0.380
         2 -15.5044    218.3126     16.3115   3.6344821741e+01   2.9424437182e+01     1.872323     1.506359 -27.45   0.01191199    1.408    0.290
         3 -14.0661    189.1991     26.3732   4.2009571114e+01   3.5059054746e+01     1.527605    0.6381682 -55.85    0.0057851    3.140    0.682
         4 -14.1948    187.2694     11.3691   3.8257083466e+01   3.7119316235e+01     1.153205    0.6650813 -52.84  0.005959563    1.783    0.439
         5 -14.7330    122.2030     37.3659   5.7380942755e+01   4.9912338645e+01      1.41277    0.6600158  40.98  0.004402684    2.160    0.537
         6 -14.6234     41.3459      5.8573   7.0604025493e+01   6.9323283048e+01      2.52767      1.15605  -4.63  0.009859446    3.957    0.747
         7 -13.1726      8.2447      2.6754   8.6523559967e+01   7.3616477731e+01     0.546714    0.4244089  44.29  0.002434904    2.442    0.590
         8 -13.5472      2.6736     10.7851   9.3845623833e+01   7.2803698273e+01    0.7599705    0.4040832 -50.33  0.004584659    1.881    0.468
         9 -16.0091     12.2481     21.8702   9.3202236151e+01   7.0273355000e+01      1.89532    0.9269846 -27.59   0.01003428    1.791    0.442
        10 -14.2649     24.9614     13.9535   8.2807404506e+01   7.0355243799e+01    0.7717468    0.3284931  31.75  0.004009062    2.431    0.589
        11 -12.5152     60.1399     17.9667   6.8634208484e+01   6.4924232164e+01    0.4143683     0.213934 -26.98  0.002076402    1.880    0.468
        12 -15.5152     97.5657     12.3519   5.4042799142e+01   5.8271830779e+01     1.792217    0.7473077  50.34  0.006660981    2.009    0.502
        13 -12.2709    232.5053      2.1826   3.2051590318e+01   2.7800746367e+01     0.420029    0.2345063  59.93  0.002065601    1.911    0.477
        14 -15.0545    146.9102     29.6546   4.9488699056e+01   4.4980540435e+01     1.954634    0.9910031  61.61  0.008705431    1.837    0.456
        15 -11.7857     46.5952     13.3412   7.2048847440e+01   6.7644890490e+01    0.2652925    0.2101838  25.83  0.001487623    1.270    0.213
        16 -11.5862    153.0589      8.9374   4.1917819779e+01   4.5609521812e+01    0.2053854    0.1823433  59.96 0.0009077509    1.043    0.042
        17 -11.5298     68.0050      9.6109   6.1785924595e+01   6.4491457189e+01     0.272916     0.110177  49.58  0.001231094    2.361    0.577
        18 -11.1535     58.9404      6.9871   6.3830871118e+01   6.6382884915e+01    0.1680928     0.158573 -66.36  0.001135506    1.711    0.415
        19 -13.0552    120.2667     26.5346   5.3942484313e+01   5.1690804301e+01     1.085723    0.5628095  51.53  0.005019792    1.710    0.415
        20 -11.7464     78.0676      2.7707   5.5341217626e+01   6.3198768568e+01    0.3427777    0.2108789  38.44  0.001597316    1.359    0.264
        21 -11.0524     83.0146      1.0000   5.3115011296e+01   6.2341160005e+01    0.2597814    0.1311671  53.60   0.00132604    1.733    0.423
        22 -12.2742     61.7338      2.0364   6.0347048585e+01   6.6374299611e+01    0.3210348    0.1979378  50.63  0.001177942    1.673    0.402
        23 -12.2071    118.6604      2.8669   4.5623613332e+01   5.4332652180e+01    0.3992707    0.2691712  89.54   0.00210588    1.881    0.468
        24 -14.6943    166.5777     29.5461   4.6096111151e+01   4.0182680269e+01      1.11682    0.9201699  66.80   0.00405815    1.133    0.118
        25 -12.3497     71.3429     17.5124   6.4260360280e+01   6.3009505932e+01    0.3825615    0.2338635 -21.00   0.00129511    1.620    0.383
        26 -11.5949    201.0476    192.0181   8.0551454685e+01   4.2582019593e+00    0.2792461     0.191986 -25.74  0.001464937    1.432    0.302
        27 -12.8017     57.5644    246.9059   1.1801046997e+02   1.6122681602e+01    0.4385501    0.3543492  21.54  0.003075782    1.643    0.391
        28 -11.9896      2.8523    249.7525   1.2771364846e+02   2.1401386598e+01    0.3112862    0.1710222  52.22  0.001770168    1.396    0.284
        29 -13.7324      8.9458    245.6381   1.2653499119e+02   2.1578586942e+01    0.7193067     0.346423  57.25  0.003517073    1.587    0.370
        30 -11.8399     49.0288    181.6194   1.1389194110e+02   3.0768076140e+01    0.3654869    0.2198379 -49.56  0.001908391    1.867    0.464
        31 -12.0907    198.6090    181.7569   7.9012766116e+01   6.4867732403e+00    0.2651363    0.2359108  42.04  0.001310717    1.298    0.229
        32 -12.7134     85.2758    180.5398   1.0501228222e+02   2.6323585644e+01    0.3440202    0.2583609  77.47   0.00183283    1.449    0.310
        33 -11.9997     95.6569    171.2177   1.0097481551e+02   2.6937940844e+01    0.2489591    0.2156816  35.24  0.001387123    1.190    0.160
        34 -13.1012    124.6304    167.9951   9.3097444311e+01   2.2839928603e+01    0.7006583    0.3075837 -52.24  0.002677024    2.311    0.567
        35 -11.8239     77.3847    156.9320   1.0336681602e+02   3.3077739615e+01    0.3869228    0.2548075  26.91  0.001403338    1.722    0.419
        36 -13.1948     73.8435    153.1354   1.0369060447e+02   3.4498869128e+01    0.6772909    0.5085455  28.91  0.002917187    1.472    0.321
        37 -11.3407    112.4052    157.2202   9.4125891409e+01   2.7477692167e+01    0.2131992    0.1425218 -65.94 0.0009534879    1.676    0.403
        38 -11.6582    211.6743    154.6699   7.0665230720e+01   9.0148076988e+00    0.1512722      0.10615  -1.37 0.0007050653    1.704    0.413
        39 -11.8186     85.8670    152.7548   1.0035945426e+02   3.2860894494e+01    0.3904259    0.1931825 -51.92  0.001634409    1.919    0.479
        40 -11.7564    103.3125    149.9905   9.5108615420e+01   3.0749813780e+01    0.3815021    0.2555538 -35.38  0.001726458    1.712    0.416
        41 -12.8187     61.0513    147.9359   1.0634735056e+02   3.7451097780e+01    0.4011986     0.278999 -29.29  0.001251309    1.854    0.461
        42 -12.9819     40.5916    195.4313   1.1719005470e+02   2.8564495322e+01    0.3971028    0.1873026 -89.49  0.001843074    2.362    0.577
        43 -10.7280     62.8597    138.8105   1.0432006077e+02   3.9484949548e+01    0.1913368    0.1563226  86.66 0.0005018782    1.292    0.226
        44 -12.1591     45.3850    135.0698   1.0874458054e+02   4.2430621781e+01    0.3348419    0.3067652 -58.63  0.002086706    1.093    0.085
        45 -13.8612    234.0407    128.0084   6.0657393350e+01   9.5203394979e+00    0.6796557    0.4381151 -45.11  0.003408687    1.505    0.336
        46 -11.8071    133.0876    128.1213   8.2200947925e+01   3.0357960015e+01     0.689751    0.2226532 -42.99  0.002094161    3.119    0.679
        47 -13.5152    120.3574    102.3628   7.8901656032e+01   3.8691750522e+01    0.7244396    0.3453574  37.49  0.002691938    2.247    0.555
        48 -14.3727    105.3346    121.6739   8.8292236238e+01   3.7175770300e+01     1.618415     1.169455  29.80  0.007619624    1.490    0.329
        49 -14.9533    106.8325    105.5003   8.3691380126e+01   4.0647973754e+01     1.749079      1.43657   6.97  0.008133205    1.377    0.274
        50 -11.5050     65.7117    126.6177   1.0122310241e+02   4.2143077010e+01    0.2700256    0.2471716  79.85   0.00152986    1.168    0.144
        51 -11.6719     59.8915    125.4586   1.0276524288e+02   4.3166120645e+01    0.3766044    0.2111801   8.23  0.001271907    2.823    0.646
        52 -13.1583     28.7026    122.5066   1.1174411898e+02   4.7102831904e+01    0.3736684    0.2604593 -67.44  0.002135281    1.199    0.166
        53 -11.2971    181.4868    121.4830   6.8965510892e+01   2.1477192227e+01    0.1533626    0.1461008 -29.76 3.849818e-05    1.035    0.034
        54 -11.9603     78.1925    110.8290   9.3903877124e+01   4.4255577276e+01    0.3040954    0.2358947  33.89  0.001084134    1.389    0.280
        55 -12.1368     88.1453    109.7104   9.0497278308e+01   4.2963415177e+01    0.4602886    0.2812364 -61.19  0.001829571    1.789    0.441
        56 -12.5791     77.0858    117.2122   9.5739468043e+01   4.2878603978e+01    0.5159163     0.406801 -87.48    0.0026022    1.552    0.356
        57 -13.1004     84.9773    115.3701   9.2865709558e+01   4.2123305297e+01    0.7502005    0.4130858  33.82  0.002464559    1.946    0.486
        58 -11.8696      3.9281    119.8516   1.1872385050e+02   4.9458288174e+01    0.4967183    0.1679087  14.80  0.002133137    3.906    0.744
        59 -14.8308     26.3034     94.0812   1.0766289936e+02   5.4175355694e+01     1.417945     1.130261   8.21  0.008791463    1.475    0.322
        60 -14.2843     11.1364    102.7531   1.1428292576e+02   5.3136929475e+01    0.7237204    0.6742496 -32.81   0.00440242    1.231    0.188
        61 -11.0415    121.3148    112.4181   8.1375674470e+01   3.6271906304e+01    0.2123413    0.1499083  50.70 0.0009433444    1.555    0.357
        62 -12.1836     61.9733    109.0366   9.8711332843e+01   4.6934317793e+01     0.600951    0.3629706 -71.41  0.002697635    1.926    0.481
        63 -11.5532    176.8075    110.4357   6.7133953940e+01   2.4681847871e+01    0.3925163    0.2734011  -7.35   0.00165371    1.984    0.496
        64 -13.6719      2.1930     97.2356   1.1640654965e+02   5.4917525396e+01    0.8687944    0.2299228 -72.55   0.00327739    3.193    0.687
        65 -11.3182     88.5507    249.4893   1.1237328543e+02   1.1697724361e+01    0.2525474    0.0980229  37.11  0.001214925    2.179    0.541
        66 -13.4154      6.1707     43.7978   1.0394975014e+02   6.6564173922e+01    0.8054119    0.3519708  16.14  0.004251525    2.574    0.612
        67 -12.1492    136.2745    103.0972   7.4772980505e+01   3.5186688229e+01    0.5833621    0.2309912  44.42  0.001981949    2.576    0.612
        68 -12.4726     61.5625     98.2002   9.6306943129e+01   4.9578587819e+01    0.4663108    0.2986808 -81.33  0.001505798    2.391    0.582
        69 -12.2942     52.4789     98.0200   9.9379626302e+01   5.0727735768e+01     0.813207    0.3922398 -17.86  0.002464331    5.158    0.806
        70 -12.6184     49.4284     94.5833   9.9634691070e+01   5.1885436400e+01    0.7418481    0.4353083 -41.60  0.003549032    1.565    0.361
        71 -12.5240    249.3543     99.0588   5.1820889918e+01   1.1406133958e+01    0.3153276    0.1398021 -41.99  0.001393234    1.929    0.482
        72 -12.2692    136.7770     95.4775   7.2476196848e+01   3.6659049750e+01    0.4779716    0.3235024  59.00  0.001554528    1.753    0.430
        73 -10.7592     67.4972     97.4954   9.4112826709e+01   4.8953930375e+01    0.1449284    0.1296086 -39.75 0.0008106746    1.001    0.001
        74 -11.9691     42.9143     91.0946   1.0112542517e+02   5.3397695981e+01    0.3918683    0.2509059 -76.08  0.001118413    1.907    0.476
        75 -11.9019     90.4672     88.2673   8.3898423936e+01   4.7453897516e+01    0.4331397    0.3244191  50.86   0.00212571    1.573    0.364
        76 -11.4733     34.3348     86.8845   1.0326390063e+02   5.5198673014e+01    0.2360325    0.1841309 -11.35  0.001024048    1.405    0.288
        77 -12.6703    188.2302     84.4302   5.7923041168e+01   2.6877082683e+01    0.7239605    0.3161004  41.69  0.002310946    2.776    0.640
        78 -12.0208    149.2877     85.1012   6.6321435201e+01   3.5868753000e+01    0.5346956    0.2991458  33.45  0.002061993    2.199    0.545
        79 -13.1440    237.2020     80.2332   4.9166375916e+01   1.6759834987e+01    0.4836805    0.3137971  80.05  0.002408043    2.029    0.507
        80 -13.7494    161.0422     80.7982   6.2379558128e+01   3.3910726682e+01     1.846155     1.171076   3.87  0.006782373    2.865    0.651
        81 -14.6049    169.4424     77.0979   5.9540010111e+01   3.2569987998e+01     1.814507      1.31178 -74.81  0.008153412    1.882    0.469
        82 -13.4624     66.1213     48.9918   7.9386844348e+01   5.9269903893e+01    0.7164053     0.515431 -31.92  0.001614013    1.279    0.218
        83 -13.6384     60.4126     60.6025   8.5779920708e+01   5.7948109986e+01     2.027613     1.048911 -10.48  0.006768813    4.245    0.764
        84 -13.7481     87.5930     65.3200   7.7538340416e+01   5.2654798410e+01     1.488071    0.8315216 -16.32  0.004506662    2.797    0.642
        85 -12.9918     70.7658     75.5878   8.6789059307e+01   5.3381850587e+01    0.5911387    0.4461572 -18.29  0.002339167    1.358    0.263
        86 -12.1586     77.1152     73.8518   8.3984263415e+01   5.2755728665e+01    0.5090299    0.2926839 -35.57  0.001471245    1.682    0.405
        87 -13.3366     55.3371     82.0178   9.4299891676e+01   5.4088498451e+01     0.582187    0.4435822 -23.49  0.002597729    1.304    0.233
        88 -14.2298     60.9402     75.7739   9.0434517909e+01   5.4741268289e+01    0.8457631    0.6974421 -52.81  0.001519707    1.250    0.200
        89 -13.0460    213.0995     78.4667   5.2174739904e+01   2.2198892969e+01    0.9307141    0.5549009  83.93  0.003852883    2.620    0.618
        90 -12.8782    135.2202     80.1135   6.8301104940e+01   4.0026996320e+01    0.7038109    0.3955842  44.55  0.002680474    1.781    0.438
        91 -11.9983    114.1531     80.2014   7.4101619047e+01   4.4589363240e+01     0.394296    0.3286171 -48.82  0.000964554    1.274    0.215
        92 -14.3641     17.9797    110.9882   1.1332344435e+02   5.0723722883e+01    0.8711835    0.6261373 -47.85  0.003756422    1.278    0.218
        93 -10.5822     38.8174     80.3655   1.0003249501e+02   5.6279537318e+01    0.1661203    0.1206322  -2.68 0.0002873725    1.553    0.356
        94 -11.7750     42.0807     76.4747   9.7774157099e+01   5.6827533105e+01    0.2941043     0.215114 -52.25  0.001403863    1.218    0.179
        95 -11.1075     27.3755     77.2024   1.0363279811e+02   5.8007682770e+01    0.2301312    0.1503014 -64.95 0.0007963067    1.465    0.317
        96 -12.3628    218.0199     74.4954   5.0453708511e+01   2.1738261584e+01    0.3286633    0.2778082  80.06  0.001742655    1.276    0.216
        97 -12.2155    214.6600     71.8924   5.0297694531e+01   2.2889438647e+01    0.3444139    0.3130302  20.98  0.001575898    1.289    0.224
        98 -10.9783     22.9664     75.4944   1.0494111758e+02   5.8730833384e+01    0.1639852    0.1245888   6.41 0.0003355344    1.500    0.333
        99 -13.6145    199.3116     69.5589   5.2050366463e+01   2.6752758880e+01    0.7240088    0.4863017  46.09  0.002407544    1.616    0.381
       100 -12.0331    199.6534     62.3893   5.0113159338e+01   2.7776350145e+01    0.3209147     0.263797 -22.25 0.0009984734    1.319    0.242
       101 -11.9740    241.6151     71.2597   4.6541634206e+01   1.7217282504e+01    0.3484125     0.221787 -79.31  0.001713017    2.108    0.526
       102 -13.3747    133.4790     65.8791   6.4262833713e+01   4.2984392495e+01    0.8445655    0.6895995  -4.52  0.003133641    1.353    0.261
       103 -12.4908     37.7715     68.2042   9.7180683947e+01   5.9075749401e+01    0.7064123     0.254643  26.21  0.002934846    3.042    0.671
       104 -11.5501     43.3058     64.8898   9.3970277068e+01   5.9207606517e+01    0.2075237    0.1652641 -31.17 0.0005745487    1.061    0.058
       105 -11.5516    100.3671     64.8268   7.3219363144e+01   5.0320671071e+01    0.3493874    0.2453694 -13.04  0.001646965    1.643    0.391
       106 -12.5102     79.4991     60.9809   7.8826599282e+01   5.4898441735e+01    0.5076801    0.4363065 -27.46  0.002287795    1.101    0.092
       107 -12.9786     82.4754     54.6224   7.5502712610e+01   5.5533501569e+01    0.4938975    0.3500002 -19.96  0.001562121    1.418    0.295
       108 -11.5675     77.7115     54.0012   7.6955182133e+01   5.6479508299e+01    0.3206306    0.2561212 -35.88 0.0009582294    1.247    0.198
       109 -13.8601    178.1233     57.3607   5.2256949371e+01   3.3658313811e+01     0.889924    0.6370071 -48.56  0.002911008    1.424    0.298
       110 -12.3301     24.6932     60.0089   1.0026859007e+02   6.1989810219e+01    0.3794828    0.1855142 -50.10  0.001939236    1.616    0.381
       111 -10.9126     38.6364     60.2882   9.4467956150e+01   6.0661953010e+01    0.1876783    0.1591575  85.12  0.001105083    1.786    0.440
       112 -14.5451    119.6484     54.4486   6.4033289023e+01   4.8011768764e+01    0.9506833    0.7025588  29.99  0.002329125    1.383    0.277
       113 -10.9008     47.3287     56.6824   8.9686796397e+01   6.0424786591e+01    0.1910416    0.1652384  82.33  0.001110096    1.822    0.451
       114 -12.4249    247.4936     53.9992   4.2005659779e+01   1.8487128720e+01    0.5192097    0.2835303 -51.83  0.002573259    1.674    0.403
       115 -12.5948    249.0102     48.9926   4.0754621102e+01   1.8858456220e+01    0.4253453    0.2738244 -49.49  0.002445454    1.332    0.249
       116 -11.6091    230.8056     55.3838   4.4172429160e+01   2.1782456293e+01    0.3703537    0.1288995  65.61  0.001423338    3.192    0.687
       117 -12.4892    135.5126     50.5129   5.8735511994e+01   4.4964075581e+01    0.5295822    0.3225605  30.94  0.002205335    1.943    0.485
       118 -13.7381    103.0452     50.5510   6.7351506587e+01   5.2221668190e+01    0.9059371    0.6932362 -72.80 0.0006120196    2.101    0.524
       119 -11.9703     97.9648     50.4796   6.8875659873e+01   5.3275661404e+01    0.3990885    0.3022847  76.59   0.00174216    2.118    0.528
       120 -11.2709     22.8280     50.3167   9.8207132395e+01   6.4141739385e+01    0.2413318    0.1445661   1.67 0.0009928372    1.855    0.461
       121 -13.1309    158.0792     44.2556   5.2004287249e+01   4.0410953955e+01    0.7058837    0.4950439  32.68  0.003319003    1.626    0.385
       122 -13.3466     28.4417    246.1318   1.2321654855e+02   1.9546899321e+01    0.4194722    0.2678265  64.93  0.002953255    1.228    0.185
       123 -11.7576     40.0234    243.5225   1.2099303736e+02   1.8779844607e+01    0.2900172    0.1621737 -89.91  0.001799153    1.741    0.425
       124 -13.0011    170.8182    242.4648   9.5257039080e+01   8.3465485687e-01    0.2716328    0.1786679 -48.25  0.001581442    1.882    0.469
       125 -13.5053    139.7212     22.1015   4.8351073866e+01   4.7564349571e+01    0.9326329    0.2868072  60.45  0.002700604    2.809    0.644
       126 -12.7866    109.7386     42.3305   6.2412919403e+01   5.2035562904e+01    0.5006033    0.2358523  48.89  0.001243147    1.997    0.499
       127 -14.1896     96.2310    238.9704   1.0982082667e+02   1.2540172203e+01    0.7201691    0.4780464  51.21  0.003622401    1.309    0.236
       128 -10.7029     55.3343     41.0795   8.0614995177e+01   6.2254126268e+01    0.1792793    0.1438106 -21.97 0.0004293161    1.096    0.088
       129 -12.6848     75.9858     37.3592   7.1131906410e+01   5.9515860875e+01    0.3514956    0.2572949  39.82 0.0008885178    1.389    0.280
       130 -12.1743     69.5479     36.5901   7.3177255292e+01   6.0754430038e+01    0.4341049    0.2210719  30.05  0.001098569    2.042    0.510
       131 -13.5456    242.0623     35.0877   3.8385872656e+01   2.2084367084e+01     0.731567    0.4746371  76.08  0.002825545    1.582    0.368
       132 -12.7786    132.1733     32.9664   5.3552355968e+01   4.8134059190e+01    0.4963656    0.3512411  26.83  0.002097592    1.550    0.355
       133 -10.9678    147.4840    239.4675   9.9504390583e+01   4.8659153495e+00    0.1266725    0.1063197  35.74  0.000809192    1.043    0.041
       134 -12.0084     24.7312    217.6973   1.2218003685e+02   2.5455420103e+01    0.4811892    0.4309871 -88.68  0.003678679    1.257    0.204
       135 -11.2918     14.5941    224.0221   1.2447263443e+02   2.5164389022e+01    0.3570409    0.2050968  74.09   0.00167254    1.453    0.312
       136 -13.5738     25.8564    227.2805   1.2257428869e+02   2.3413542791e+01    0.6239901    0.3210892 -59.96  0.003655121    2.180    0.541
       137 -13.0806     20.7370    225.3700   1.2341310131e+02   2.4304577494e+01    0.3942575    0.3604946  43.23  0.002566624    1.402    0.287
       138 -12.4645     46.2877     33.7276   8.1475421019e+01   6.4725308099e+01    0.4757136    0.2994557 -21.35  0.002641646    1.476    0.323
       139 -13.0064     56.2077     27.4866   7.4545232186e+01   6.4270453013e+01    0.6469496    0.2968038  40.82  0.002145492    2.255    0.556
       140 -12.8474     67.9033     24.7516   6.8743040666e+01   6.2726459064e+01    0.6021702    0.3245467  40.48  0.003058642    1.761    0.432
       141 -11.0355     97.9431     27.1378   5.9916384923e+01   5.6587153538e+01    0.1985758    0.1877503  64.40  0.001224993    1.281    0.219
       142 -12.2070     46.4024     21.0695   7.5834319471e+01   6.6640874053e+01    0.3350897    0.2343732  -6.33 0.0008276672    1.275    0.215
       143 -11.1675     53.4197     20.0390   7.2325947884e+01   6.5739859477e+01    0.3964034    0.1506053  28.78  0.001567872    3.196    0.687
       144 -13.4048     66.2876    223.3352   1.1433268829e+02   1.9582707568e+01      0.70581    0.5459065  37.01  0.004571335    1.325    0.245
       145 -14.0166     63.2167    214.6416   1.1413974822e+02   2.1756940602e+01    0.8451687    0.4680105  44.89  0.004629286    1.602    0.376
       146 -13.4441     95.7488    218.7281   1.0764938563e+02   1.6507133607e+01    0.5778029    0.2415518  38.20  0.002604356    2.116    0.527
       147 -13.0655     10.3084    211.3371   1.2456565801e+02   2.8127276824e+01    0.6680741    0.2651511  39.84  0.003683055    2.224    0.550
       148 -10.8565    136.5424    211.4869   9.7762487361e+01   1.1622752233e+01    0.1345666    0.1219256  36.93  0.000164608    1.014    0.014
       149 -14.9163    212.7812     41.1840   4.2904102813e+01   2.7710670100e+01     2.416206    0.7486576  71.64  0.007853848    4.255    0.765
       150 -11.8912     72.2507    207.0395   1.1140877102e+02   2.2203689012e+01    0.2966965    0.2634979  57.13  0.001940522    1.084    0.077
       151 -12.3796     41.2287    206.1155   1.1799065503e+02   2.6158692116e+01    0.2336804    0.1421469  79.72  0.001331769    1.579    0.367
       152 -12.4602     57.3432    203.1843   1.1426770080e+02   2.4929929813e+01    0.4797434    0.2411903 -86.01  0.002257699    2.301    0.565
       153 -12.6786     17.0154    194.9919   1.2219303555e+02   3.0997414369e+01    0.8754455    0.2838003 -74.63  0.003980297    2.617    0.618
       154 -13.5876     29.9375    169.1746   1.1712930128e+02   3.5673828663e+01    0.8049522    0.6611563 -61.97   0.00264341    1.242    0.195
       155 -13.2673     22.1571    181.2979   1.2003884687e+02   3.3586352532e+01    0.6665056    0.3733803 -56.95  0.002766661    1.818    0.450
       156 -14.8349      8.3370    183.5168   1.2322782140e+02   3.4270715268e+01     1.057078    0.9035975  82.99  0.007766235    1.121    0.108
       157 -14.9753     15.9167    175.6239   1.2097695265e+02   3.5428142414e+01      2.15559    0.9498273  60.94   0.01040851    2.394    0.582
       158 -11.9871    163.5943    194.8022   8.8990106511e+01   1.0253065867e+01    0.1933002    0.1365619 -56.62 0.0009591117    1.721    0.419
