#   1 NUMBER                 Running object number                                     
#   2 MAG_AUTO               Kron-like elliptical aperture magnitude                    [mag]
#   3 X_IMAGE                Object position along x                                    [pixel]
#   4 Y_IMAGE                Object position along y                                    [pixel]
#   5 X_WORLD                Barycenter position along world x axis                     [deg]
#   6 Y_WORLD                Barycenter position along world y axis                     [deg]
#   7 A_WORLD                Profile RMS along major axis (world units)                 [deg]
#   8 B_WORLD                Profile RMS along minor axis (world units)                 [deg]
#   9 THETA_WORLD            Position angle (CCW/world-x)                               [deg]
#  10 FWHM_WORLD             FWHM assuming a gaussian core                              [deg]
#  11 ELONGATION             A_IMAGE/B_IMAGE                                           
#  12 ELLIPTICITY            1 - B_IMAGE/A_IMAGE                                       
         1 -13.9058    218.3615      7.9444   3.7189927486e+01   2.9676319141e+01     2.594054     1.566248  37.01   0.01225816    2.487    0.598
         2 -13.2051    177.6740     52.5488   5.4337342168e+01   3.4024681002e+01     1.955873     1.329508  23.96  0.005493881    2.049    0.512
         3 -13.2778    192.3853     39.7955   4.8382447744e+01   3.2157670738e+01     1.018774    0.8576689 -30.43  0.003835366    1.246    0.197
         4 -12.8899    197.8612     33.4863   4.5909205862e+01   3.1630298987e+01    0.7769389    0.6912857 -36.93  0.001654704    1.170    0.146
         5  -9.4482     61.2495    219.9324   1.1733380517e+02   2.1032309015e+01     0.132714    0.1290469  77.35 0.0004405014    1.373    0.272
         6 -12.1741    247.5070    246.7321   8.5535772511e+01  -1.1224180669e+01    0.7169428    0.4418258 -10.10  0.004688631    1.524    0.344
         7  -9.8827     48.4364    217.7709   1.1962827288e+02   2.3067856884e+01    0.1991781    0.1410239  44.19 0.0005815309    1.391    0.281
         8  -9.9054     58.8539    229.4779   1.1860956251e+02   1.9467400212e+01    0.1658494    0.1282644  82.13 0.0002819146    1.133    0.118
         9 -10.0949    184.6499    212.1559   9.1240054838e+01   2.9561423741e+00    0.1894674    0.1590149  38.75  0.001152134    1.165    0.142
        10  -8.7510    174.5974    210.8095   9.3015743256e+01   4.9005720721e+00    0.1706978    0.1286751 -55.78 0.0006076945    1.655    0.396
        11  -9.9564     56.8005    209.6645   1.1727934999e+02   2.3695377971e+01    0.2588811    0.1458052 -66.04  0.001308635    1.749    0.428
        12 -10.8670     71.9727    245.9109   1.1755301638e+02   1.4719927925e+01    0.3846904    0.1656196 -70.79  0.002044769    2.547    0.607
        13 -12.6376     32.7267    206.7982   1.2180896210e+02   2.7130819690e+01    0.3459625    0.1592616  57.28  0.001168052    1.926    0.481
        14 -11.1150     66.0185    204.4664   1.1488361074e+02   2.3590634071e+01    0.2979953    0.1704243 -60.15  0.001035186    1.812    0.448
        15  -8.8501     70.4278    199.7720   1.1345211764e+02   2.3997898236e+01    0.1694607    0.1446713 -84.39 0.0005060615    1.133    0.117
        16  99.0000     41.6006    206.0251   1.2000103154e+02   2.6295968308e+01    0.2300549     0.188293 -12.65  0.001457947    2.140    0.533
        17 -10.2768    193.4958    205.4888   8.8331483720e+01   2.5335175236e+00    0.2657487    0.1179125  35.87  0.001151665    2.117    0.528
        18 -10.8301    192.8829    194.9318   8.6517009146e+01   4.4022737445e+00    0.9686634    0.5028918 -62.21  0.002943748    5.884    0.830
        19 -10.2599    204.4212    199.1253   8.5039201197e+01   1.6917194578e+00    0.2346579    0.1828929  75.78  0.001203672    2.275    0.561
        20  -9.5454     34.8058    197.2320   1.2064016097e+02   2.8932898067e+01    0.1579591    0.1178449  66.70 0.0003955433    1.134    0.118
        21  -9.4572     81.9827    194.7218   1.1035812078e+02   2.3460657569e+01    0.2391677    0.1922922  72.43  0.001039379    1.126    0.112
        22  -8.4059     78.2452    192.7082   1.1093034994e+02   2.4440437494e+01    0.1289037   0.08844857  74.53 0.0006843718    1.474    0.321
        23  -9.3874     97.0273    190.7451   1.0648952270e+02   2.2049356178e+01    0.2401558    0.1743204  80.37 0.0005172549    1.487    0.328
        24 -10.1451     94.6721    187.1508   1.0651186859e+02   2.3206853354e+01    0.4597094    0.3112712  24.34 0.0003869629    1.896    0.473
        25 -11.1657     99.3862    180.8942   1.0450516414e+02   2.3851024199e+01    0.4258904    0.3150568 -46.52  0.002170185    1.522    0.343
        26  -8.1811    195.7303    190.3009   8.5069821475e+01   4.6871258595e+00    0.1225555     0.111105  88.69 0.0002208845    1.527    0.345
        27 -11.4159    149.3747    187.9744   9.4353720833e+01   1.3617942878e+01    0.4034112    0.3384755 -82.81  0.001285453    1.446    0.308
        28 -10.4017    149.9930    177.7855   9.2343236352e+01   1.5568286336e+01    0.3356134    0.2302338 -68.00  0.001387253    1.899    0.473
        29 -11.4176    143.9697    178.0583   9.3748752718e+01   1.6642833320e+01    0.4659981    0.3207234 -57.96  0.001513276    1.597    0.374
        30 -10.3582    189.1112    177.1031   8.3800598880e+01   8.2531315205e+00    0.4867646    0.3593214 -60.11  0.002422419    1.788    0.441
        31  -9.4876     84.1104    173.5219   1.0699051284e+02   2.7913212800e+01    0.2126711    0.1657044 -71.11 0.0003076165    1.220    0.181
        32 -10.7717     43.4749    172.4086   1.1640091593e+02   3.3529203816e+01    0.5729089    0.2372062  54.43  0.001824059    2.570    0.611
        33 -10.0338     58.3580    176.1384   1.1339669218e+02   3.0876899598e+01    0.2232252    0.1673156  56.03 0.0006597497    1.273    0.215
        34 -10.6114    138.9436    171.3061   9.3624060503e+01   1.9016786603e+01    0.3316014    0.2493223  38.02   0.00103617    1.313    0.238
        35 -10.7543     50.4178    224.7320   1.1980886201e+02   2.1441449323e+01    0.2037185    0.1269139  77.92  0.000677378    1.440    0.305
        36 -10.1035    240.0365    169.4881   7.2574085950e+01   3.3037040172e-01    0.1883285    0.1280538  37.64 0.0004769955    1.547    0.354
        37  -9.1617    187.8996    163.1811   8.1142585092e+01   1.1096659218e+01    0.3227177    0.1981893 -56.75  0.001372985    2.148    0.534
        38  -9.1311     65.0000    223.8486   1.1695821444e+02   1.9768131019e+01    0.1596603   0.06285696 -69.14 0.0006122408    2.580    0.612
        39 -11.6793     95.2325    151.3835   1.0055317512e+02   3.1392390278e+01    0.6857731    0.5473396 -34.83  0.003560652    1.475    0.322
        40 -10.8775    133.8956    145.8818   8.9618435132e+01   2.5629060252e+01     1.334867    0.3341639 -54.54  0.003064489    6.005    0.833
        41  -9.1959    187.5125    151.9568   7.8751045365e+01   1.3342397683e+01    0.2267518    0.1435566 -40.45 0.0006501808    1.549    0.354
        42  -9.7389    113.1718    151.1543   9.5919003750e+01   2.8345720826e+01    0.3242387    0.2081366  78.83  0.001286746    2.451    0.592
        43  -9.3966    174.7147    149.1233   8.0839929864e+01   1.6550754011e+01    0.2617688    0.2117324  57.66 0.0006822135    1.381    0.276
        44  -9.4957    109.1434    147.3436   9.6180895921e+01   2.9967038442e+01    0.2603159    0.2054677 -68.67 0.0003065432    1.289    0.224
        45 -10.7826    106.9530    137.9640   9.4799567156e+01   3.2588102138e+01    0.5036526    0.3438347 -33.46  0.001641506    1.766    0.434
        46 -11.6951     94.9983    137.5576   9.7918339049e+01   3.4761202439e+01    0.2912604    0.2735121 -53.83 0.0004188515    1.078    0.073
        47 -10.5909    105.8913    130.7111   9.3492216475e+01   3.4509703021e+01    0.3919069    0.3237903 -62.64  0.001186471    1.183    0.155
        48 -10.4938    135.8347    128.1245   8.5013496512e+01   2.9263032610e+01    0.7249358    0.1140769 -49.03  0.001432545    7.312    0.863
        49 -10.5062    114.4637    128.9753   9.0783188432e+01   3.3330381415e+01    0.3454022    0.2761664 -35.57 0.0006766078    1.325    0.245
        50  -9.1515    160.6053    127.7983   7.8935608690e+01   2.4024409050e+01    0.2343425    0.1445967 -52.47 0.0009587517    1.734    0.423
        51 -10.5344    102.0028    124.8129   9.3214949844e+01   3.6616935132e+01    0.3109777    0.2617691 -17.30 0.0006487102    1.419    0.296
        52 -10.6265    120.2194    123.0026   8.7813275604e+01   3.3609038007e+01    0.5544863    0.3314925 -21.01  0.001921079    3.042    0.671
        53  -8.2831     36.4155    223.9085   1.2234795391e+02   2.3251114255e+01     0.192191    0.1112162  58.44 0.0009374454    1.404    0.288
        54  -9.4759    109.9088    118.1848   8.9429573329e+01   3.6730282689e+01    0.2467891    0.2101991 -51.85  0.000319933    1.119    0.107
        55 -10.0891    231.2521    113.7781   6.1584207377e+01   1.1315099771e+01     0.286375    0.2577055 -34.04 0.0007594987    1.021    0.020
        56  -9.2720    167.5665    112.3504   7.3379705123e+01   2.5692379517e+01    0.3485391    0.2446074 -69.33  0.001447527    1.961    0.490
        57 -10.0498    134.7044    106.0096   7.9559696069e+01   3.4423650168e+01    0.7228737    0.1371169 -45.42  0.001672182    5.208    0.808
        58 -11.1874    118.3094    110.5607   8.5157378463e+01   3.6849588045e+01    0.6875917    0.4821595  74.55  0.002873329    2.102    0.524
        59  -9.4530    205.4710    110.2129   6.5141914473e+01   1.7479409951e+01    0.3140069      0.21387  41.51 0.0009397254    1.599    0.375
        60 -11.3039     62.6569    250.4683   1.1955842708e+02   1.5126351010e+01    0.2261862    0.1112081  50.30 0.0007449435    1.576    0.366
        61 -10.9654     54.9532    222.5060   1.1876975535e+02   2.1320148218e+01     0.194161    0.1285623  58.88  0.000797453    1.246    0.197
        62 -10.5371     56.4546    218.1104   1.1810613392e+02   2.2009728412e+01    0.2824004    0.1454423  76.50  0.001078054    2.122    0.529
        63  -9.3832    168.0148    232.0672   9.7669955197e+01   2.5323507409e+00    0.1893337    0.1612644  34.21 0.0005058604    1.037    0.035
        64  -8.3150     84.2264    245.6763   1.1531078650e+02   1.3102002987e+01     0.112756   0.07235811  70.28 0.0006834951    1.506    0.336
        65 -19.5340     17.1034    145.2514   1.1979766749e+02   4.2511200517e+01      19.3648     4.622762 -75.43   0.06596977    3.910    0.744
        66  -9.0619    157.3357    234.3230   1.0006522441e+02   3.9019009228e+00     0.125572   0.09150432   9.28 0.0007050716    1.712    0.416
        67 -10.3376    189.7836     15.1114   4.1887179577e+01   3.5772954566e+01     0.229878    0.2067774 -79.54 0.0006623205    1.026    0.025
        68 -12.1519     49.0926    248.9809   1.2180024259e+02   1.7071036576e+01     0.195084    0.1409851  86.67 0.0006571698    1.257    0.204
