#   1 NUMBER                 Running object number                                     
#   2 MAG_AUTO               Kron-like elliptical aperture magnitude                    [mag]
#   3 X_IMAGE                Object position along x                                    [pixel]
#   4 Y_IMAGE                Object position along y                                    [pixel]
#   5 X_WORLD                Barycenter position along world x axis                     [deg]
#   6 Y_WORLD                Barycenter position along world y axis                     [deg]
#   7 A_WORLD                Profile RMS along major axis (world units)                 [deg]
#   8 B_WORLD                Profile RMS along minor axis (world units)                 [deg]
#   9 THETA_WORLD            Position angle (CCW/world-x)                               [deg]
#  10 FWHM_WORLD             FWHM assuming a gaussian core                              [deg]
#  11 ELONGATION             A_IMAGE/B_IMAGE                                           
#  12 ELLIPTICITY            1 - B_IMAGE/A_IMAGE                                       
         1 -13.1529     67.7650    144.6025   1.2583608603e+02   3.7896698835e+01     2.384764     1.205867 -87.70  0.002931549    5.076    0.803
         2 -14.2308    205.9757     15.8719   6.1936136362e+01   3.1518235105e+01     2.193452     1.389569  32.13   0.01106633    2.525    0.604
         3 -10.7587      2.2232      3.9563   1.1083772746e+02   7.1410287405e+01    0.3686602    0.1521116 -38.82  0.002256972    2.053    0.513
         4 -12.5937      2.5019     14.7830   1.1508223079e+02   6.9931394296e+01     1.426016    0.3239236 -36.46  0.006263349    3.573    0.720
         5 -10.0996    167.9982      2.2349   6.3181593678e+01   4.1821173784e+01    0.1797859   0.08916644  68.63 0.0008903958    1.662    0.398
         6 -11.9934    126.2992    245.3305   1.2773485499e+02   6.7020723666e+00    0.4467639    0.3025747  89.54  0.002408385    1.999    0.500
         7  -9.5843    164.5298    250.5099   1.2092735865e+02  -6.4275382095e-01    0.1290085    0.1070634  38.67 6.936571e-05    1.010    0.010
         8 -12.1989    139.0264    248.1693   1.2560270757e+02   4.0670480113e+00    0.5053129    0.3876934 -89.23   0.00301334    1.655    0.396
         9 -12.7104    100.7146    249.1246   1.3315165388e+02   1.0162027542e+01    0.9817684    0.2789866  40.04  0.003816546    3.086    0.676
        10 -13.6818    105.7681    245.7310   1.3179642163e+02   9.9855093322e+00      1.94583    0.3687915  45.77  0.006284192    4.224    0.763
        11 -11.4411     90.6097    246.7891   1.3481846419e+02   1.2152138490e+01    0.3224877    0.2427733  83.51 0.0006532949    1.299    0.230
        12 -12.5363     87.8736    243.0797   1.3494489921e+02   1.3264474332e+01    0.5318221    0.3944997  33.41 0.0003763452    1.562    0.360
        13 -15.2891      4.3127    245.9898   1.4986353249e+02   2.3246983278e+01       17.433          nan -72.98   0.04083974   13.957    0.928
        14 -14.4596     34.6195    245.6449   1.4485106167e+02   1.9988363345e+01     10.88093     3.837516  31.10   0.04474354    4.617    0.783
        15 -12.5465     16.6204    241.6406   1.4761673581e+02   2.2784977726e+01     1.447507    0.2724137  54.42   0.00428961    4.814    0.792
        16 -11.1828    100.0686    238.3715   1.3205048610e+02   1.2272071530e+01    0.2304829    0.1733901 -85.61 0.0006032912    1.399    0.285
        17  -9.0314    185.6923    238.3382   1.1489818994e+02  -2.3166460429e+00    0.1242913    0.1002038  68.12 0.0004641443    1.681    0.405
        18 -11.6875     18.6198    229.9553   1.4651202036e+02   2.4833889634e+01    0.3184205    0.2459127 -60.81  0.002312483    1.641    0.391
        19 -11.3876     22.8701    236.2940   1.4621109750e+02   2.3131848899e+01    0.3371185    0.2765832 -10.82  0.001840952    2.488    0.598
        20 -10.9712     24.2395    231.2700   1.4562146291e+02   2.3964389482e+01    0.3230107    0.1156312  62.06  0.001272377    2.901    0.655
        21 -12.7037     38.7965    226.5152   1.4262640267e+02   2.3239003868e+01    0.3268712    0.2613535 -71.79 0.0007502392    1.353    0.261
        22  -9.8660     71.2653    236.2561   1.3741133437e+02   1.7023718038e+01    0.1728392    0.1143126  64.42 0.0005517443    1.316    0.240
        23 -10.2050    162.6015    245.7986   1.2061983922e+02   4.4579570370e-01    0.1609095    0.1260272 -65.30 0.0009524356    1.662    0.398
        24 -10.6181    249.6698    230.1856   1.0139676398e+02  -1.1388981797e+01     0.230584    0.1020104 -41.97  0.001094621    2.632    0.620
        25 -11.0093     75.3057    228.8656   1.3586226294e+02   1.7915208414e+01    0.2817788    0.1981793  75.06  0.001083096    1.320    0.243
        26 -10.6331     69.4042    228.5039   1.3698171914e+02   1.8834322226e+01    0.3193239    0.1771535  59.88 0.0009314775    1.670    0.401
        27 -11.6511    152.0516    228.5221   1.2014558302e+02   5.2761625945e+00    0.5339576    0.2488821  38.08  0.002353765    1.950    0.487
        28 -10.0097     25.6805    226.7962   1.4503895535e+02   2.4694892951e+01    0.1674371    0.1220413 -72.75   0.00116425    1.374    0.272
        29 -10.1676    174.1747    219.9975   1.1417790221e+02   2.8098451259e+00    0.2241993    0.1568053  -9.48  0.001089852    2.014    0.504
        30 -12.0326     62.8454    218.0128   1.3718181578e+02   2.1908629336e+01    0.6017257     0.238687  50.36  0.002751078    2.306    0.566
        31 -14.1377     45.9970    217.1004   1.4042331716e+02   2.4297919928e+01     1.177033    0.7313536  69.39  0.004967944    1.465    0.317
        32 -10.0154    228.6424    205.4980   1.0068363029e+02  -4.4331619019e+00    0.2408634    0.2093639 -54.83 0.0006758907    1.524    0.344
        33 -10.0318    192.6815    194.0396   1.0557030046e+02   4.0662541059e+00    0.4384791     0.246871 -67.84  0.001379688    4.812    0.792
        34 -11.6531     64.7970    193.6638   1.3396160111e+02   2.6924729684e+01    0.3899426    0.2591637 -47.33   0.00164671    1.809    0.447
        35  -8.5900    181.5111    192.4409   1.0760114410e+02   6.5305061037e+00    0.1448822     0.133624  23.84 3.791269e-05    1.022    0.021
        36 -11.7562     70.1350    186.3867   1.3181147418e+02   2.7821657253e+01    0.2846521    0.2380559 -52.15 0.0005310099    1.341    0.254
        37 -11.1216     79.5688    174.4758   1.2786047884e+02   2.9180486457e+01    0.2510624    0.2289314 -81.57 0.0001843099    1.046    0.044
        38 -13.3024     66.8495    171.8543   1.3051541570e+02   3.1627119876e+01    0.5242721    0.2867546 -43.67  0.001638315    2.246    0.555
        39 -10.5818    105.9963    173.2716   1.2126846515e+02   2.5143959923e+01    0.4917219   0.09858076  43.12  0.001329532    4.650    0.785
        40 -12.0791     86.7869    166.0374   1.2471571025e+02   3.0032304837e+01    0.8852668    0.5632246  57.51  0.004228139    1.714    0.417
        41 -10.7547    247.6623    249.4669   1.0509850083e+02  -1.3610976388e+01    0.5068234    0.1353249  32.99  0.001950721    3.715    0.731
        42  -9.8637     99.3148    149.9454   1.1853899458e+02   3.1729913767e+01    0.2903713    0.2658319 -52.05 0.0007469514    1.094    0.086
        43  -9.3035    102.0393    146.0263   1.1702983931e+02   3.2168871793e+01    0.2765554    0.1962802 -33.12 0.0005532635    1.678    0.404
        44 -12.2037     88.0093    149.0843   1.2132193221e+02   3.3818661279e+01    0.2959573    0.2537628 -37.78 0.0005012277    1.267    0.211
        45 -11.1928     38.7035    146.7193   1.3378275439e+02   4.0918964696e+01    0.3204963    0.1983795  55.46  0.001137483    1.837    0.456
        46  -9.5453    110.4587    135.5828   1.1254833202e+02   3.3052952254e+01    0.3293492    0.2247975 -13.32  0.001340385    2.384    0.581
        47 -10.5919     97.8482    132.7109   1.1529941067e+02   3.5991938644e+01    0.2901214    0.2421352  -9.42 0.0007039102    1.462    0.316
        48  -9.4060    107.2835    122.9681   1.1047117015e+02   3.6507858246e+01     0.200478    0.1819795 -43.59  0.000289182    1.079    0.073
        49 -14.8851     53.9786    209.0798   1.3803293354e+02   2.4985592624e+01     5.716823     1.261696  51.61   0.01696535    5.756    0.826
        50 -10.8014    167.8829    112.9897   9.2773069305e+01   2.5653133313e+01    0.3751119    0.3046059 -84.06  0.001024002    1.501    0.334
        51 -10.6885    249.0203    243.9924   1.0392760443e+02  -1.3111920138e+01    0.2223697    0.1383737  29.56  0.001361028    1.412    0.292
        52  -9.4980    204.3938    110.7644   8.4799886511e+01   1.7614446011e+01      0.31985    0.2278586  25.78  0.001445878    1.873    0.466
        53 -15.1928     10.4659    206.5609   1.4631547153e+02   3.0406591787e+01     4.222482     1.262992 -65.48   0.01409404    2.742    0.635
        54 -10.4868    242.2020     93.5971   7.4698424097e+01   1.2297550814e+01    0.1898431    0.1253515  47.38 0.0009585281    1.728    0.421
        55 -10.2742      1.5347     89.4370   1.3515308430e+02   5.6577743594e+01    0.2472047   0.08943061 -64.08  0.001077759    2.159    0.537
        56 -10.4897      1.7460     80.5824   1.3347021138e+02   5.8387088809e+01    0.3054692   0.09321206 -68.71  0.001205441    3.623    0.724
        57  -9.8441    157.1930     77.1795   8.5610447879e+01   3.4866241165e+01    0.2081313    0.1773546 -81.96 0.0007053901    1.339    0.253
        58  -8.4362    109.3219     42.7239   8.6622740933e+01   5.0965152877e+01    0.1250778    0.1075834  89.21 0.0002584975    1.579    0.367
        59 -10.6849    192.2364    249.8402   1.1544781390e+02  -5.1757800903e+00    0.3311039   0.07791208  38.45  0.001118398    3.711    0.731
        60 -10.3627    198.4360    246.7142   1.1376176935e+02  -5.7338498634e+00    0.2112407    0.1241696 -44.81  0.001133331    2.068    0.516
        61  -9.1056    225.3168    246.3143   1.0861895924e+02  -9.9395057256e+00    0.1270632   0.08198994   7.84 0.0007036527    1.646    0.393
