#   1 NUMBER                 Running object number                                     
#   2 MAG_AUTO               Kron-like elliptical aperture magnitude                    [mag]
#   3 X_IMAGE                Object position along x                                    [pixel]
#   4 Y_IMAGE                Object position along y                                    [pixel]
#   5 X_WORLD                Barycenter position along world x axis                     [deg]
#   6 Y_WORLD                Barycenter position along world y axis                     [deg]
#   7 A_WORLD                Profile RMS along major axis (world units)                 [deg]
#   8 B_WORLD                Profile RMS along minor axis (world units)                 [deg]
#   9 THETA_WORLD            Position angle (CCW/world-x)                               [deg]
#  10 FWHM_WORLD             FWHM assuming a gaussian core                              [deg]
#  11 ELONGATION             A_IMAGE/B_IMAGE                                           
#  12 ELLIPTICITY            1 - B_IMAGE/A_IMAGE                                       
         1 -13.6075     11.3929     28.1804   1.0535691996e+02   6.6154189190e+01     0.690819    0.4749064  19.07  0.005215983    1.603    0.376
         2 -13.3896     22.1749     24.5370   9.9874954297e+01   6.5839589053e+01    0.5807273    0.3199256 -15.84  0.003675715    1.737    0.424
         3 -12.1000    209.9022     20.6139   5.2763864251e+01   3.1380252861e+01    0.4307109     0.290048  32.97   0.00122341    2.351    0.575
         4 -13.0108    204.4098     28.0408   5.5097739901e+01   3.1729720415e+01    0.6492217    0.4818003 -83.06  0.003827661    1.283    0.220
         5 -13.1697    218.7643     10.5811   4.9642563403e+01   3.0549630091e+01    0.6178442    0.5112463 -73.76  0.003271141    1.126    0.112
         6 -12.2200      2.9125      4.9469   1.0086970128e+02   6.9939221797e+01    0.5565679     0.210202 -34.52  0.003426615    2.057    0.514
         7 -11.7519    182.7488    238.3843   1.0474736756e+02  -2.6618254601e+00    0.4451288    0.2327478  44.50  0.002148501    1.729    0.422
         8 -12.5443    248.9080    246.8809   9.3599644020e+01  -1.4556292672e+01    0.5729721    0.3139002 -30.46  0.003241618    1.831    0.454
         9 -12.4198    181.0690    249.8158   1.0685824953e+02  -4.2812766636e+00     1.837662    0.4408295  45.60  0.006023333    4.004    0.750
        10 -12.6575    215.1505    247.6084   9.9962833630e+01  -9.5625826153e+00    0.5853006    0.4432068  12.26  0.002638667    1.300    0.231
        11 -12.4216    209.6943    243.7246   1.0036314778e+02  -8.0912802040e+00    0.6817505    0.5642169 -22.65  0.004020965    1.279    0.218
        12 -12.2132    200.0428    249.1402   1.0309103533e+02  -7.3471458144e+00    0.8035235     0.369565  46.01  0.003772247    2.099    0.524
        13 -12.5898    202.4394    243.8896   1.0178526297e+02  -6.9219489488e+00     1.046496    0.5411076 -46.59  0.005204792    2.250    0.555
        14 -12.1973    136.3033    249.2180   1.1547183058e+02   3.4713160769e+00     1.928737    0.5273293  43.92  0.007123156    3.060    0.673
        15 -13.6092    156.7251    233.0860   1.0913230319e+02   2.8852700997e+00     1.312797     1.189673  89.86    0.0076366    1.200    0.167
        16 -13.7242    167.2621    228.0845   1.0620542940e+02   1.9268735422e+00     1.401407    0.9003756  41.85  0.006760109    1.405    0.288
        17 -13.0443    129.9191    234.6541   1.1476820082e+02   7.2990549666e+00     1.158279    0.4807701 -58.70  0.004914359    2.734    0.634
        18 -14.0518    120.2899    230.2475   1.1610206115e+02   9.8210806908e+00     1.655766     1.049353  85.79  0.008067864    2.066    0.516
        19 -11.1614    117.6733    250.1445   1.1915905521e+02   6.4100296480e+00     0.546956    0.1907416  38.44   0.00218841    2.872    0.652
        20 -13.0299     29.5164    162.9492   1.2675240635e+02   3.7602402621e+01     2.132247     1.223916 -55.58   0.01141115    1.601    0.375
        21 -12.9488     30.6456    201.1817   1.3060194545e+02   2.8902785578e+01     1.010104    0.5432872  69.49  0.004576378    1.859    0.462
        22 -13.6415     33.9502    190.1056   1.2885154187e+02   3.0992798356e+01     1.322057    0.6717202 -52.21  0.006854803    2.182    0.542
        23 -15.8900     13.8520    239.7339   1.3658054708e+02   2.2715074517e+01     2.120544     0.889932  73.32   0.01132368    2.310    0.567
        24 -11.3641     32.9420    240.1495   1.3347585999e+02   2.0499759675e+01     1.037692    0.3965901  72.97  0.004409267    3.466    0.712
        25 -14.1563     32.9512    222.8605   1.3209961261e+02   2.4013197889e+01     1.847866    0.8312637  76.59  0.008912728    2.508    0.601
        26 -16.0283     61.7126    240.6480   1.2851546645e+02   1.6743567239e+01     2.683829     1.411146  69.15   0.01439945    1.868    0.465
        27 -13.8109     48.0180    247.9403   1.3153728300e+02   1.7114682238e+01    0.7608595    0.3563108  59.09  0.003932984    1.842    0.457
        28 -11.9707    188.5147    226.6021   1.0165217205e+02  -1.6230936911e+00    0.6746843    0.4678471 -18.16  0.003427037    1.916    0.478
        29 -12.0106    239.3611    222.5311   9.1061986102e+01  -9.5584481465e+00    0.3297279    0.2449952 -46.03  0.001783693    1.563    0.360
        30 -12.9898    234.5229    218.9610   9.1312828064e+01  -8.2168980345e+00    0.5103054    0.3498342  -9.43  0.002763437    1.667    0.400
        31 -10.2648     94.6884    221.5451   1.2013718801e+02   1.5837901815e+01    0.3027799    0.1894148  62.95   0.00127206    1.549    0.354
        32 -11.5738     98.1026    216.9408   1.1884774466e+02   1.6276474676e+01    0.8219997    0.2520541  42.47  0.003080135    2.964    0.663
        33 -10.7266    100.0409    212.0079   1.1778347394e+02   1.7030584174e+01    0.2998545    0.2947708  81.34  0.001156341    1.258    0.205
        34 -10.6741     95.3150    212.1217   1.1878711628e+02   1.7767077855e+01     0.318462    0.2540806  37.18  0.001092828    1.423    0.297
        35 -10.9683    136.9067    219.1735   1.1108217887e+02   9.1623516867e+00    0.4020461    0.2968051  49.97  0.002179312    1.233    0.189
        36 -12.8607    213.5666    211.2399   9.3915914714e+01  -3.3580578538e+00    0.9958052    0.7443563  -2.02  0.005331168    1.570    0.363
        37 -13.1083    225.3156    200.9368   8.9681528306e+01  -3.6073062903e+00    0.9608529     0.644588   3.31  0.004608431    2.025    0.506
        38 -14.3353    220.9343    189.0518   8.8210134175e+01  -6.5919643856e-01     2.220312     1.082458 -27.67  0.008426101    2.859    0.650
        39 -12.1964    120.8175    202.6416   1.1195263063e+02   1.5553820445e+01    0.7601188    0.4995825  28.33  0.003591467    1.919    0.479
        40 -12.6554    127.3338    195.4876   1.0935256933e+02   1.5967494629e+01     1.031768    0.6554986 -31.85  0.004441073    2.399    0.583
        41 -13.2754    138.6525    229.8710   1.1232318679e+02   6.7098661879e+00     1.120283    0.8990234 -85.94  0.006135949    1.376    0.273
        42 -10.3271     40.6438    213.9110   1.2989360710e+02   2.5005220443e+01    0.1695241     0.127124 -69.42 0.0008321393    1.323    0.244
        43 -10.2387    100.9005    222.7074   1.1902746245e+02   1.4598366591e+01    0.2303005    0.2093986   6.70  0.001407234    1.571    0.363
        44 -12.9097     47.6910    203.2887   1.2747087525e+02   2.6468449210e+01     0.701649    0.5618118 -77.16  0.002961439    1.156    0.135
        45 -10.5183    178.9926    208.5112   1.0044200369e+02   3.4969535358e+00    0.3345517    0.1320286  36.64  0.001217046    2.674    0.626
        46 -10.5443     15.3149    206.3347   1.3392178704e+02   2.9381049226e+01    0.2239167    0.1509344 -72.97 0.0009537337    1.289    0.224
        47 -10.8736     11.6041    204.8662   1.3447736038e+02   3.0052923087e+01    0.3490841    0.1929775  87.81  0.001301433    1.508    0.337
        48 -10.6101    148.7716    205.0378   1.0626483658e+02   9.9166901062e+00    0.3461495    0.2014439  26.19  0.001422726    2.382    0.580
        49 -12.6292    203.8711    198.9129   9.3526539593e+01   6.6008721395e-01    0.7248696    0.4572229  48.89  0.003483283    1.655    0.396
        50 -12.4331     77.0197    183.8212   1.1883135409e+02   2.6979808130e+01     1.178997    0.5790067 -58.99  0.005267723    1.875    0.467
        51 -11.5450     71.1192    178.5441   1.1940693471e+02   2.9052561902e+01     0.464328     0.289091 -42.78  0.002278122    2.013    0.503
        52 -13.8910     51.8699    162.4058   1.2154662656e+02   3.5321850358e+01     2.021309     1.219193 -39.95   0.01013221    2.124    0.529
        53 -11.9447    165.7034    181.0221   9.8131239798e+01   1.1760056678e+01     0.571916      0.39035  19.96    0.0024808    2.029    0.507
        54 -11.7730    109.5533    204.2579   1.1464942528e+02   1.7151728440e+01     0.537288    0.4925191 -70.48  0.003229715    1.160    0.138
        55 -11.6311    126.4703    177.6833   1.0642772050e+02   2.0167390203e+01      0.62212    0.4748964 -64.75  0.003143312    1.314    0.239
        56 -13.5202    114.6607    188.6808   1.1106427430e+02   1.9777995156e+01     1.459604     1.027012  44.88  0.006721453    1.402    0.287
        57 -12.3984    157.7366    165.8373   9.6860256695e+01   1.6724185901e+01     0.724887     0.454797 -41.79  0.003161696    1.684    0.406
        58 -12.1896     67.7529    164.1510   1.1804561914e+02   3.2901929323e+01    0.4785031    0.2378077 -44.39  0.001451837    2.401    0.583
        59 -13.2735    100.3969    147.0652   1.0692531175e+02   3.2021977683e+01     1.140176    0.8122126 -45.48  0.005650997    1.419    0.295
        60 -12.0943     79.4894    164.2989   1.1525517444e+02   3.1216233527e+01    0.8784617    0.5822272  77.44  0.004255841    1.826    0.452
        61 -13.2345     89.1511    158.3449   1.1187731069e+02   3.1168507455e+01     1.314108    0.7058609 -56.14  0.005068051    1.717    0.417
        62 -12.1547     88.7281    144.1750   1.0934716101e+02   3.4597770695e+01    0.3745348    0.3223172 -30.35 0.0005038353    1.332    0.249
        63 -13.7143     95.3354    189.7363   1.1559345391e+02   2.2796848588e+01     1.641514     1.020072  88.28  0.006986444    2.021    0.505
        64 -10.9948      6.3747    150.9993   1.3054617041e+02   4.2264442495e+01    0.3937812    0.2200061  82.14  0.002223246    1.915    0.478
        65 -12.4211    126.5301    212.1889   1.1220359043e+02   1.2473722894e+01    0.9531898    0.6117047 -65.98  0.004727096    1.682    0.405
        66 -11.3121     18.6857    147.0791   1.2728329338e+02   4.2179823830e+01    0.3752919    0.2745722 -15.92  0.002209759    1.999    0.500
        67 -11.7232     67.8679    143.4973   1.1459566593e+02   3.7766099192e+01    0.6742117    0.3585539  59.98  0.002843404    2.666    0.625
        68 -14.2260     78.6349    215.8323   1.2267768978e+02   1.9520952166e+01     2.574544     1.289278 -60.98   0.01270702    1.942    0.485
        69 -11.9557     11.0601    139.6888   1.2816061887e+02   4.4428909076e+01    0.6693727    0.4795794 -63.58  0.004506558    1.126    0.112
        70 -10.2686     98.1310    129.3801   1.0382693412e+02   3.6540174997e+01    0.2456104    0.1871879 -40.77 0.0007578409    1.327    0.246
        71 -12.1620     70.8491    120.7573   1.0941641521e+02   4.2637336331e+01    0.6944919    0.5386663 -77.55  0.003837746    1.426    0.299
        72 -11.7761      2.5088     74.9916   1.2041614826e+02   5.8570918028e+01    0.2771916     0.087763 -48.07  0.001409718    2.168    0.539
        73 -12.0219    194.3964     34.5337   5.7979469366e+01   3.3222422009e+01    0.2707248    0.2269868  47.85  0.001102321    1.328    0.247
        74 -11.8770    230.2190    242.4720   9.6271829873e+01  -1.1164525753e+01     0.288348    0.2204811  14.01  0.001816378    1.196    0.164
        75 -11.3032    190.4570    238.7329   1.0328175095e+02  -4.0557813074e+00    0.4703282    0.3265836   6.51  0.002428259    1.932    0.482
        76 -11.8335     93.9374    235.1857   1.2193501291e+02   1.3128851191e+01     1.151364    0.4362056  50.71  0.004616591    2.401    0.584
        77 -12.0953    108.3246    234.2509   1.1901252091e+02   1.1014994919e+01     0.779727    0.4237811  83.71  0.003266532    2.956    0.662
        78 -12.0001     99.4956    228.7209   1.2007029939e+02   1.3571032426e+01    0.4855501    0.3772334  72.48  0.001879665    1.150    0.131
