#   1 NUMBER                 Running object number                                     
#   2 MAG_AUTO               Kron-like elliptical aperture magnitude                    [mag]
#   3 X_IMAGE                Object position along x                                    [pixel]
#   4 Y_IMAGE                Object position along y                                    [pixel]
#   5 X_WORLD                Barycenter position along world x axis                     [deg]
#   6 Y_WORLD                Barycenter position along world y axis                     [deg]
#   7 A_WORLD                Profile RMS along major axis (world units)                 [deg]
#   8 B_WORLD                Profile RMS along minor axis (world units)                 [deg]
#   9 THETA_WORLD            Position angle (CCW/world-x)                               [deg]
#  10 FWHM_WORLD             FWHM assuming a gaussian core                              [deg]
#  11 ELONGATION             A_IMAGE/B_IMAGE                                           
#  12 ELLIPTICITY            1 - B_IMAGE/A_IMAGE                                       
         1 -15.4712     11.5584    152.7457   1.4021713744e+02   4.1909993184e+01     9.233073     3.416997 -87.19   0.03408409    3.758    0.734
         2 -13.3586    197.4476     31.2616   6.5172798301e+01   3.2279773167e+01     1.185867     1.033755  68.91  0.006429539    1.159    0.137
         3 -13.6986    213.5276     13.0848   5.9203404410e+01   3.0694812552e+01      1.19934    0.9449853  39.00  0.006894608    1.778    0.438
         4 -11.5183      2.0000     20.4806   1.1618998581e+02   6.9593861250e+01    0.4540666    0.1024282 -48.92   0.00196534    3.785    0.736
         5 -11.7064      2.2973      5.4696   1.1008999969e+02   7.1670299292e+01     0.602303    0.1762358 -43.21   0.00305393    3.103    0.678
         6 -10.7977     14.6855     12.1788   1.0698902747e+02   6.9765858579e+01    0.1718225    0.1278966  16.25 0.0009555347    1.385    0.278
         7 -11.3702     53.5485    238.5085   1.3983086243e+02   1.8093616884e+01    0.2977888    0.2110933 -83.06  0.001208259    1.285    0.222
         8 -11.3010    248.2578    248.5162   1.0341530467e+02  -1.4394303983e+01    0.2967042    0.2092293  22.73  0.001965843    1.230    0.187
         9 -11.2499     45.8532    248.4185   1.4204032459e+02   1.7125890042e+01    0.3950683    0.2458194  64.21  0.001675768    1.282    0.220
        10 -13.2328      9.2953    207.7204   1.4563165185e+02   2.9702760676e+01    0.8596519    0.7184695 -56.69  0.003806936    1.587    0.370
        11 -12.9757     33.7717    246.6749   1.4402039514e+02   1.8971359451e+01    0.8957061    0.6821337  32.80  0.006150631    1.817    0.450
        12 -13.8024      9.5675    244.5295   1.4795522624e+02   2.2127871051e+01     1.324342     1.080627  62.57   0.01048974    1.335    0.251
        13 -12.7344      6.9533    227.7056   1.4739203977e+02   2.5745689830e+01    0.6171678    0.6062728  66.61  0.005077464    1.624    0.384
        14 -11.6875    140.2285    250.0040   1.2430605995e+02   2.4601767031e+00    0.5453434    0.1695407  41.18  0.002122158    2.704    0.630
        15 -14.4706    103.5872    228.9801   1.2895927336e+02   1.2605045600e+01     6.820993   0.09192501  45.38   0.01174895   13.564    0.926
        16 -10.5607    162.9665    249.3250   1.1971493491e+02  -1.2580360591e+00    0.1941081    0.1523762  38.65 0.0008269954    1.083    0.076
        17 -11.5854     59.1903    195.6213   1.3428212252e+02   2.6679366786e+01     0.352038    0.2436155 -51.80   0.00057919    1.650    0.394
        18  -9.6861    192.2018    192.9957   1.0404318390e+02   3.7104366051e+00    0.3884874    0.1802566 -62.68 0.0009513213    7.061    0.858
        19 -13.9799     37.6321    221.2090   1.4133002350e+02   2.3721641499e+01    0.8094797    0.6749389  69.85  0.002454937    1.165    0.142
        20 -11.7748     65.5643    187.8203   1.3186773273e+02   2.7626930619e+01    0.2915565    0.2477248 -56.08 0.0007137533    1.316    0.240
        21 -10.8000     75.8688    175.5524   1.2769309157e+02   2.9065692403e+01    0.2501355    0.2254024 -71.05 0.0003756212    1.114    0.102
        22 -13.1752     62.6117    173.1693   1.3054029766e+02   3.1528648619e+01    0.5437796    0.2869664 -45.83  0.001897103    2.261    0.558
        23  -9.2991    229.6810    229.6912   1.0352669469e+02  -9.0786775169e+00    0.1306477   0.08736436   2.84 0.0003025664    1.639    0.390
        24 -11.9088     83.8697    166.2723   1.2422156269e+02   3.0089045450e+01    0.7038113    0.6333953 -82.95   0.00403628    1.007    0.007
        25  -9.7961     74.4293    215.6630   1.3339076829e+02   1.9997995229e+01    0.2448583    0.1203034 -72.20  0.001133594    2.084    0.520
        26  -9.8346     53.1134    228.8399   1.3904329279e+02   2.0146365989e+01    0.2006794    0.1331996  71.24 0.0006741788    1.290    0.225
        27 -10.2129     96.8840    151.0581   1.1807074197e+02   3.1656509609e+01    0.3331029    0.3172963  87.94 0.0008641267    1.039    0.038
        28  -9.2809     99.9508    147.0131   1.1644382622e+02   3.2105632344e+01    0.2263616    0.1989588 -31.47 0.0004031697    1.284    0.221
        29 -12.0180     85.2562    149.9778   1.2092653203e+02   3.3847198435e+01    0.3098311    0.2548217 -44.40 0.0006520274    1.276    0.216
        30 -12.3649     67.6638    143.8395   1.2448982170e+02   3.7973310923e+01     0.713816     0.498771  70.42  0.002493849    1.714    0.416
        31  -8.3403    192.3020    144.2772   9.3627964237e+01   1.3598974826e+01     0.148866    0.1214904   3.44 0.0002433833    1.542    0.352
        32 -11.5759     57.5867    132.4055   1.2515454280e+02   4.2077836079e+01     1.022173    0.3751399 -73.20  0.002583317    6.373    0.843
        33 -10.4023     96.0112    133.5452   1.1463459792e+02   3.6041251540e+01    0.2707905    0.2050526 -47.72 0.0003832776    1.276    0.216
        34  -8.9580    152.7200    212.9807   1.1613767153e+02   7.2293477304e+00    0.1803717     0.175604 -73.82 0.0002663081    1.105    0.095
        35 -10.5168     50.3562    129.8385   1.2671959608e+02   4.3570840250e+01    0.2395431    0.2152918  63.91 0.0007367017    1.225    0.184
        36  -9.1815    106.3454    123.1506   1.0937663130e+02   3.6633599332e+01    0.2033029    0.1807111 -54.34 0.0004201858    1.082    0.076
        37  -9.7780    109.1454    136.4036   1.1170333349e+02   3.2988220258e+01    0.3576531     0.262676 -11.89  0.001556456    2.033    0.508
        38 -10.1499    167.6951    112.7153   9.1286657707e+01   2.5769496428e+01    0.3549806    0.2756388 -81.75  0.001166842    1.581    0.368
        39  -8.9281    203.4675    111.5388   8.3730148103e+01   1.7728526504e+01      0.15005    0.1421006 -61.42 0.0001630431    1.017    0.017
        40 -12.6905     31.6652    228.7755   1.4306635944e+02   2.2836673383e+01    0.3200065    0.2504441 -77.41 0.0007656702    1.301    0.232
        41  -8.6637    184.6823     77.6533   7.8783244784e+01   2.8423713170e+01    0.1483708     0.118297  18.56 0.0007048562    1.726    0.421
        42  -9.3253    158.5203     77.5372   8.3948556303e+01   3.4744642951e+01     0.149303    0.1424844  78.44  0.000167837    1.015    0.015
        43 -10.8981      1.9939     48.4528   1.2501863451e+02   6.4953695199e+01    0.3454034    0.1012618 -61.30  0.001390639    3.923    0.745
        44 -10.9578    124.3252    249.6787   1.2739815829e+02   5.1722082668e+00    0.3767637   0.09763103  41.98  0.001355715    3.176    0.685
        45 -10.9066     64.0974    247.2883   1.3865893054e+02   1.4906430005e+01     0.331793    0.1924352  78.88 0.0009883929    1.708    0.415
        46 -10.8687     82.1326    249.0987   1.3547405117e+02   1.1953494536e+01    0.2984893    0.2272464  21.90  0.001770825    1.975    0.494
        47  -9.9802    237.3229    243.6609   1.0455221221e+02  -1.2222446386e+01    0.1050771   0.09822534  67.19 0.0005491247    1.720    0.419
