#   1 NUMBER                 Running object number                                     
#   2 MAG_AUTO               Kron-like elliptical aperture magnitude                    [mag]
#   3 X_IMAGE                Object position along x                                    [pixel]
#   4 Y_IMAGE                Object position along y                                    [pixel]
#   5 X_WORLD                Barycenter position along world x axis                     [deg]
#   6 Y_WORLD                Barycenter position along world y axis                     [deg]
#   7 A_WORLD                Profile RMS along major axis (world units)                 [deg]
#   8 B_WORLD                Profile RMS along minor axis (world units)                 [deg]
#   9 THETA_WORLD            Position angle (CCW/world-x)                               [deg]
#  10 FWHM_WORLD             FWHM assuming a gaussian core                              [deg]
#  11 ELONGATION             A_IMAGE/B_IMAGE                                           
#  12 ELLIPTICITY            1 - B_IMAGE/A_IMAGE                                       
         1 -14.7145    127.0345     76.8794   3.5722387234e+01   4.2251239723e+01     1.483755     1.034826 -70.87  0.006575939    1.969    0.492
         2 -13.8832    247.9923     36.2318   6.4436298392e+00   2.0606864381e+01     1.315752    0.4064062 -47.88  0.005809377    2.569    0.611
         3 -15.2961    228.4044     52.7779   1.1732820075e+01   2.2393058249e+01     2.715487     1.022069 -46.20   0.01182693    2.291    0.563
         4 -14.3076     27.6523     25.4633   5.2735398917e+01   6.8405258247e+01     2.843472     1.340798  47.58   0.01185331    4.497    0.778
         5 -13.9429      2.1392     33.2353   6.8669135015e+01   6.9327049255e+01     1.500113    0.2746067 -58.27  0.004839223    6.102    0.836
         6 -14.3499     10.2422     28.5950   6.2823349730e+01   6.9567468857e+01     0.976954    0.7250798 -55.56  0.006680054    1.637    0.389
         7 -13.9700     23.4988     43.2328   6.1462063904e+01   6.5903693316e+01    0.8409833    0.7357624  41.15  0.004649078    1.541    0.351
         8 -13.5927    171.7649     19.9292   1.0781960850e+01   3.9747494826e+01     1.061174    0.6036323 -80.49  0.005107836    2.002    0.501
         9 -13.8680     11.7973     45.4786   6.7735775226e+01   6.6462536966e+01     1.236753    0.3049516 -40.91   0.00488516    3.411    0.707
        10 -12.4189     29.8018     12.5155   4.5948414496e+01   6.9943553369e+01    0.3166252    0.2080993  -1.60  0.002037823    1.431    0.301
        11 -13.4509     19.6898      7.9440   4.8921620171e+01   7.1730517548e+01    0.5226631    0.3187492  27.07  0.002820253    1.532    0.347
        12 -12.7622     63.5229      3.5607   2.7896391905e+01   6.5599927331e+01    0.5899829    0.4037273  22.79  0.003749356    1.343    0.256
        13 -12.9745     52.8187      2.1512   3.1043009954e+01   6.7627484352e+01    0.8794578    0.2045335  49.29  0.003404023    3.709    0.730
        14 -12.2436    133.5311      3.3593   1.1574374487e+01   5.0524756920e+01    0.3579016    0.2135219  65.20  0.001977077    1.371    0.271
        15 -12.3361     35.1808      2.1496   3.8361314426e+01   7.0412119797e+01    0.3590495    0.1555595  30.58   0.00189008    2.150    0.535
        16 -14.8447     44.9720    210.9144   8.4522623683e+01   2.4840849997e+01     1.395988    0.8685041 -55.90  0.005824882    1.830    0.454
        17 -12.7467     90.3560    249.1168   7.8539089068e+01   1.0506863427e+01    0.4604522    0.3289445  43.81  0.002468447    1.185    0.156
        18 -15.2792    105.5945    242.5723   7.4644946283e+01   9.4619822086e+00     2.948738     1.293996  52.29   0.01293378    2.274    0.560
        19 -12.5967     75.4619    220.2952   7.8668205195e+01   1.8624250147e+01    0.5376797    0.4490716 -87.57  0.002667397    1.174    0.148
        20 -14.1439     85.1165    229.6388   7.7573310500e+01   1.5195778893e+01     1.168251     0.677447 -56.38   0.00602819    1.939    0.484
        21 -13.4772     73.8101    229.1359   7.9976123620e+01   1.6958549196e+01    0.9014384    0.4362546  45.09  0.004094172    1.747    0.428
        22 -12.3712     71.2851    247.6210   8.2290441552e+01   1.3537264983e+01    0.7476406    0.2973192  55.06  0.003330713    2.416    0.586
        23 -12.0152     62.2190    248.1291   8.4159398416e+01   1.4679163708e+01    0.4441405    0.2616281  72.10  0.002491228    1.680    0.405
        24 -13.8931     49.3845    243.8073   8.6369548972e+01   1.7226508374e+01     0.823824    0.5417706  75.66  0.004229052    1.363    0.266
        25 -11.5732     39.5997    242.7890   8.8224966129e+01   1.8652698401e+01    0.4362659    0.1885131  54.23  0.001462637    1.913    0.477
        26 -14.0586     31.8672    228.9300   8.8777292385e+01   2.2450879696e+01    0.9870249    0.4708005  72.64  0.003712412    2.102    0.524
        27 -13.3679     22.5179    219.2331   9.0004302482e+01   2.5585801905e+01    0.5445017    0.3148847  71.77  0.001934942    1.502    0.334
        28 -12.8807     32.7007    248.5468   8.9941031978e+01   1.8325493824e+01    0.5165056    0.3699603  61.66  0.002680516    1.065    0.061
        29 -12.5759     31.3001    239.7409   8.9636609259e+01   2.0261686178e+01    0.5336473     0.245532  53.36  0.002233593    1.754    0.430
        30 -15.0902      9.5430    227.6019   9.3117568027e+01   2.5143472804e+01     2.407069     1.012548  89.33   0.01229142    2.202    0.546
        31 -14.4477      8.0894    207.2999   9.2202811620e+01   2.9674553928e+01    0.7292385    0.5433655  85.90  0.003392054    1.082    0.076
        32 -14.1803     35.3968    204.6384   8.6094501277e+01   2.7418106340e+01     1.029177    0.4281397 -58.71   0.00426163    2.461    0.594
        33 -13.2039     34.5224    194.4460   8.5368986912e+01   2.9888045123e+01    0.5428834    0.3434665 -83.75  0.001792847    1.421    0.296
        34 -12.4830    184.5582    231.8482   5.6520896955e+01  -1.2859507431e+00    0.2772015    0.2108412  26.00  0.001646803    1.163    0.140
        35 -12.8338     66.6118    235.5632   8.2143821980e+01   1.6624207647e+01    0.7370121    0.4251245  67.19  0.003886032    1.728    0.421
        36 -11.5564    118.5538    219.2710   6.8808760835e+01   1.2059159870e+01    0.3219995     0.132014 -53.92  0.001304694    2.651    0.623
        37 -11.6738    118.3081    237.5995   7.1327498275e+01   8.4206680575e+00    0.3552131    0.2278626  52.73  0.001565417    1.462    0.316
        38 -11.9069    105.7889    215.9094   7.1246571237e+01   1.4882321842e+01    0.3289857    0.2039651 -80.85  0.001533186    2.076    0.518
        39 -11.2278     85.4106    215.1192   7.5815706435e+01   1.8280450817e+01    0.2811022    0.1775917  47.94  0.001100792    1.403    0.287
        40 -13.6681     12.3912    182.0494   8.9453377942e+01   3.5065390069e+01    0.6652617    0.4090274  88.26  0.002151423    1.396    0.284
        41 -12.2098     24.3727    209.5512   8.8913976373e+01   2.7529322773e+01    0.4705903    0.2549064  87.59  0.002139643    1.699    0.412
        42 -11.9585    122.9431    210.1612   6.6468090833e+01   1.3237086343e+01    0.3559375    0.2738734  15.00  0.001835161    1.601    0.375
        43 -13.6465     70.6786    202.4772   7.7713558808e+01   2.3341197703e+01     1.498733    0.4541238  51.16  0.004885911    3.745    0.733
        44 -13.6464    248.3962    198.9672   3.8788167273e+01  -5.6252985661e+00    0.5279402    0.4001343 -39.00  0.003348532    1.343    0.255
        45 -13.5989    238.5226    197.3406   4.0177447799e+01  -3.9469773066e+00    0.4520113    0.3599913 -27.06  0.002864007    1.127    0.113
        46 -12.1868    159.9313    193.0642   5.5097874027e+01   1.0202762024e+01    0.4105277    0.3561679 -78.27  0.002177482    1.376    0.273
        47 -13.0503     95.2915    203.8176   7.2033725164e+01   1.9267888517e+01    0.6618369    0.5203567  79.77  0.002343546    1.305    0.234
        48 -11.7280    111.9724    187.9507   6.5561920831e+01   2.0112872885e+01    0.5380863    0.3268343 -79.05  0.002231522    2.260    0.558
        49 -11.7754     47.1277    188.6434   8.1775581042e+01   2.9779532686e+01    0.4793864     0.204925 -62.18  0.002112804    2.167    0.538
        50 -11.9417     44.4182    183.0744   8.1822385160e+01   3.1454645545e+01    0.5315744    0.2938315 -79.28  0.002573631    1.733    0.423
        51 -11.8501      3.8381    187.3929   9.1805550170e+01   3.4567871107e+01    0.2231874     0.192901 -48.46 0.0007135326    1.499    0.333
        52 -12.3294    135.7483    175.9319   5.7552100182e+01   1.8509294690e+01    0.8728505     0.304803 -56.28   0.00274715    3.377    0.704
        53 -12.2968     52.7166    171.1929   7.8258885862e+01   3.3346923121e+01    0.8581732    0.2677728  46.24  0.003029122    3.237    0.691
        54 -11.7500     39.0828    165.5718   8.1142161411e+01   3.6375057780e+01    0.2994548    0.2637047  69.88 0.0006355298    1.101    0.092
        55 -13.5446     33.0879    156.5754   8.1646128895e+01   3.9257703843e+01    0.8564838    0.5393201  69.13  0.003593499    1.696    0.410
        56 -13.0841     13.7063    162.9488   8.7462279604e+01   3.9519316647e+01     1.072783    0.5398975  69.84  0.005131001    2.163    0.538
        57 -12.3555     17.6657    160.6564   8.6217382108e+01   3.9732342182e+01    0.5106239    0.3241617 -66.65  0.002877862    1.372    0.271
        58 -11.4055     47.3384    161.1063   7.8348736558e+01   3.6529080956e+01    0.2461251    0.2169966 -65.91 0.0006387818    1.133    0.118
        59 -13.4835    107.4341    127.5677   5.4794541592e+01   3.5502012294e+01    0.7000883    0.4701111 -54.40  0.003135741    1.482    0.325
        60 -14.3256    115.4708    143.7336   5.6210787529e+01   3.0055510617e+01     2.088829     1.040576 -61.69  0.007592341    2.375    0.579
        61 -13.1807    106.5698    134.3061   5.6590746985e+01   3.4047794753e+01    0.7088445    0.5353371  35.64  0.003365236    1.379    0.275
        62 -13.5675     46.1426    148.6801   7.6915467590e+01   3.9791658036e+01    0.5897239    0.4124596  33.00   0.00236317    1.556    0.357
        63 -13.5538    244.6418    147.0224   2.9396564186e+01   3.5468843140e+00    0.3889875    0.3703122 -29.35  0.002560463    1.108    0.097
        64 -11.1728     70.5059    145.5265   6.9331383940e+01   3.7364612289e+01    0.2927319    0.2364047  59.37  0.001152047    1.278    0.218
        65 -13.5181     23.4161    143.1690   8.2671183468e+01   4.3520889960e+01    0.7579269    0.5755531  45.44  0.003664064    1.416    0.294
        66 -12.5301    173.8815    146.1246   4.2372181358e+01   1.7393814181e+01    0.4773608    0.2962324  60.05  0.001992498    1.966    0.491
        67 -13.9856     44.8150    135.9580   7.5322744748e+01   4.3140753723e+01     1.153229    0.6585221 -45.41  0.004617265    1.825    0.452
        68 -10.5871     68.5362    148.4984   7.0430602803e+01   3.6902635862e+01    0.2909343    0.2044952  21.95   0.00102506    1.709    0.415
        69 -12.1236     75.1983    133.4431   6.5622370349e+01   3.9688248537e+01    0.5359114    0.2514146 -47.25 0.0008280699    2.156    0.536
        70 -12.1528      2.2512    129.4453   8.7160094748e+01   4.8472606015e+01    0.4345711    0.1981159 -76.41  0.001511021    1.844    0.458
        71 -14.5410     91.5894    119.5057   5.7559146547e+01   4.0376868612e+01     1.133049     1.035193 -59.81   0.00416283    1.070    0.065
        72 -11.6884      1.0000    115.8460   8.5955381176e+01   5.1788390565e+01    0.7568287   0.05818308 -72.24  0.001551014   10.546    0.905
        73 -12.1409     18.3942     94.4279   7.6774660445e+01   5.5685995052e+01     0.485225    0.2618605 -65.62  0.002506068    1.630    0.387
        74 -14.9654     16.7803    110.1472   8.0057985281e+01   5.2117358175e+01     1.476345    0.9551007  65.39  0.005930923    1.924    0.480
        75 -12.6610    107.9905    114.5865   5.1467799849e+01   3.8442882676e+01    0.6156347    0.5122538 -63.49  0.002364614    1.251    0.201
        76 -13.9190     67.1078    111.7243   6.3486249691e+01   4.6222677793e+01    0.9587925    0.7839464 -61.64  0.003231336    1.186    0.157
        77 -14.5924    245.6991    104.3331   2.0501736357e+01   1.0698300480e+01     1.310036    0.6242619 -59.74  0.005382097    2.748    0.636
        78 -12.2571     80.1156    111.1644   5.9131966246e+01   4.4330117616e+01     0.429853    0.4036544 -25.24  0.002403613    1.095    0.086
        79 -14.4753      7.1709     92.3516   8.0469269138e+01   5.6910354449e+01     1.152005    0.6639553 -57.58  0.005084973    1.380    0.275
        80 -12.5890    138.1088    102.6437   4.0145601334e+01   3.4634594914e+01    0.5180598    0.4353956 -27.01  0.002561508    1.336    0.252
        81 -10.7868     45.9897    105.5031   6.9225556168e+01   5.0473443565e+01    0.1971073     0.136384  27.23  0.001030687    1.584    0.369
        82 -12.8241     87.7982    100.2840   5.3897005624e+01   4.5520795560e+01    0.8541712    0.4001625  48.63  0.003237208    2.443    0.591
        83 -13.7843    163.7992     96.0208   3.2427904997e+01   3.0010401168e+01     1.007101    0.4262875 -41.60  0.003666234    2.364    0.577
        84 -11.2769     43.6476     98.3954   6.8484752431e+01   5.2410546770e+01    0.2735708    0.2184898 -36.92  0.001111145    1.200    0.167
        85 -13.5090     79.9480     89.5833   5.3531216847e+01   4.9250409786e+01    0.7848639    0.5783961 -31.04  0.003509409    1.434    0.302
        86 -11.6360     41.8348     92.8804   6.7873606780e+01   5.3882741257e+01    0.3667029    0.2379686  48.09  0.001872288    1.885    0.470
        87 -13.1271    249.2039     83.3982   1.5762348376e+01   1.3459474980e+01    0.4510731    0.2800204 -29.15  0.002334037    1.929    0.482
        88 -13.4145    248.1252     75.9899   1.4377126060e+01   1.4835165893e+01    0.5737284    0.2960712 -60.50  0.002766832    2.008    0.502
        89 -12.4689    149.2184     86.3549   3.3055221366e+01   3.5307375976e+01    0.6171592    0.3603766 -33.67  0.002576356    1.938    0.484
        90 -12.8488     82.4402    244.5772   7.9714966874e+01   1.2549689102e+01    0.4924713    0.3942998  52.88  0.002163495    1.047    0.045
        91 -14.7336     70.6672     75.8393   5.2716339254e+01   5.3665424146e+01     2.067304    0.8898258  39.86  0.008450071    2.367    0.578
        92 -13.9517    248.8543     55.7158   1.0209743033e+01   1.7737733841e+01     1.152407    0.3312131 -46.56  0.004691551    2.778    0.640
        93 -13.8649     13.4836    215.3471   9.1600570538e+01   2.7375107263e+01    0.5706934    0.3288448 -80.41  0.002378029    1.512    0.338
        94 -13.1969    151.4129    224.4264   6.2292038578e+01   5.4800297415e+00      0.58303    0.4675466  55.27  0.002351436    1.316    0.240
        95 -14.8815    147.0192     71.0181   2.9253373261e+01   3.8605378234e+01     1.498876    0.8982456 -87.88  0.005377495    3.130    0.680
        96 -13.3691      3.1801     70.8886   7.7986672937e+01   6.1875191781e+01    0.8145598    0.2935874 -55.15  0.003180996    2.014    0.503
        97 -12.9538      3.0019     62.5030   7.6247585652e+01   6.3645412706e+01    0.3739899    0.2429974 -57.53  0.002359479    1.294    0.227
        98 -13.5508    112.2922     63.2163   3.5456767185e+01   4.7981298192e+01     1.383855    0.5200441  51.43  0.005012487    2.589    0.614
        99 -14.0672     73.6886     62.0290   4.7232964641e+01   5.5815687131e+01    0.9402134    0.6416386  31.77  0.004926693    1.448    0.310
       100 -14.0663     65.5332     58.8143   4.9122292920e+01   5.7749074045e+01    0.8355073    0.5437493 -40.28  0.003595151    1.513    0.339
       101 -12.7300     83.8040     61.9358   4.3712366765e+01   5.4021411587e+01    0.7880813    0.4291885  56.70  0.003282112    2.515    0.602
       102 -12.8755    159.4043    240.0588   6.2954644209e+01   1.3334880556e+00    0.6369574    0.4001559 -25.57  0.003220628    2.164    0.538
       103 -13.4478      3.7518     42.7336   7.0794700543e+01   6.7501751877e+01    0.5698114    0.4259761 -42.65  0.002456438    1.113    0.102
       104 -14.3382    161.0822    230.4809   6.1161179903e+01   2.7490511479e+00     1.037697    0.8334382  45.13  0.004131636    1.211    0.174
       105 -12.6487    236.1892    238.1100   4.7732617515e+01  -9.7206219941e+00    0.3664423    0.1973532 -39.27  0.002080522    1.941    0.485
       106 -12.8925     72.6705     45.3156   4.1732957866e+01   5.8817395174e+01    0.5465038    0.4695773  54.42  0.002731217    1.387    0.279
       107 -12.5419    187.1075    238.4675   5.7063285337e+01  -2.7658825928e+00    0.4112919    0.2398043 -18.90  0.001987043    2.365    0.577
       108 -13.3662     29.5150     72.6110   6.7610478930e+01   5.9595881339e+01     1.227213    0.8083351 -79.78  0.006317249    2.201    0.546
       109 -13.0814    181.9064     30.9659   1.2274095342e+01   3.6013974918e+01    0.6025608    0.3454782 -59.58  0.002969837    1.832    0.454
       110 -13.5733    137.1946    233.7181   6.6740482150e+01   6.0943991405e+00    0.8105885    0.6193653  48.88  0.003186402    1.210    0.174
       111 -12.7359    240.1446     46.4225   9.1886534141e+00   2.0822390586e+01    0.5448514     0.282303  54.12  0.002103901    2.355    0.575
       112 -13.4911    130.1776    228.0837   6.7469198502e+01   8.3381514404e+00    0.8761774    0.5750879 -16.81  0.003920364    2.715    0.632
       113 -10.8804     97.4986     16.5137   2.3280762158e+01   5.7554065903e+01    0.1289943    0.1098745  44.47 0.0004234809    1.000    0.000
       114 -14.0450     27.1764    175.0567   8.5254247443e+01   3.5319140793e+01     1.231608    0.5619588 -84.01   0.00532866    2.191    0.543
       115 -12.1384     49.3938    232.9903   8.5503023300e+01   1.9455307925e+01    0.4847609     0.301856 -80.87  0.002090527    1.563    0.360
       116 -14.1568     62.1530    219.4963   8.1541418026e+01   2.0678881871e+01      1.25106    0.7965068 -45.47  0.005640214    2.160    0.537
       117 -14.2508     22.9806    194.5637   8.8035452750e+01   3.1106220029e+01    0.9982386    0.7363273  56.34  0.004585674    1.242    0.195
       118 -14.2264     52.4322    218.6553   8.3596340205e+01   2.2160121844e+01     1.683676    0.6970219 -46.88  0.006348933    4.136    0.758
