#   1 NUMBER                 Running object number                                     
#   2 MAG_AUTO               Kron-like elliptical aperture magnitude                    [mag]
#   3 X_IMAGE                Object position along x                                    [pixel]
#   4 Y_IMAGE                Object position along y                                    [pixel]
#   5 X_WORLD                Barycenter position along world x axis                     [deg]
#   6 Y_WORLD                Barycenter position along world y axis                     [deg]
#   7 A_WORLD                Profile RMS along major axis (world units)                 [deg]
#   8 B_WORLD                Profile RMS along minor axis (world units)                 [deg]
#   9 THETA_WORLD            Position angle (CCW/world-x)                               [deg]
#  10 FWHM_WORLD             FWHM assuming a gaussian core                              [deg]
#  11 ELONGATION             A_IMAGE/B_IMAGE                                           
#  12 ELLIPTICITY            1 - B_IMAGE/A_IMAGE                                       
         1 -14.7340     67.8460    144.0789   1.1369305000e+02   3.7439043232e+01     3.011442     1.286144 -83.83  0.005711747    4.323    0.769
         2 -14.6810    204.7849     19.4866   5.0608301396e+01   3.1522917729e+01     1.957026     1.324503  20.20  0.007859327    1.926    0.481
         3 -14.5448    194.1249     32.3885   5.6016140749e+01   3.2766963208e+01     2.256255     1.451417  21.70  0.007841432    2.087    0.521
         4 -11.1935     40.7171      2.8550   8.4271820214e+01   6.8888409934e+01    0.1988007    0.1202882 -19.15  0.001214816    1.447    0.309
         5 -10.7205     56.8019      2.4040   7.7629766083e+01   6.6810355648e+01    0.1644736   0.09958541  25.73 0.0008118477    1.680    0.405
         6 -11.1124    211.0932    179.9416   9.0474565892e+01   5.1002455632e+00    0.4014247    0.2679999 -18.80  0.001996306    1.790    0.441
         7 -15.7100    109.8874    247.9226   1.1735592963e+02   1.2511858979e+01     7.248047     1.947356  40.78   0.03015168    3.891    0.743
         8 -15.1119     46.2266    234.1568   1.2604886236e+02   2.3011745041e+01     1.603638    0.7914881  79.91   0.00588904    1.799    0.444
         9 -12.1401     73.4239    180.9061   1.1708404991e+02   2.9119773938e+01    0.3475915     0.243041 -43.83  0.002082724    2.187    0.543
        10 -12.1308     77.4833    175.4921   1.1569070095e+02   2.9633121397e+01    0.3041679    0.2396405 -53.87 0.0008977394    1.579    0.367
        11 -10.4751     99.4928    180.5718   1.1200990498e+02   2.5412082830e+01     0.213066    0.1783986  72.82 0.0006699847    1.023    0.022
        12 -10.0146     59.0695    176.8466   1.1939372990e+02   3.1771225522e+01    0.1729511    0.1387932  80.93 0.0005652342    1.058    0.055
        13 -10.0292    198.2169    176.3647   9.2158635011e+01   8.1460798247e+00    0.3556489    0.1708411  54.48  0.001512458    2.278    0.561
        14 -10.8445    195.8915    170.7100   9.1519316951e+01   9.4931058285e+00    0.3609596    0.3194629 -37.20  0.001271576    1.253    0.202
        15 -10.1187    193.2512    164.8356   9.0875036925e+01   1.0973655453e+01    0.3235082    0.2401443 -39.41   0.00155057    1.471    0.320
        16 -10.7596    139.9640    173.9887   1.0302334768e+02   1.9802515181e+01    0.2140696    0.1515829  77.43 0.0005330139    1.664    0.399
        17 -12.3970     91.8424    158.2088   1.1050690282e+02   3.1068266594e+01    0.5471092     0.424378 -28.18  0.003086838    2.079    0.519
        18 -14.2499     86.6505    165.5406   1.1261131181e+02   3.0333671852e+01     3.630357    0.4354107  48.06  0.008691955    8.751    0.886
        19 -13.7836     73.8803    160.9341   1.1464532944e+02   3.3080785166e+01    0.6217917    0.4417788 -59.47  0.003859038    1.460    0.315
        20 -10.5541    173.9839    248.8774   1.0732958260e+02   2.4852632367e+00    0.1859074    0.1466506  64.69  0.001379649    1.368    0.269
        21 -11.0272    137.2580    170.6210   1.0301500091e+02   2.0928446321e+01    0.2374786    0.1612115  40.28 0.0009572195    1.482    0.325
        22  -9.8779    177.5069    169.5126   9.4810633441e+01   1.3370603512e+01     0.137443    0.1242123  47.36 0.0003287316    1.017    0.017
        23 -10.7471    145.6483    168.1295   1.0089607132e+02   1.9835198192e+01    0.2377847    0.1713292  58.25 0.0005245401    1.321    0.243
        24 -16.3841     53.9477    204.9364   1.2281103580e+02   2.7084586152e+01     4.191348     2.549095  65.21   0.02897927    1.304    0.233
        25 -10.1188    140.9642    157.8127   1.0003227910e+02   2.2690999991e+01    0.2156412    0.1896857 -76.87 0.0003888374    1.164    0.141
        26 -13.2414     54.7934    146.9373   1.1692441202e+02   3.8439037715e+01      0.53605    0.3891107  46.17   0.00349377    1.491    0.329
        27 -12.8452     46.2347    147.4338   1.1881715038e+02   3.9305110232e+01    0.4374788    0.2669867 -59.98  0.002677008    1.576    0.365
        28 -10.5395    174.7280    149.1031   9.1331300547e+01   1.7537103678e+01    0.2531509    0.1907285  57.17 0.0006424976    1.337    0.252
        29 -11.1102    133.5634    143.8532   9.8992683220e+01   2.6885119072e+01     1.003302    0.2300277 -54.99  0.002445188    6.615    0.849
        30 -11.0551    104.6747    142.2266   1.0513523401e+02   3.2393296473e+01    0.4672726    0.3152478 -30.80  0.002237906    2.337    0.572
        31 -12.3528     92.3329    142.6576   1.0799363074e+02   3.4275267266e+01    0.2504198    0.2201538 -59.46 0.0004329232    1.220    0.181
        32 -12.9295     46.2499    129.8118   1.1663061105e+02   4.3083632107e+01    0.4551373    0.3166586  66.10  0.002883248    1.449    0.310
        33 -10.4093    113.2218    131.6282   1.0119686645e+02   3.3191236619e+01    0.2778823    0.2500421   7.79  0.001017963    1.445    0.308
        34 -10.3264    106.0373    130.8499   1.0272611393e+02   3.4602844852e+01    0.2885321    0.2143834 -69.65  0.001559766    1.321    0.243
        35 -11.4699    118.8365    125.6828   9.8666203701e+01   3.3449665918e+01    0.7354144    0.3411604 -37.56  0.002687972    3.080    0.675
        36 -11.0205    100.4375    128.2632   1.0355244844e+02   3.6098053539e+01    0.2729717    0.2151125 -37.98 0.0007991484    1.515    0.340
        37 -10.8793     73.0941    128.8357   1.1017463758e+02   4.0059554154e+01    0.2043577    0.1569917  82.43 0.0006741936    1.280    0.219
        38 -10.1354    160.4860    127.9500   8.9696750516e+01   2.4586797164e+01    0.2301424    0.1462434 -44.12  0.001039398    1.610    0.379
        39  -9.6101    125.6857    127.3492   9.7413431933e+01   3.1814894452e+01    0.1495104    0.1090282  88.47 0.0007046865    1.724    0.420
        40  -9.2074     97.5059    138.5578   1.0612245213e+02   3.4345198306e+01    0.1352513    0.1167817  87.48 0.0001615964    1.059    0.056
        41 -10.5703    135.2850    121.6561   9.3925472893e+01   3.1132610719e+01    0.4864708    0.1210647 -52.81  0.001219252    5.443    0.816
        42 -10.7564     76.9764    133.9278   1.1009065802e+02   3.8413849725e+01     0.198984    0.1644726  89.64 0.0005347477    1.088    0.081
        43  -9.7758    108.9850    120.1199   9.9851139387e+01   3.6416375828e+01    0.2008476    0.1866255 -87.74 0.0003194386    1.029    0.028
        44 -10.0081    167.5438    112.3820   8.4411530358e+01   2.6054784927e+01    0.3325533    0.2368345 -75.38  0.001229564    2.006    0.501
        45 -10.9669    119.6788    110.9924   9.5193555475e+01   3.6433292362e+01    0.3270857    0.1975176  54.84  0.001477139    1.816    0.449
        46 -14.9968     11.5384    206.4066   1.2976158907e+02   3.1366002479e+01    0.7588432    0.4203162  38.84  0.003955745    2.096    0.523
        47  -9.8751    205.7294    109.9971   7.6049700126e+01   1.7577443647e+01    0.2563584    0.2162428  48.21 0.0005836079    1.185    0.156
        48 -11.0955     46.2220    172.6541   1.2143015027e+02   3.4122337276e+01    0.3125377    0.1683266  46.46  0.001918284    1.791    0.442
        49 -17.7976      7.1538    240.3293   1.3190541876e+02   2.6164071385e+01      13.1733     1.294214 -77.24   0.04793028    8.265    0.879
        50  -9.6488    134.5048    102.9451   8.9589678905e+01   3.5183209322e+01    0.2314691    0.1434466 -45.10  0.001027947    1.575    0.365
        51  -9.8056    228.6535    171.3294   8.5683356666e+01   2.9339036453e+00    0.1255006    0.1078598 -89.20 0.0007049931    1.757    0.431
        52  -9.2895     24.9799     82.4702   1.1486704999e+02   5.5363257744e+01    0.1340733    0.1181699  27.66 0.0003426325    1.472    0.321
        53  -9.4821     63.3165     69.9165   1.0044777433e+02   5.4205788526e+01    0.1865225    0.1453951 -49.34 0.0006305099    1.083    0.077
        54 -10.9130    159.8635     61.5067   7.1615921696e+01   3.7291804261e+01    0.3262442    0.2719693 -83.15 0.0006201541    1.456    0.313
        55  -9.0202    116.6722     56.3322   8.0438198339e+01   4.8034767555e+01     0.145745    0.1151117 -72.61 0.0007051594    1.715    0.417
        56  -9.7900    161.6770     55.0220   6.9152868516e+01   3.7911739949e+01    0.2121506    0.1950845 -31.19  0.000504796    1.084    0.078
        57 -12.1533    184.1118    215.0504   1.0116684586e+02   5.1250689279e+00    0.3054814    0.2757223 -69.92   0.00196348    1.410    0.291
        58 -13.6249     31.5111    206.1334   1.2659521265e+02   2.9413608168e+01    0.7205392    0.2371721  57.92  0.001510516    2.563    0.610
        59 -13.0774    184.7970     39.6507   5.9795415804e+01   3.4257505377e+01    0.8619118    0.5394812  46.88  0.002401688    1.601    0.376
        60 -10.9510    207.8242    183.8246   9.1784682119e+01   5.1668799520e+00    0.2316185    0.2228564 -13.48 0.0009277034    1.187    0.157
        61  -9.3991    180.3128    192.6772   9.8353835519e+01   9.0716764542e+00     0.126644   0.09738132  75.46 0.0007039812    1.657    0.396
        62  -9.5731    150.8787     23.3087   6.0590270128e+01   4.5153462335e+01    0.2249752    0.1803087  88.18  0.001138158    1.497    0.332
        63  -9.3703    170.6734     20.2892   5.5926907629e+01   4.0435351025e+01    0.1492688    0.1105819 -66.83 0.0003028817    1.614    0.380
        64 -12.5676    194.1748    194.0589   9.6057330313e+01   6.2666609866e+00    0.7686801     0.609551 -76.64  0.004479335    1.852    0.460
        65 -10.8878    189.8274     15.1096   5.1309161888e+01   3.5969398060e+01    0.2246233    0.1943054 -65.06 0.0006380967    1.204    0.170
        66 -11.2671     93.3372    237.0933   1.1901291685e+02   1.6491286976e+01    0.2599406    0.1610243  58.99 0.0009568272    1.210    0.174
