#   1 NUMBER                 Running object number                                     
#   2 MAG_AUTO               Kron-like elliptical aperture magnitude                    [mag]
#   3 X_IMAGE                Object position along x                                    [pixel]
#   4 Y_IMAGE                Object position along y                                    [pixel]
#   5 X_WORLD                Barycenter position along world x axis                     [deg]
#   6 Y_WORLD                Barycenter position along world y axis                     [deg]
#   7 A_WORLD                Profile RMS along major axis (world units)                 [deg]
#   8 B_WORLD                Profile RMS along minor axis (world units)                 [deg]
#   9 THETA_WORLD            Position angle (CCW/world-x)                               [deg]
#  10 FWHM_WORLD             FWHM assuming a gaussian core                              [deg]
#  11 ELONGATION             A_IMAGE/B_IMAGE                                           
#  12 ELLIPTICITY            1 - B_IMAGE/A_IMAGE                                       
         1 -11.2983     40.9547     20.2400   8.1521695037e+01   7.0169848091e+01    0.4242812    0.2601233  30.46  0.001937289    1.823    0.452
         2 -11.0227     75.7410     20.1978   6.6225713593e+01   6.3658730455e+01    0.5177004    0.2981727 -17.69  0.002275787    1.993    0.498
         3 -11.0203     13.7853     16.1670   9.6275686582e+01   7.4341204788e+01    0.2708161    0.2029265  31.42  0.001005486    1.580    0.367
         4 -11.4979    234.8493     15.0813   3.9153860977e+01   2.5066342064e+01    0.2357248    0.2057832 -46.90 0.0002881076    1.064    0.060
         5  -9.7551     92.8174      9.9743   5.5671630756e+01   6.1040111605e+01    0.4519764    0.2460161 -11.28  0.001936424    2.099    0.524
         6 -10.9547     89.5981     13.7092   5.8465526263e+01   6.1378238299e+01     0.438581    0.2317241 -41.49  0.001905825    1.985    0.496
         7 -10.6336     66.3355     13.9486   6.6189466204e+01   6.6547129763e+01    0.2363327    0.1933344  22.14   0.00040638    1.234    0.190
         8  -9.8366     63.6937     11.3202   6.5655241355e+01   6.7455408146e+01    0.2606978    0.1931249 -55.52 0.0007116404    1.727    0.421
         9 -10.4110     37.0424      6.4053   7.5019616040e+01   7.3118202511e+01    0.3308302    0.1917443 -45.41   0.00167595    1.871    0.466
        10 -11.7583     34.6744     12.6869   8.0550271918e+01   7.2464283281e+01    0.3342836     0.270503 -44.74 0.0008796647    1.281    0.219
        11 -11.5667     30.4776      7.4135   7.9627646279e+01   7.3977785575e+01    0.4078518     0.356641   8.57  0.002673183    1.154    0.133
        12 -10.0315    134.9779     11.5351   4.8012665457e+01   5.0109012260e+01    0.2106563    0.1903782 -26.13 0.0003018142    1.110    0.099
        13  -9.7381     99.7702     11.5894   5.4781658269e+01   5.9157865333e+01    0.2457643    0.1833663  73.61  0.001251957    1.456    0.313
        14 -10.5079    126.3500     10.8438   4.9116858751e+01   5.2444043765e+01    0.3489156     0.191252  48.95 -0.000275831    1.830    0.453
        15 -10.2988     22.2673      9.5938   8.6483790410e+01   7.4710397017e+01    0.2962205    0.1941784   2.73  0.001612725    1.884    0.469
        16  -9.3217     45.6876      9.4121   7.2434385597e+01   7.1189870263e+01    0.1915204    0.1579083 -63.54 0.0007319672    1.687    0.407
        17  -9.4316     15.3818      8.8490   9.0965109132e+01   7.5639709339e+01    0.1691042   0.09420057 -39.61 0.0002825243    1.519    0.342
        18 -10.4118     85.8138     12.3522   5.8820240142e+01   6.2434333796e+01    0.2674091    0.1794126  44.26 0.0005530661    1.476    0.322
        19 -10.7814     72.2265      7.3969   6.0235098948e+01   6.6122618197e+01    0.3795279    0.2880875  61.07  0.001260859    1.428    0.300
        20  -9.4448     70.3214      4.6729   5.9233518082e+01   6.6856940049e+01    0.2189867    0.1360897  62.82  0.001073495    1.768    0.434
        21 -10.3846      1.5609      5.3551   1.0008795464e+02   7.7548123672e+01    0.4129869    0.1623226 -63.25  0.001857488    2.591    0.614
        22 -11.7708     56.9797      3.1915   6.3182028630e+01   6.9869129332e+01    0.4495265    0.3451338  13.29  0.002574861    1.300    0.231
        23  -9.5442    151.2838      5.6894   4.3531426727e+01   4.6372261417e+01    0.1493661   0.09697253 -54.93 0.0002003168    1.571    0.363
        24  -9.8523    107.7044      4.9630   4.9838111949e+01   5.7843343688e+01     0.187665    0.1731713  -8.17 0.0001610105    1.090    0.083
        25  -9.8569    104.4884      4.5338   5.0268497994e+01   5.8700779336e+01    0.2830358    0.1968115  88.04 0.0005873911    1.672    0.402
        26 -11.0217    101.1156      2.0743   4.9731646794e+01   5.9778279458e+01     0.361717    0.2289496  61.58 0.0003122137    1.514    0.340
        27  -9.7882     41.9380      5.0204   7.1384339990e+01   7.2493051996e+01    0.2042015    0.1420272   4.54 0.0006484184    1.613    0.380
        28  -9.7446      8.1657      5.3549   9.4462624134e+01   7.7019766669e+01     0.144731    0.1098014  28.79 0.0005073887    1.558    0.358
        29  -9.9283      3.7694     10.8222   1.0114544669e+02   7.6266604590e+01    0.1453495    0.1250867 -65.03 0.0003678762    1.253    0.202
        30 -10.7669     20.5220      1.9974   8.2464114440e+01   7.6258992040e+01    0.2147635    0.1784565  -3.14 0.0005049645    1.142    0.125
        31 -11.1900    243.9447      1.9080   3.5340509223e+01   2.4423825648e+01    0.2710242    0.1562042  63.71  0.001510296    2.032    0.508
        32  -9.2362    176.3165      2.3600   3.9840784411e+01   4.0163412582e+01     0.143949   0.09911502  34.42 2.604632e-05    1.758    0.431
        33 -11.7436     80.6396      1.6655   5.4338965973e+01   6.4812502588e+01    0.3490553    0.1794757  59.51 0.0005660424    1.885    0.469
        34  -9.9265    153.9080      1.3323   4.1625496009e+01   4.6066574569e+01    0.1999961    0.1266445  77.55 0.0003873614    1.558    0.358
        35  -9.1384     67.3914      1.4755   5.8229148120e+01   6.7850754041e+01    0.1342649    0.1193532   7.64 0.0001805903    1.034    0.032
        36  -9.7402     11.0447      1.4834   8.9472944407e+01   7.7466234049e+01    0.1627853    0.1156208  27.09 0.0009814493    1.586    0.370
        37  -8.9183    247.4781    155.4632   7.0751428710e+01   5.1559735139e+00    0.1208705   0.09477097  -6.24 0.0002988299    1.007    0.007
        38 -11.3388      3.2254    249.2413   1.2729158479e+02   2.3570380168e+01    0.4063325    0.1701476  50.54  0.002850952    1.526    0.345
        39 -12.3354     16.2580    249.0116   1.2509367822e+02   2.2440296249e+01    0.5117117    0.1750437  29.20  0.002816825    2.895    0.655
        40 -12.6638      4.7118    240.4115   1.2683713514e+02   2.4853606928e+01     0.502611    0.2828592  39.22  0.003778987    1.441    0.306
        41 -12.0045     14.1265    238.8692   1.2515762206e+02   2.4264760504e+01     0.289736    0.1090937  52.44  0.001458043    1.786    0.440
        42 -12.1301      4.0177    232.5962   1.2676620909e+02   2.6210318984e+01    0.2644484    0.1528012  52.28  0.001993781    1.194    0.162
        43 -12.7221      9.6849    227.7611   1.2561668898e+02   2.6536506758e+01     0.410663    0.3009692  83.22  0.001623594    1.308    0.235
        44 -10.6109      3.5323    153.5029   1.2411783962e+02   4.1893768374e+01    0.3109166   0.08690422  29.58  0.001382731    3.177    0.685
        45  -9.2657    237.7209    149.6769   7.1033718890e+01   7.3607026840e+00    0.1254731   0.08179278   0.64 0.0002831726    1.587    0.370
        46 -10.3201    212.6556    133.9189   7.1656527117e+01   1.3739543991e+01    0.2271352    0.1934308  48.41 0.0006647652    1.389    0.280
        47  -9.4781     96.0270    133.9685   9.6970558761e+01   3.5461268561e+01    0.1696821    0.1593315  83.09 0.0004900627    1.003    0.003
        48 -10.0162     23.9754    133.9242   1.1729830278e+02   4.4801443753e+01    0.1877645    0.1519369  79.47            0    1.030    0.029
        49 -10.4266      2.2606    132.8607   1.2336185699e+02   4.6773370566e+01    0.2802275    0.1666052  55.83  0.001338214    1.495    0.331
        50 -10.7772     11.7576    129.7634   1.2045857928e+02   4.6829852364e+01    0.2345878    0.1796012  60.46  0.001027808    1.199    0.166
        51  -9.2219     28.6627    128.2621   1.1537475251e+02   4.5746415838e+01    0.1351564   0.08191007  62.08 0.0002145655    1.584    0.369
        52 -11.7343      8.1639    121.3356   1.2087463887e+02   4.9145538965e+01    0.3226955    0.2294181  58.14  0.001071648    1.311    0.237
        53 -11.5319     23.7502    121.1872   1.1610672916e+02   4.7943080576e+01     0.420107    0.2193711  63.86  0.001103992    1.949    0.487
        54  -9.3517     17.6743    121.7446   1.1802321525e+02   4.8321563018e+01    0.1187385   0.08989209 -47.55            0    1.550    0.355
        55  -9.5237     41.7264    117.2896   1.1001203313e+02   4.7130003486e+01    0.1363161   0.09156362  71.24            0    1.513    0.339
        56 -10.8817     65.8538    111.0355   1.0130602144e+02   4.5638354158e+01     0.338277    0.2479361  81.41  0.001430857    1.490    0.329
        57 -11.1350     22.9363    110.2277   1.1513388303e+02   5.0754223597e+01    0.2229888    0.1611457 -81.12 0.0003702822    1.166    0.142
        58 -12.0091      3.6774    108.6242   1.2127877520e+02   5.2577733296e+01    0.4319735    0.2918316 -26.64   0.00162972    2.046    0.511
        59  -9.6382     35.7088    109.0446   1.1075590622e+02   4.9847364312e+01    0.1965621    0.1506357 -79.15 0.0003831481    1.130    0.115
        60 -10.8320     57.5409    107.7527   1.0333895962e+02   4.7601582035e+01    0.2748228    0.2340617  -5.21  0.001132493    1.539    0.350
        61  -9.7686    117.0050    104.0179   8.4582915666e+01   3.8383861484e+01    0.1825516    0.1712423 -55.48 0.0004661656    1.031    0.030
        62 -10.1491    186.9542    103.0445   6.8766605944e+01   2.3667146975e+01    0.2153487    0.2004678 -23.87 0.0005533431    1.022    0.021
        63  -9.4391    135.5437    102.4414   7.9429629589e+01   3.4873007660e+01    0.1493827      0.14511 -32.12 4.919518e-05    1.028    0.027
        64 -10.9010     20.0893     99.2780   1.1473791468e+02   5.3762088257e+01    0.1814067    0.1578864  87.45 0.0005419177    1.069    0.064
        65 -12.6047     10.5334     91.2492   1.1718185580e+02   5.6503203818e+01      0.75993    0.2792291 -74.71   0.00156498    2.195    0.544
        66 -10.2257     78.8778     93.9481   9.3265747296e+01   4.7811233011e+01    0.2393145    0.2023604  -6.90 0.0003447372    1.519    0.342
        67 -10.9229     24.0734     88.3258   1.1168342401e+02   5.6219041185e+01    0.4050971    0.2374518 -63.17  0.001397045    1.440    0.306
        68 -12.4573     20.8937     92.8389   1.1356457847e+02   5.5334659161e+01    0.3627491    0.3108267 -32.09 0.0005060133    1.404    0.288
        69 -10.7815     19.1980     86.8995   1.1332225956e+02   5.6982957893e+01    0.3315079    0.1678794 -76.41 0.0009323852    1.699    0.412
        70 -10.6100      3.4130     94.6437   1.2013932959e+02   5.6086596083e+01    0.3197023    0.1691407  57.84  0.001644391    1.920    0.479
        71 -11.5593    125.1634     93.2883   7.9504862239e+01   3.8998658563e+01    0.2591517    0.2389181 -51.92 0.0002304493    1.048    0.046
        72 -10.1347     29.3083     92.5103   1.1041000892e+02   5.4681289807e+01    0.2381864    0.1845102 -71.44 0.0006033467    1.102    0.092
        73  -9.2947    113.3382     92.2506   8.2376965069e+01   4.1712681290e+01    0.1473611    0.1210756   6.11 0.0001513731    1.567    0.362
        74 -10.8062     57.9624     91.7350   9.9846675769e+01   5.1555125099e+01    0.2632681    0.2155372 -44.51  0.000633813    1.271    0.213
        75  -9.6035     64.8145     88.7997   9.6726646163e+01   5.1297424778e+01    0.2021164    0.1605528 -85.70 0.0007935016    1.335    0.251
        76 -10.0871     43.0955     89.0634   1.0465508366e+02   5.4115290244e+01    0.2694963    0.1561626  58.24  0.001001448    2.066    0.516
        77 -11.5936     55.5803     85.7901   9.9301901623e+01   5.3364424745e+01    0.2816381    0.2380322  44.10 0.0004873909    1.289    0.224
        78  -9.4833     76.8180     82.8110   9.0954340906e+01   5.0826295784e+01    0.1923254    0.1655766  89.10 0.0003506693    1.258    0.205
        79 -11.3931      3.4619     81.4481   1.1872223115e+02   5.9407747470e+01    0.5346979    0.1871321 -68.20  0.002344949    2.151    0.535
        80 -10.1357    250.4588     80.9996   5.4143886517e+01   1.4166967053e+01    0.2000404    0.1056945 -28.48 0.0004782505    1.535    0.348
        81 -10.0071     64.6842     80.2601   9.4531487929e+01   5.3405609610e+01    0.2658351    0.1834064 -47.27  0.001300369    1.381    0.276
        82  -9.6732    124.4860     79.0119   7.5404050991e+01   4.2099383080e+01    0.2349521    0.1472899 -42.47 0.0005582005    1.524    0.344
        83  -9.1945     48.3189     79.2363   1.0043710130e+02   5.5953608045e+01    0.1326446    0.1035234 -29.27 0.0002422493    1.510    0.338
        84 -10.3384     28.0745     77.1142   1.0806541033e+02   5.8713149267e+01     0.202849    0.1854435 -41.21 0.0003577501    1.207    0.171
        85  -9.5469    176.8102     76.6319   6.3356737402e+01   3.0342205269e+01    0.2011487    0.1455122  71.57 0.0006968615    1.653    0.395
        86  -8.8071    161.4159     76.5016   6.6210116280e+01   3.3981817696e+01    0.1541327    0.1398723 -49.26 0.0002647658    1.081    0.075
        87 -10.5507     55.0398     76.0421   9.6997327704e+01   5.5847627834e+01    0.3386652    0.2487752   6.78  0.001338132    1.860    0.462
        88 -10.3715     42.1489     75.7316   1.0201592919e+02   5.7581767287e+01     0.258541    0.1983722 -59.61 0.0005947258    1.139    0.122
        89 -10.7008     15.0883     75.8533   1.1321086827e+02   6.0097665420e+01    0.2678961    0.1868784  80.04  0.001498468    1.444    0.307
        90 -10.6406     20.2235     73.4442   1.1062257966e+02   6.0319901547e+01    0.4054676     0.191714 -52.63 0.0008415878    1.866    0.464
        91  -9.1137     70.2785     75.3441   9.1077164601e+01   5.3693782343e+01    0.1494908    0.1095518 -28.91 0.0002576312    1.630    0.386
        92 -11.2310     35.7728     73.6427   1.0412387161e+02   5.8819574832e+01    0.4703408    0.4138396  49.17  0.002564125    1.269    0.212
        93  -9.8099     89.3184     80.3661   8.6069105666e+01   4.9146723923e+01     0.300281    0.1783439 -70.10   0.00114445    2.410    0.585
        94  -9.5147    216.8690     72.1637   5.5982077255e+01   2.2019551006e+01    0.1815344    0.1518945  -4.76 0.0004096625    1.261    0.207
        95 -10.0974    106.3732     71.7571   7.8043868332e+01   4.7581080126e+01    0.3285013    0.2462992  75.45  0.001501988    1.715    0.417
        96  -9.6337     91.4989     71.5619   8.2568020216e+01   5.0697728874e+01    0.2779183    0.1377877 -56.42 0.0007411836    2.279    0.561
        97 -11.0367     10.8518     68.6691   1.1381754375e+02   6.2198322854e+01    0.3601688     0.198933 -70.01  0.001317014    1.458    0.314
        98 -10.4165     46.3808     69.2206   9.8578064694e+01   5.8673910738e+01    0.2721281    0.2145534  17.84 0.0007176347    1.525    0.344
        99  -9.3194     51.7110     67.6821   9.5939658566e+01   5.8341060108e+01    0.2418225    0.1245685  28.02 0.0009799871    2.344    0.573
       100 -11.1366      3.5173     58.4131   1.1543615848e+02   6.5183301215e+01    0.4446771    0.1967199 -44.76  0.002108713    2.188    0.543
       101 -12.0329      6.7320     63.8044   1.1484457778e+02   6.3667175902e+01    0.3347195    0.3060819  57.08  0.002260149    1.258    0.205
       102 -11.2729      5.4340     69.2028   1.1628369298e+02   6.2385721366e+01    0.3583883    0.1871465  79.68  0.001467653    2.079    0.519
       103 -10.5167      1.5282     66.8180   1.1766066781e+02   6.3185327910e+01    0.2126203    0.1526405 -86.24  0.000603809    1.199    0.166
       104 -10.0740     77.5792     67.2151   8.5851454785e+01   5.4307809948e+01    0.3377176    0.2034287 -55.29  0.001349064    1.630    0.387
       105 -10.0550     16.0214     67.2190   1.1125817748e+02   6.2209794083e+01    0.2608597    0.1715944  65.76    0.0013907    1.740    0.425
       106 -11.3018     14.1758     63.4070   1.1134547316e+02   6.3296663630e+01    0.2573875    0.1830495  77.21 0.0007355253    1.517    0.341
       107  -9.4694    100.0112     70.6805   7.9589537485e+01   4.9156171272e+01    0.1920659    0.1885218 -85.69 0.0005128651    1.057    0.054
       108  -9.6792     96.8438     64.1489   7.8313241900e+01   5.1193048463e+01    0.1957501    0.1750844   0.79 0.0002584623    1.269    0.212
       109 -10.0408     62.8838     62.4036   8.9751037203e+01   5.7918966945e+01    0.3059288     0.167652 -39.18  0.001299767    1.920    0.479
       110 -10.4199     39.6366     60.8400   9.9064001058e+01   6.1541412646e+01    0.3688072    0.2716223 -37.71  0.001993014    1.389    0.280
       111 -13.6676     20.2123     58.0228   1.0731395633e+02   6.4177555582e+01    0.3926394    0.3113483 -81.96  0.001171726    1.220    0.181
       112  -9.8184    100.2091     59.7970   7.5695305262e+01   5.1362501910e+01    0.2537842    0.1616756 -74.50 0.0009364364    2.749    0.636
       113 -10.4294     49.1584     59.5843   9.4489312367e+01   6.0622631320e+01    0.2644179    0.2082795 -88.55 0.0008399419    1.522    0.343
       114 -10.2538    194.5030     58.8818   5.5350603548e+01   2.8925178149e+01     0.229658    0.2008567  71.02 -0.0002900933    1.259    0.206
       115 -10.8290     84.0482     56.8662   7.9863974068e+01   5.5323790477e+01    0.3678846    0.2691669 -58.61  0.001489793    1.465    0.317
       116 -11.3400     88.3371     52.6546   7.6774338891e+01   5.5310368453e+01    0.3656696    0.3462627   3.23  0.001396124    1.112    0.101
       117  -9.7387     71.5877     56.3427   8.4199792946e+01   5.7793052521e+01    0.2667214    0.1339864 -51.03 0.0009639403    1.904    0.475
       118 -10.6225     32.5979     55.9149   1.0083143102e+02   6.3523797345e+01    0.5464692    0.3088757 -33.36  0.002524998    2.108    0.526
       119 -11.3530    114.5223     53.9452   6.9404799398e+01   4.9240327950e+01    0.3270642     0.300726 -22.70 0.0007115051    1.094    0.086
       120 -12.1660     65.4743     52.4592   8.5114357258e+01   5.9709353915e+01     0.526445    0.2650888  42.29  0.001804992    2.169    0.539
       121 -10.9269      4.8178     50.8544   1.1337269080e+02   6.6981553257e+01    0.3474726    0.2382638  -6.75  0.002034674    1.816    0.449
       122  -9.8723     19.6479     44.7545   1.0397536362e+02   6.7439174816e+01    0.2003083    0.1546651 -45.72 0.0005045196    1.160    0.138
       123 -10.8390     15.1533     42.8611   1.0585242978e+02   6.8251485634e+01    0.6191034    0.3317044  70.36  0.002563467    3.319    0.699
       124 -10.5582      9.7734     48.2291   1.1019775166e+02   6.7334546754e+01    0.5245986    0.1973304   9.40  0.002126976    3.745    0.733
       125 -11.3937      8.2521     44.4738   1.1009659577e+02   6.8338187901e+01     0.650135    0.3021003  54.96  0.002778241    3.212    0.689
       126 -11.4720     77.2566     46.2243   7.8052909027e+01   5.8826379884e+01    0.4980902    0.4112377 -22.05  0.001460821    1.258    0.205
       127 -10.0821     38.7105     48.5898   9.5513176754e+01   6.4549538341e+01    0.2136989    0.1762287 -37.22 0.0004085437    1.161    0.138
       128  -9.8481    154.7152     47.7795   5.8224329450e+01   4.0333319101e+01    0.2099317    0.1967314  -5.71 0.0005217917    1.126    0.112
       129 -11.1906     56.8251     46.3296   8.6302044601e+01   6.2471265451e+01    0.3790561     0.303806 -73.77 0.0009819975    1.508    0.337
       130 -10.5560     27.9346     43.6167   9.9194466144e+01   6.6924296832e+01    0.6010331    0.4101917 -48.66     0.002384    1.252    0.201
       131  -9.7032     67.8498     46.7848   8.1892962388e+01   6.0489128350e+01    0.3196129    0.1160835  36.37  0.001065507    3.470    0.712
       132  -9.9907     35.7386     41.4857   9.4349777986e+01   6.6529786430e+01    0.3623268    0.3312748 -87.31  0.002238335    1.268    0.211
       133 -10.7851     69.2877     42.0176   7.9291582018e+01   6.1186020620e+01     0.239828    0.2132354  41.07 0.0001606527    1.215    0.177
       134 -10.6665      7.7268     34.2539   1.0756711604e+02   7.0797377042e+01    0.2963616    0.1400466  35.39  0.001455214    2.510    0.602
       135 -10.8756      3.0544     35.7281   1.1082633925e+02   7.0720256834e+01    0.2806678    0.1607192 -47.39  0.001559893    1.487    0.328
       136 -10.7895    140.4928     40.6623   5.8381960089e+01   4.5015902746e+01    0.2958411    0.2380797 -63.09 0.0008005346    1.335    0.251
       137  -9.9185     42.9317     40.6787   9.0410089086e+01   6.5772418477e+01    0.1786511    0.1670202  13.26 0.0006635633    1.180    0.153
       138 -10.5480    128.2039     38.9348   6.0281218455e+01   4.8396275421e+01    0.2486184    0.2212842 -60.04 0.0004481173    1.159    0.137
       139 -11.6547    121.5093     37.4847   6.1217470187e+01   5.0297105711e+01    0.3910534    0.3721739 -29.21  0.001129418    1.025    0.025
       140 -10.2920     22.1929     37.9842   1.0032180279e+02   6.8791931481e+01     0.188047    0.1670802 -80.58 0.0005771018    1.242    0.195
       141 -11.2041     26.7971     35.5386   9.6802715180e+01   6.8882750697e+01    0.4586476    0.2496233 -47.46  0.001829835    1.552    0.356
       142  -9.9991     16.9236     33.0000   1.0156434166e+02   7.0403356141e+01    0.2345153    0.1470774  12.63 0.0008004206    1.925    0.481
       143 -10.5275     21.4021     30.8962   9.8053813609e+01   7.0465410938e+01     0.337886    0.2116469  -4.20  0.001274451    2.114    0.527
       144 -10.8435      4.8676     40.5121   1.1100029202e+02   6.9485620174e+01    0.4797777    0.1612654 -45.23  0.002029028    2.622    0.619
       145  -8.8750    185.4578     35.4606   4.9496836364e+01   3.4280151581e+01    0.1483371    0.1281778 -50.95 -4.133101e-05    1.080    0.074
       146 -10.4491     96.9949     35.0644   6.6621014351e+01   5.6596662107e+01    0.2161958    0.2053116  -2.57            0    1.048    0.046
       147  -9.5224     90.7302     35.5703   6.8764110958e+01   5.7938252344e+01    0.1938921     0.145682  66.39 0.0007238697    1.558    0.358
       148  -9.9948     39.7402     35.2631   8.9699347419e+01   6.7371992283e+01    0.4209348    0.1988943  33.06  0.001875754    2.390    0.582
       149 -10.8242     38.9999     31.0944   8.8180811613e+01   6.8344006359e+01    0.3292459    0.3161771  -1.18  0.001356016    1.146    0.128
       150  -9.1608    133.9942     34.4601   5.7324262319e+01   4.7575287975e+01    0.2050823    0.1140681  37.84  0.000705722    2.202    0.546
       151  -9.9102     72.3174     32.8474   7.3900418785e+01   6.2318264305e+01    0.2842074     0.183662  19.05  0.001183714    2.183    0.542
       152 -10.2911    128.9041     31.0341   5.7005652142e+01   4.9357672172e+01    0.3057555    0.1978042 -40.40  0.001093346    1.504    0.335
       153 -10.1504     77.1029     30.8583   7.1162742437e+01   6.1683622984e+01    0.2073047    0.1969227  -7.61  0.001198248    1.030    0.029
       154 -10.4382     76.9958     27.0563   6.9325978924e+01   6.2334088075e+01    0.3335856    0.1771166 -28.32 0.0009678943    1.917    0.478
       155  -9.2211    119.5077     29.9912   5.8595292661e+01   5.1893425354e+01    0.2070711    0.1108595 -51.35 0.0005215422    2.196    0.545
       156  -9.9796     43.8331     30.4108   8.5342850449e+01   6.7788014959e+01    0.2394195    0.1900096 -31.51  0.001050454    1.153    0.133
       157 -10.1978     47.0676     27.1994   8.2106823963e+01   6.7915195382e+01    0.2946002    0.2452295 -83.68  0.001423654    1.714    0.416
       158 -10.8814     43.5651     25.7900   8.3153313994e+01   6.8731822320e+01    0.3365253    0.2347271 -46.68  0.001058728    1.349    0.259
       159 -10.7547      7.6161     28.4450   1.0573690589e+02   7.2145328319e+01    0.4055461    0.2398639  56.08  0.002065515    2.460    0.594
       160  -9.1227     83.7214     29.7413   6.8325488102e+01   6.0450378976e+01    0.1388753    0.1086095  13.46            0    1.471    0.320
       161 -10.4887     68.9575     26.9878   7.2293956762e+01   6.4002301739e+01    0.4045916    0.2495357 -50.42  0.001088725    1.844    0.458
       162 -10.8493    113.6980     25.9864   5.8206903349e+01   5.3905904594e+01    0.3284695    0.2275783 -45.78  0.001560357    1.488    0.328
       163 -10.1450    101.1510     26.5063   6.1568760843e+01   5.6921443592e+01     0.304881    0.2102181  48.55  0.001468639    1.462    0.316
       164  -9.4720    146.9869     26.4377   5.1908802547e+01   4.5268245969e+01    0.2021918    0.1442101  68.34 1.051678e-05    1.430    0.300
       165  -9.3810     18.5140     25.9702   9.7745203260e+01   7.1822567162e+01    0.1852738   0.07921522 -39.62 0.0007571834    2.263    0.558
       166  -9.9690     59.0244     23.8975   7.4776147402e+01   6.6443344155e+01     0.252536    0.1786633 -25.59  0.001313657    1.376    0.273
       167  -9.7261     58.7633     19.7923   7.2631584589e+01   6.7174421791e+01    0.1805701    0.1556691 -53.82 0.0004187031    1.346    0.257
       168  -9.4307     80.7129     23.6394   6.6312868156e+01   6.2063271392e+01    0.2167443    0.1133663  32.32 0.0007116785    2.517    0.603
       169  -9.3774     83.9944     21.4925   6.4146689817e+01   6.1646963071e+01     0.211544    0.1397533  53.50 0.0009975402    1.554    0.356
       170  -9.7330    229.5232    248.0271   8.8593362520e+01  -2.4616987072e+00    0.1264866   0.08504447 -18.79 0.0008921715    1.526    0.345
       171 -10.8347      2.0180     22.0668   1.0726823335e+02   7.3930188716e+01    0.2708502    0.1559071 -66.38 0.0006239841    1.490    0.329
       172  -9.5730     91.3104     22.3370   6.2339151988e+01   5.9846232129e+01    0.1517058    0.1076328  18.44 0.0007044415    1.684    0.406
       173  -9.8565    225.1543    247.0898   8.9127366474e+01  -1.8771796849e+00      0.16879    0.1002515 -13.91   0.00123872    1.682    0.405
       174 -10.4823     30.2658     21.0500   8.8051448306e+01   7.1529700196e+01    0.2743765    0.2185591  15.01  0.001121922    1.373    0.272
       175 -10.8905     14.4274     21.6341   9.8479361600e+01   7.3131897602e+01    0.4027661    0.2376527  23.47  0.002222536    1.946    0.486
       176  -9.0134    140.6939     18.2914   4.9808684869e+01   4.7880910580e+01    0.1518825    0.1046635 -59.60 0.0006927216    1.576    0.366
       177 -10.5056     20.3931     17.3911   9.2347127229e+01   7.3428529628e+01     0.237746    0.1638187 -35.57 0.0007226702    1.270    0.213
       178  -9.7611    114.9485     17.4548   5.4157605436e+01   5.4668300970e+01    0.2127404    0.1418338  64.91  0.000337157    1.515    0.340
       179  -9.2632    170.4029    247.2737   9.7917847222e+01   4.7504674426e+00    0.1095793   0.06575523  15.15 0.0006980954    1.758    0.431
       180 -12.0243      9.3994    245.1537   1.2615315294e+02   2.3674088007e+01    0.3509094    0.2275884  22.75  0.002625983    1.961    0.490
       181  -9.5706     61.1383    241.1764   1.1682736293e+02   1.9102094051e+01     0.140559   0.06384562  34.44 0.0008299338    1.821    0.451
       182  -9.5934     35.7531    240.9805   1.2140132839e+02   2.1835950833e+01    0.1167842   0.07684395  89.63 0.0008775814    1.564    0.360
       183  -9.5706    154.2833     15.0498   4.6616052569e+01   4.4660858439e+01    0.1946675    0.1793545 -39.33 0.0003293678    1.057    0.054
       184  -9.6016    202.4694    240.4664   9.1797123343e+01   1.4840191871e+00    0.1057841   0.07742069  18.12  0.000104165    1.010    0.010
       185  -9.1702     49.6638    240.6615   1.1888202218e+02   2.0438740716e+01   0.08921326   0.07943781  -6.57 0.0007051389    1.753    0.430
       186  -9.4618     91.3173    236.8931   1.1096575826e+02   1.6224518536e+01    0.1289949   0.09451754 -52.67 0.0009271518    1.786    0.440
       187 -11.8439     25.8692    235.7645   1.2296030479e+02   2.3670980238e+01    0.2544363    0.1978533  24.04  0.001091589    1.638    0.389
       188  -9.9241    249.2159    233.8839   8.3743642175e+01  -3.4050204229e+00    0.1402409     0.105006   9.05 0.0004433011    1.165    0.142
       189  -9.7341     71.9588     13.0324   6.3602912755e+01   6.5477198309e+01    0.2872035    0.1653148  27.28   0.00125346    2.173    0.540
       190  -9.3765     43.8048    153.1824   1.1375459888e+02   3.8225743269e+01    0.1565091    0.1424955 -66.18 0.0002790988    1.267    0.211
       191  -9.4079    243.0226    230.2300   8.4119831277e+01  -2.3659892099e+00    0.1292614   0.06664529  30.09 0.0008400885    1.602    0.376
       192 -10.2729     82.8423     16.1237   6.1715502993e+01   6.2646248584e+01    0.2442604    0.2015139  -7.79 0.0005836128    1.209    0.173
       193  -9.9231    209.5162    229.5212   8.9184032231e+01   1.7672064666e+00    0.1081326   0.08048832  15.39  2.32529e-05    1.006    0.006
       194 -10.8598     35.0429     22.0620   8.5802848286e+01   7.0693696374e+01    0.2177861    0.1651613 -39.27 0.0003469281    1.151    0.131
       195  -9.8788    140.7717    228.5035   1.0095462850e+02   1.1028783838e+01    0.2034838   0.07481164 -38.57 0.0008867994    4.278    0.766
       196 -10.7096      1.7338    225.7336   1.2700410104e+02   2.7580779799e+01    0.2310541    0.1014802  79.13 0.0008649369    1.972    0.493
       197 -10.0115    223.5300    226.2092   8.6491798202e+01   3.6191820092e-01    0.2088351    0.1071155   9.97 0.0009696949    2.268    0.559
       198 -10.9368      2.4892    220.1321   1.2672266832e+02   2.8500091457e+01     0.266293    0.1001951  64.84  0.001344754    2.056    0.514
       199 -11.1189      9.1551    218.0268   1.2541546618e+02   2.8297341628e+01    0.2079432     0.170356 -26.76   0.00157493    2.111    0.526
       200 -10.0529    205.6754    212.6819   8.7364189232e+01   4.1713481159e+00    0.1961113    0.1381978   7.55 0.0007067038    1.270    0.213
       201  -9.3901    249.4916    211.5080   8.0336960399e+01  -1.3260015852e+00    0.1079013   0.07711286   5.25 3.378597e-05    1.019    0.019
       202  -9.1534    209.6610    211.2809   8.6491468668e+01   3.7972560204e+00   0.09781633   0.08426848  44.80 0.0007008857    1.624    0.384
       203 -10.1239      3.4701    211.5283   1.2630017562e+02   2.9973158298e+01    0.1083287   0.07493932  61.35 0.0001188049    1.026    0.026
       204 -10.2302     20.2058    209.8508   1.2297616727e+02   2.8783445645e+01    0.1770259    0.1038843  57.79 0.0006251714    1.282    0.220
       205  -9.8293      2.9406    206.0000   1.2624069004e+02   3.1047203847e+01    0.1625067   0.05141052  28.87 0.0008067672    2.973    0.664
       206 -10.0997     10.1665    203.3913   1.2472151212e+02   3.0919655179e+01    0.1581279   0.06948991  44.44  0.000452816    1.698    0.411
       207  -9.3270    193.4960    201.5679   8.7724916217e+01   7.2582005754e+00    0.1171097   0.09516327  16.37  0.000104724    1.014    0.014
       208  -9.4109    123.3714    198.2566   1.0062510265e+02   1.8195001667e+01    0.1530728    0.1167645 -72.47 0.0009457713    1.630    0.386
       209 -10.0195     23.5485    196.8265   1.2169092528e+02   3.0960882389e+01    0.1798726     0.171226 -61.49  0.001139846    1.464    0.317
       210 -10.8177     13.9302    192.6757   1.2352174950e+02   3.2676972146e+01    0.2041614    0.1256189  64.80 0.0005093749    1.262    0.208
       211 -10.1375      6.1392    191.6244   1.2511839920e+02   3.3563869904e+01    0.1539001    0.1151324  54.77  0.001129928    1.131    0.116
       212  -9.6282     22.5051    179.9625   1.2101460743e+02   3.4492608694e+01    0.1633616   0.09937353 -84.98 0.0004496848    1.496    0.331
       213 -10.3444      5.2110    167.3116   1.2434937492e+02   3.8704825384e+01    0.2073972    0.1405818  82.08   0.00115707    1.192    0.161
       214  -9.5720    226.5019    163.9796   7.5578926293e+01   7.2450502250e+00    0.1785657    0.1064374 -27.60 0.0007304899    1.533    0.348
       215  -9.2624     41.2704    157.7060   1.1484926435e+02   3.7468205938e+01    0.1296254    0.0793912  66.08 0.0002316593    1.516    0.340
