#   1 NUMBER                 Running object number                                     
#   2 MAG_AUTO               Kron-like elliptical aperture magnitude                    [mag]
#   3 X_IMAGE                Object position along x                                    [pixel]
#   4 Y_IMAGE                Object position along y                                    [pixel]
#   5 X_WORLD                Barycenter position along world x axis                     [deg]
#   6 Y_WORLD                Barycenter position along world y axis                     [deg]
#   7 A_WORLD                Profile RMS along major axis (world units)                 [deg]
#   8 B_WORLD                Profile RMS along minor axis (world units)                 [deg]
#   9 THETA_WORLD            Position angle (CCW/world-x)                               [deg]
#  10 FWHM_WORLD             FWHM assuming a gaussian core                              [deg]
#  11 ELONGATION             A_IMAGE/B_IMAGE                                           
#  12 ELLIPTICITY            1 - B_IMAGE/A_IMAGE                                       
         1 -14.9978    165.3703     44.6352   7.5286740472e+01   3.8429017013e+01     1.283168     1.126861   5.91  0.003910033    1.378    0.274
         2 -15.1424    183.4254     11.2895   6.3495846565e+01   3.7874022433e+01     2.406451     1.089535  65.69  0.007619587    1.812    0.448
         3 -10.4723    134.3056    244.6512   1.2712511430e+02   5.0598819436e+00    0.1363936    0.1112846  52.16 0.0008297263    1.027    0.026
         4 -20.0797     70.8120    171.1233   1.3095225406e+02   3.1295754350e+01     18.29311     7.362368 -65.26   0.07326009    2.388    0.581
         5 -11.7263    149.5171    179.4878   1.1321631858e+02   1.5298932269e+01    0.2510935    0.2260572   0.93 0.0007758328    1.290    0.225
         6 -10.9068    151.9500    196.7604   1.1590407778e+02   1.1111576076e+01    0.3229093    0.2244904  40.85 0.0008590172    1.334    0.250
         7 -12.0749    152.1565    191.3319   1.1486291050e+02   1.2211543543e+01    0.5520183    0.4226977 -82.30  0.002219497    1.673    0.402
         8 -12.3309    155.1577    187.6356   1.1347948692e+02   1.2393886008e+01    0.3801571    0.3026024 -71.87  0.001131287    1.482    0.325
         9 -11.8098    151.4739    183.4752   1.1353355386e+02   1.4031791797e+01    0.3683274    0.2741606 -81.47 0.0005183641    1.767    0.434
        10 -10.5650    112.6411    196.4655   1.2487105021e+02   1.8607070407e+01    0.4023817    0.2827004   1.85    0.0016996    2.761    0.638
        11 -10.8755    103.3685    194.4932   1.2670743256e+02   2.0674252099e+01    0.4061833    0.2220197  31.43  0.001739288    2.169    0.539
        12 -11.0339    107.8276    250.5201   1.3306672336e+02   8.4386611646e+00    0.1370287    0.1036288  51.06 0.0008440606    1.091    0.083
        13  -9.9494    242.4180    184.5060   9.4621271516e+01  -4.0190581816e+00    0.1352488    0.1192844 -10.45 0.0001199008    1.019    0.019
        14  -9.2050    134.7701    241.6967   1.2663999904e+02   5.5095287429e+00    0.1749073    0.1661667 -15.40 0.0002915216    1.341    0.254
        15 -12.7273    189.5927    177.7346   1.0378155944e+02   7.3656528008e+00    0.8861789    0.5190244 -69.83  0.002948032    3.786    0.736
        16 -10.4818    135.6759    179.9182   1.1658180558e+02   1.7986825606e+01    0.2998607    0.2060716  49.10 0.0007088727    1.388    0.280
        17 -12.8770    204.3407    175.4666   1.0018063208e+02   4.7940927916e+00    0.5073037    0.4827142  49.24  0.001370415    1.136    0.119
        18 -12.3706    196.6939    176.2212   1.0194333960e+02   6.2047097072e+00    0.5851518    0.4055965 -64.13  0.002074587    2.000    0.500
        19 -12.6060    189.6123    155.5495   9.8969516418e+01   1.1873784289e+01    0.5418854    0.4942124  29.84  0.001536023    1.098    0.089
        20 -12.6287    192.9578    165.3193   1.0040886006e+02   9.1561515058e+00    0.4308828    0.3400528 -42.28 0.0009160094    1.290    0.225
        21 -12.4057    190.0356    161.1592   1.0012757409e+02   1.0628079535e+01    0.4424595    0.3747194  72.00  0.001128207    1.389    0.280
        22 -10.2151    138.8028    242.8891   1.2598322940e+02   4.5942391079e+00    0.1612052    0.1317204  84.95 0.0003570878    1.410    0.291
        23 -12.1644    176.9354    169.2485   1.0478368633e+02   1.1758809270e+01    0.3471496    0.2221012 -60.47  0.001449765    1.970    0.492
        24 -12.0116    230.6455    168.1127   9.3409967594e+01   9.7629774430e-01    0.3891224    0.2052382 -55.19  0.001513141    2.762    0.638
        25 -10.6604     11.8266    173.9251   1.4493755017e+02   3.7315601257e+01    0.1640904    0.1230054 -69.37 0.0002611002    1.236    0.191
        26 -11.4519     25.1912    165.1105   1.4110125287e+02   3.8116100624e+01    0.2600226    0.2087834 -21.96  0.001106996    1.814    0.449
        27 -11.1252    125.2547    239.0187   1.2822008351e+02   7.6465134999e+00    0.3073768    0.1339307 -54.64  0.001377776    2.657    0.624
        28 -11.6497     13.2039    240.0489   1.4935275879e+02   2.3296042107e+01    0.2010887    0.1255352 -80.56  0.001116463    1.407    0.289
        29 -10.0402     13.3245    236.2815   1.4911619239e+02   2.4012028489e+01    0.1778681    0.1333555  54.67   0.00131775    1.341    0.254
        30 -10.9391    161.0717    239.3403   1.2094429997e+02   1.2887980373e+00    0.3750559    0.2077248  35.33  0.001046206    1.633    0.388
        31 -10.8388    236.3404    158.3123   9.0261815115e+01   1.6521184638e+00    0.1463788    0.1073934   2.39 0.0007046252    1.697    0.411
        32 -12.1299    167.0233    155.5074   1.0405072823e+02   1.6850352311e+01    0.4008681    0.2741501  72.62  0.001620291    2.079    0.519
        33 -10.6327    163.3143    249.9811   1.2204771007e+02  -8.7535341167e-01    0.1703472    0.1566961  34.77 0.0004561681    1.129    0.114
        34 -11.7697     21.6508    235.7594   1.4766922081e+02   2.3217456044e+01    0.1849567    0.1215946  87.76 0.0007554328    1.207    0.171
        35 -11.3486    174.2176    148.8058   1.0086578919e+02   1.6706277443e+01     0.361544      0.31743 -87.76   0.00109103    1.303    0.233
        36 -12.2607    152.4119    138.9057   1.0372564044e+02   2.3775265836e+01    0.3868124    0.2806629 -62.98  0.001695418    1.575    0.365
        37 -11.6089      7.0734    138.5972   1.4254806600e+02   4.5689666418e+01    0.2949052    0.2436078 -13.65  0.001379676    1.638    0.390
        38 -10.3656    131.0000    233.7920   1.2634182084e+02   7.6278328120e+00    0.1744397   0.07771024 -55.39  0.000737354    2.601    0.616
        39 -10.6712      1.6919    139.9635   1.4401813437e+02   4.5738680645e+01    0.1684476    0.1202271 -65.48   0.00113147    1.166    0.142
        40 -10.8111    126.9364    250.6983   1.2935856074e+02   5.2457538969e+00    0.1205975   0.09795816  45.81 0.0003859634    1.096    0.088
        41 -12.6035    160.3835    127.9069   9.9114102636e+01   2.4397835504e+01    0.4797355    0.3865321 -66.59  0.001561127    1.395    0.283
        42 -10.5783    141.2381    229.1066   1.2353763825e+02   6.6896862293e+00    0.2125569     0.156192 -69.93 0.0008876544    1.650    0.394
        43 -11.1052     17.4771    223.0913   1.4757965375e+02   2.6200662225e+01    0.1563363   0.08937897 -78.83 0.0007085743    1.479    0.324
        44 -11.5204    218.1019    219.7255   1.0609641395e+02  -5.5595930096e+00    0.2748447    0.1872985 -51.90  0.001259212    1.989    0.497
        45 -10.5492    111.9525    213.9602   1.2763108070e+02   1.4931815970e+01    0.2010724    0.1439215  81.79 0.0003992306    1.558    0.358
        46 -10.7814    167.7458    112.7203   9.3528142073e+01   2.5896177322e+01    0.3306052    0.2328656 -82.96  0.001322258    2.098    0.523
        47 -12.3507    106.5155    206.4834   1.2776587761e+02   1.7472404390e+01    0.3489741    0.2866875 -46.12 0.0006197337    1.472    0.321
        48 -13.0975    104.9975    203.0309   1.2760668569e+02   1.8488748641e+01    0.4084069    0.3281261  50.99 0.0008891565    1.145    0.126
        49 -11.0806    204.9350    110.6256   8.5190659960e+01   1.7425383272e+01    0.3598414    0.2965032  19.43  0.001330697    1.513    0.339
        50 -10.9837     10.5504    101.6137   1.3664414709e+02   5.3786720479e+01    0.2316792     0.185416  89.30  0.000825709    1.359    0.264
        51 -10.5161     16.5444    201.4652   1.4622352112e+02   3.0821623525e+01    0.1150311   0.09075508 -86.56 0.0001417997    1.138    0.121
        52 -10.2153     15.7629    209.6527   1.4697229999e+02   2.9158373701e+01    0.1345971    0.1051791  54.23 0.0002570814    1.331    0.249
        53 -10.7997    145.1271     81.6459   9.0404114149e+01   3.7456001434e+01    0.2222599    0.1927085  46.96 0.0008277913    1.108    0.098
        54 -10.6574     98.6341     80.8677   1.0305050533e+02   4.7605728304e+01    0.2515105    0.2015696  44.58 0.0005766164    1.303    0.232
        55 -13.5373     11.3897    206.1319   1.4754291261e+02   3.0330463547e+01    0.4240762     0.287239  31.77  0.002402214    1.894    0.472
        56 -14.4468    153.4840     59.3191   8.1931277890e+01   3.9238538905e+01     1.268785     1.116467  50.68 0.0009494335    1.065    0.061
        57 -10.7027    160.3181    247.5513   1.2229825488e+02   4.0687560160e-02    0.3270436    0.1875401  23.75    0.0010188    2.243    0.554
        58 -13.2719    169.6014     36.8020   7.2332012499e+01   3.8403970305e+01    0.4397568    0.3763983  54.46 0.0009233892    1.124    0.110
        59 -11.4794     14.1266     60.0572   1.2699951131e+02   6.2225979742e+01    0.3136543    0.1740131  34.83  0.001833858    2.336    0.572
        60  -9.7284    135.2355    198.3130   1.1998157888e+02   1.4024579593e+01    0.1329641    0.1144314 -15.15 0.0002170727    1.498    0.332
