#   1 NUMBER                 Running object number                                     
#   2 MAG_AUTO               Kron-like elliptical aperture magnitude                    [mag]
#   3 X_IMAGE                Object position along x                                    [pixel]
#   4 Y_IMAGE                Object position along y                                    [pixel]
#   5 X_WORLD                Barycenter position along world x axis                     [deg]
#   6 Y_WORLD                Barycenter position along world y axis                     [deg]
#   7 A_WORLD                Profile RMS along major axis (world units)                 [deg]
#   8 B_WORLD                Profile RMS along minor axis (world units)                 [deg]
#   9 THETA_WORLD            Position angle (CCW/world-x)                               [deg]
#  10 FWHM_WORLD             FWHM assuming a gaussian core                              [deg]
#  11 ELONGATION             A_IMAGE/B_IMAGE                                           
#  12 ELLIPTICITY            1 - B_IMAGE/A_IMAGE                                       
         1 -12.8064    223.2116     14.6733   1.3255221895e+01   2.7462306473e+01     2.260962     1.081417  69.02    0.0104373    1.910    0.476
         2 -12.2760    237.0776      2.1075   9.0753672887e+00   2.5548909928e+01     1.096356    0.5187518  72.38  0.002942555    1.916    0.478
         3 -11.8835    246.0986      3.1674   8.6101525124e+00   2.3334387030e+01    0.8855138    0.6516743   6.11  0.002845457    2.348    0.574
         4  -7.7945     14.9946     17.9877   6.8871463967e+01   7.0128923868e+01    0.1305445   0.09835462 -29.73 0.0009517695    1.009    0.009
         5 -11.8765    230.8281    248.2445   6.2770071420e+01  -9.5950624031e+00      1.07477    0.5598454  29.41  0.006286706    1.610    0.379
         6  -8.3434     58.8220    231.4573   9.2115370525e+01   2.0287809434e+01    0.1815028    0.1325827 -89.83 0.0002469916    1.263    0.208
         7  -8.9156    132.0781    230.5655   7.8370874327e+01   9.2381988963e+00     0.199267    0.1750826 -88.71 0.0003579712    1.266    0.210
         8  -8.1509    117.6729    226.0977   8.0605455812e+01   1.2435488185e+01    0.2168488     0.114284 -70.59  0.001076194    2.414    0.586
         9 -10.0460     17.5406    224.9782   9.8859871948e+01   2.6421012036e+01    0.1990629    0.1438783  73.93  0.001533048    1.080    0.074
        10 -10.1660    241.7088    248.3241   6.0940569199e+01  -1.1199019396e+01    0.3977478     0.283487 -14.77  0.002819116    1.464    0.317
        11 -12.3840     34.3308    212.4765   9.5163539129e+01   2.6973726829e+01    0.9036131    0.6256179  80.27  0.002247236    1.106    0.096
        12 -10.1954     28.1493    208.5495   9.6030127588e+01   2.8449346180e+01    0.3273347    0.2537831 -57.36  0.001401359    1.810    0.447
        13  -8.3429     59.2433    207.7538   9.0085243037e+01   2.4827983088e+01    0.1460911    0.1335076  81.02 0.0009822435    1.338    0.253
        14 -12.2013     51.8512    192.8229   9.0196650935e+01   2.8882289959e+01     1.259507    0.9922804 -87.42  0.005791688    1.150    0.131
        15  -9.3755    192.8150    194.7147   6.0936812307e+01   4.2669248211e+00    0.8016675    0.4259949 -65.83  0.002494385    5.718    0.825
        16  -7.5467    223.0083    188.0345   5.3927120436e+01  -3.1601006538e-01    0.1529893    0.1341695  18.33            0    1.008    0.008
        17  -7.8389    208.3910    186.1438   5.6317814533e+01   2.7115702953e+00    0.1893847    0.1277071 -50.65 0.0009543803    1.818    0.450
        18  -7.9810    150.0762    176.8735   6.6611204721e+01   1.5969264814e+01    0.2175708    0.1789525   0.93 0.0007094681    1.669    0.401
        19  -9.6196    144.1026    179.0005   6.8300049245e+01   1.6716790037e+01    0.2564832    0.2287677 -38.37  0.000344912    1.316    0.240
        20 -10.0894    101.0016    175.9969   7.7492586181e+01   2.5287453227e+01    0.1977558    0.1704781  73.36  0.001158759    1.004    0.004
        21  -7.1584    132.9801    198.9711   7.3920909267e+01   1.4840907849e+01    0.1543216     0.133841  60.28 0.0009153986    1.018    0.018
        22  -9.1003     87.7318    168.7015   7.9475967130e+01   2.9090705180e+01    0.2328728     0.214407  71.52  0.000577235    1.142    0.124
        23 -11.2738     83.1434    151.7551   7.7992676264e+01   3.3703527281e+01    0.4317263    0.3711158 -72.98  0.002535307    1.118    0.105
        24  -7.9053     52.1889    153.8291   8.5884701454e+01   3.7507953336e+01    0.1587234    0.1394143 -60.96 0.0002385716    1.298    0.229
        25  -7.6596    229.9986    152.7271   4.5486755461e+01   4.0289597062e+00    0.1869892    0.1715903  32.76 0.0003072669    1.103    0.093
        26 -11.4068     90.5754    150.2791   7.5898286409e+01   3.2864136374e+01    0.6387904    0.3804965 -62.47  0.003057474    1.616    0.381
        27 -10.3192     96.3463    145.7491   7.3655215450e+01   3.2958584156e+01    0.5487362    0.2391923 -60.48  0.001908313    2.286    0.562
        28  -9.4762     76.1442    152.0821   7.9779824570e+01   3.4686863247e+01    0.2025234    0.1835915 -61.17  0.001062389    1.235    0.190
        29  -8.7278    133.6946    146.0313   6.4433708029e+01   2.5860768413e+01     0.571326     0.144457 -51.59  0.001599255    4.172    0.760
        30  -8.3230    132.5491    139.8506   6.3412776913e+01   2.7476519729e+01    0.4787548    0.1826697 -57.06  0.001536665    3.168    0.684
        31  -9.6206     81.5606    136.9917   7.5900265734e+01   3.7416318401e+01    0.2550265    0.1730592  65.35  0.001265067    1.600    0.375
        32  -9.2308    155.7151    133.5589   5.6452535280e+01   2.3873785833e+01    0.3839777    0.2820244 -39.09  0.001123238    1.466    0.318
        33 -10.1776     71.4891    134.4858   7.8125098740e+01   3.9501555733e+01    0.3093393      0.19006 -76.98  0.001438309    1.674    0.403
        34  -9.1499    136.1274    130.0986   6.0371909320e+01   2.8909144448e+01    0.4915055    0.1968543 -57.07  0.001560894    3.150    0.683
        35  -8.4132     40.9786    129.1430   8.5420700371e+01   4.4533037664e+01    0.1889872    0.1573679 -81.10 0.0004990286    1.006    0.006
        36  -8.2364     76.4234    124.7114   7.5019258204e+01   4.1099132981e+01    0.2338351    0.1784047   5.96  0.001184528    1.939    0.484
        37  -8.8488    134.4411    119.6666   5.8340407372e+01   3.1594826612e+01    0.3606412    0.2537068 -69.45 0.0009676376    1.692    0.409
        38  -7.1571     73.0372    116.0193   7.4267547516e+01   4.3646362113e+01    0.1609168    0.1458093 -74.38 0.0009468222    1.010    0.010
        39 -10.0465     61.9394    114.4240   7.7150560855e+01   4.5540753261e+01    0.2341534    0.2007304 -66.75 0.0002646401    1.039    0.037
        40  -8.7122    134.6836    112.1285   5.6414186000e+01   3.3208695326e+01    0.4353702    0.1567324 -49.31  0.001397805    2.859    0.650
        41  -9.5491    134.8233    106.7277   5.4993267833e+01   3.4358286007e+01    0.5250599    0.2254266 -44.35  0.001712047    2.353    0.575
        42  -9.6986    142.4765     99.5340   5.1141191010e+01   3.4168010665e+01    0.5976366     0.434352  12.65  0.002462512    2.082    0.520
        43  -9.6753    145.1147     96.3672   4.9621217793e+01   3.4216329974e+01    0.6094365    0.4081818  10.31  0.002236563    2.781    0.640
        44  -7.3373    112.9658    100.7803   5.9288584108e+01   4.0278574819e+01    0.1868231    0.1235215  43.52 0.0002248669    1.548    0.354
        45  -9.5751    151.9500     89.5078   4.6050841539e+01   3.3986790265e+01     0.574967    0.4675644  86.31  0.001685648    1.429    0.300
        46  -9.0338    153.5329     86.4883   4.4820038804e+01   3.4200387078e+01    0.4062351     0.309228  68.97  0.001477403    1.434    0.303
        47  -7.4633    136.7750     88.6094   4.9544688848e+01   3.7745803116e+01    0.2171869    0.1464849  60.75 0.0006842139    1.621    0.383
        48  -8.8673    162.6852     77.9112   4.0267516900e+01   3.3574470850e+01    0.4284812    0.3232974  85.87  0.001190657    1.611    0.379
        49 -10.5080    167.1092     73.9106   3.8150935117e+01   3.3189329192e+01    0.6724438    0.5215502  76.18  0.002069845    1.404    0.288
        50  -9.7838    146.8500     76.3248   4.3446756630e+01   3.7782205687e+01    0.4302009    0.3139331 -64.89   0.00192948    1.646    0.392
        51  -7.2322    139.2440     78.3137   4.5910000781e+01   3.9220458844e+01    0.1477988    0.1220046   0.78 0.0002110399    1.511    0.338
        52  -8.0821    205.7427     74.8751   3.1092341830e+01   2.3193769461e+01    0.2102115    0.2016505  13.79 0.0005015676    1.191    0.160
        53  -7.0264    132.2592     75.2961   4.6785855297e+01   4.1430987003e+01     0.146595     0.120564   4.86 0.0001814405    1.502    0.334
        54  -7.9225    218.0998     71.4887   2.8223794162e+01   2.0690541105e+01    0.2136491    0.1441509  63.71 0.0004695572    1.503    0.335
        55 -10.4574    162.3751     62.7512   3.5856487122e+01   3.6346528926e+01    0.5271863    0.4058494 -53.88  0.001395055    1.371    0.271
        56 -11.4065    181.5117     58.7710   3.0916035075e+01   3.2068679580e+01     0.888675     0.789898 -78.75  0.002267657    1.123    0.109
        57  -8.5702    102.6474     63.3193   5.1308816982e+01   5.0088308412e+01    0.2537888     0.228781   2.05  0.000296207    1.146    0.127
        58  -7.2817    171.2731     55.2602   3.1814053968e+01   3.5288828122e+01    0.1445813    0.1156126  30.60            0    1.464    0.317
        59  -9.2917    192.3688     53.8526   2.7627971972e+01   3.0025757731e+01    0.3210161    0.2183201 -80.98 0.0008753232    1.765    0.434
        60  -9.2278    188.3303     49.8579   2.7176711593e+01   3.1685640262e+01    0.2721654    0.2439122  66.40 0.0003491763    1.084    0.078
        61  -7.2449     99.5749     47.5468   4.6852965856e+01   5.3507701658e+01    0.1372559    0.1305242  -1.15 9.396238e-05    1.031    0.030
        62 -10.0844    185.7882     42.2232   2.5418809387e+01   3.3471448195e+01    0.3833747    0.3087977  50.46  0.000601982    1.277    0.217
        63 -10.7118    187.5530     37.9720   2.3922546701e+01   3.3607826192e+01    0.4014234    0.3172823  44.35 0.0006197097    1.382    0.277
        64 -10.3233    181.5260     38.4753   2.5030490110e+01   3.5114863167e+01    0.3126276    0.2694277  50.69 0.0005396848    1.197    0.164
        65 -10.9452    183.2409     34.1039   2.3486168970e+01   3.5262139032e+01    0.3204019    0.2834066  33.42 0.0007214033    1.302    0.232
        66 -10.1659    205.5138     40.6808   2.2017764744e+01   2.8572532053e+01    0.3580698    0.2711488  56.91 0.0004161414    1.337    0.252
        67 -10.8051    200.9759     36.4935   2.1525974951e+01   3.0320766252e+01    0.3358228    0.2945947  73.29  0.000486011    1.092    0.084
        68  -8.0127    150.8713     39.0916   3.0863731802e+01   4.2975284779e+01    0.2082644    0.1904348 -78.78            0    1.149    0.130
        69  -8.1103    109.3529     36.3123   3.9901042349e+01   5.3232313440e+01    0.1491916    0.1021731  20.48 0.0007045115    1.728    0.421
        70 -10.4301    214.0293     32.8560   1.8840142680e+01   2.7474926480e+01     0.371844    0.3160518  30.44 0.0006721141    1.513    0.339
        71 -10.8449    209.1475     28.1840   1.8234007149e+01   2.9325460359e+01    0.3618425    0.3254473  39.52 0.0006667242    1.341    0.254
        72 -10.3973    107.8835    242.4290   8.4216076104e+01   1.1177010411e+01    0.2461477    0.2024266  70.90 0.0004011058    1.141    0.124
        73 -11.2374    248.8200    247.7425   5.9665264514e+01  -1.2150001865e+01     1.070364    0.3880947 -32.30   0.00549677    3.086    0.676
        74 -10.2676    238.0560    231.4215   5.8892037705e+01  -8.7442112487e+00    0.2975644    0.1970129  48.25  0.001339112    1.770    0.435
        75  -9.2757    187.5551     16.6157   1.7862445525e+01   3.6304143890e+01    0.3079286    0.2183726  58.64 0.0001901812    1.338    0.253
