#   1 NUMBER                 Running object number                                     
#   2 MAG_AUTO               Kron-like elliptical aperture magnitude                    [mag]
#   3 X_IMAGE                Object position along x                                    [pixel]
#   4 Y_IMAGE                Object position along y                                    [pixel]
#   5 X_WORLD                Barycenter position along world x axis                     [deg]
#   6 Y_WORLD                Barycenter position along world y axis                     [deg]
#   7 A_WORLD                Profile RMS along major axis (world units)                 [deg]
#   8 B_WORLD                Profile RMS along minor axis (world units)                 [deg]
#   9 THETA_WORLD            Position angle (CCW/world-x)                               [deg]
#  10 FWHM_WORLD             FWHM assuming a gaussian core                              [deg]
#  11 ELONGATION             A_IMAGE/B_IMAGE                                           
#  12 ELLIPTICITY            1 - B_IMAGE/A_IMAGE                                       
         1 -13.9594    160.9821     52.8713   7.9690965752e+01   3.8490616946e+01      1.67316      1.24349  14.71  0.006218019    1.851    0.460
         2 -13.7947    172.9395     37.1399   7.3062543305e+01   3.7729239306e+01    0.9029344    0.8567936 -89.41  0.003157072    1.073    0.068
         3 -11.7021    189.9579     14.5236   6.4627105866e+01   3.6221908840e+01    0.3086303    0.2210046 -58.74  0.001062883    1.414    0.293
         4 -13.5241    190.3485      5.0491   6.2225517008e+01   3.7106209709e+01    0.9174731    0.6001738  70.63  0.004242911    1.292    0.226
         5 -10.4195      3.8548    225.5286   1.4983586199e+02   2.7217290555e+01     0.102272   0.05493933 -70.38 0.0006424718    1.725    0.420
         6 -18.5715     64.5842    244.5461   1.4074036591e+02   1.6209905009e+01     6.295504     5.505451  79.90   0.04026802    1.279    0.218
         7  -9.8852     11.0464    206.2705   1.4736334564e+02   3.0440951851e+01    0.3375283    0.2492652  24.09  0.002304793    2.096    0.523
         8 -11.7041     35.8353    184.0891   1.4058444924e+02   3.2689632613e+01    0.2598599    0.1608977  57.21 0.0004768411    1.545    0.353
         9 -10.4129    163.3179    210.0706   1.1671043299e+02   6.3446589612e+00    0.1895231    0.1850847  78.88 0.0007755829    1.095    0.086
        10 -11.7678    207.0884    179.7860   1.0192851570e+02   3.5549832258e+00     0.735076    0.4133961  28.35  0.003058296    2.220    0.550
        11 -10.7988    163.5243    204.2806   1.1566295520e+02   7.4269840807e+00    0.2684282    0.2362007 -60.27 0.0005364013    1.241    0.194
        12 -11.1240    158.8022    205.0019   1.1678744909e+02   8.1944161078e+00    0.3622707    0.2311785  67.09  0.001466183    2.076    0.518
        13 -11.9987    196.0262    171.7309   1.0248750131e+02   7.3409474871e+00    0.7444538    0.4075064 -51.21  0.002114435    2.023    0.506
        14 -10.6933    160.8511    198.1455   1.1513909616e+02   9.1650054553e+00    0.2201941    0.1907877  72.88 0.0004994269    1.228    0.185
        15 -13.7732    137.1636    199.4791   1.2049951323e+02   1.3461451038e+01    0.8604861    0.5247915  47.09  0.003770485    1.513    0.339
        16 -10.8062    122.5257    165.6976   1.1777565264e+02   2.3801209792e+01    0.2769749    0.2167857  63.38 0.0006110072    1.295    0.228
        17 -10.5061    194.4480    165.9337   1.0157803145e+02   8.8222113211e+00    0.3142862    0.2408102 -76.76 0.0009367827    1.761    0.432
        18  -9.0511     24.6635    165.7100   1.4106886827e+02   3.8059235645e+01    0.1167068   0.08357906 -49.12 0.0007021925    1.637    0.389
        19 -10.0733    223.7698    163.7306   9.5319125175e+01   3.2420644879e+00    0.2601757    0.1789004 -62.59  0.000882968    1.965    0.491
        20 -11.7012    155.0094    196.7711   1.1615026920e+02   1.0587330814e+01    0.4059883    0.2851694 -82.84   0.00187116    1.988    0.497
        21 -11.0570    109.9917    157.9451   1.1933216051e+02   2.7981705382e+01    0.2319544    0.2160313  87.21 0.0005758021    1.016    0.016
        22 -10.7678    139.6833    156.2416   1.1173332753e+02   2.2560822705e+01    0.2640005    0.2358698  51.65 0.0003663087    1.110    0.099
        23  -9.6049    180.1693    192.3980   1.0996455535e+02   6.4910625879e+00    0.2062415    0.1296396  53.66 0.0005355189    1.682    0.405
        24 -12.0645    134.4031    148.2226   1.1128042024e+02   2.5499671164e+01    0.7438378    0.2942979 -57.57  0.002361557    3.075    0.675
        25 -12.3447    134.0000    144.0040   1.1044461068e+02   2.6559384866e+01    0.9488617    0.3158783 -56.86   0.00261254    4.059    0.754
        26 -10.3229    174.7916    148.9353   1.0201245366e+02   1.6608977758e+01    0.2877361    0.2185626 -66.03 0.0007506079    1.508    0.337
        27 -12.8251      4.7393    112.1562   1.3944805405e+02   5.1842311322e+01    0.7552711    0.3868509  46.46  0.004230184    2.445    0.591
        28 -13.6376      3.1206    127.7939   1.4188931491e+02   4.8456815660e+01     1.707372     0.996898 -85.57   0.01019902    1.538    0.350
        29 -12.0506     13.3017    142.0471   1.4105313351e+02   4.4493759385e+01    0.3317339    0.2427173  70.04  0.001129385    1.402    0.287
        30 -12.4032      7.4575    143.7128   1.4263876616e+02   4.4563915699e+01    0.4006836    0.3667544 -30.95  0.002060324    1.457    0.314
        31 -11.9827    144.9540    146.3092   1.0829438324e+02   2.3721938922e+01    0.4748374    0.3310473  89.95  0.001948082    2.072    0.517
        32 -11.0939      2.6304    141.7954   1.4357268383e+02   4.5344501745e+01    0.2962469    0.1526114 -69.00 0.0006295682    1.455    0.313
        33 -12.9431    112.7114    139.3251   1.1479734214e+02   3.1895169204e+01     0.905968    0.6084691   9.11  0.003530432    2.748    0.636
        34 -12.1606    103.5883    138.4670   1.1699334917e+02   3.3787552619e+01    0.3136929    0.2863582  37.20 0.0005747607    1.199    0.166
        35 -11.0907    167.6517    190.2872   1.1222366318e+02   9.4083280663e+00    0.3742537     0.286191 -11.33  0.001802833    1.797    0.444
        36 -11.9585    105.9916    130.8190   1.1467102964e+02   3.5160472568e+01    0.4173459    0.3564692 -71.28  0.001196125    1.164    0.141
        37 -11.0791    107.5192    125.4980   1.1303446682e+02   3.6123401233e+01     0.287379    0.2487344 -23.11  0.000649992    1.338    0.253
        38 -12.0104    118.9599    129.4673   1.1092908740e+02   3.2993775243e+01    0.4009714    0.3684386 -82.79  0.001136463    1.091    0.083
        39 -12.1433    135.6765    122.4165   1.0491431750e+02   3.1139437293e+01    0.6257862    0.2820378 -54.22  0.002089033    2.462    0.594
        40 -10.9732    142.9113    127.7738   1.0443589246e+02   2.8363449098e+01    0.3727247    0.2775679  79.92 0.0008219008    1.719    0.418
        41 -11.8559    124.8114    127.4217   1.0892025381e+02   3.2286937304e+01    0.5473944    0.3284524  70.15  0.001991872    2.690    0.628
        42 -12.7213    193.3109    192.3910   1.0723933461e+02   3.9002457620e+00    0.8327671    0.5061143 -52.90  0.002837062    1.915    0.478
        43 -10.9321    113.2215    118.6499   1.0984525305e+02   3.6614719456e+01    0.2774686    0.2586007  74.06 0.0003754959    1.110    0.099
        44 -10.6249    168.4255    113.3609   9.4802081273e+01   2.5652418686e+01     0.416321    0.2896985 -85.24  0.001241483    2.100    0.524
        45 -10.8338    160.8895    127.7679   1.0014230826e+02   2.4333041393e+01    0.3735024    0.2265753 -50.48  0.001239583    1.670    0.401
        46 -10.3625    205.3528    110.2676   8.6489648793e+01   1.7528329367e+01     0.320574    0.2134986  49.13  0.001060728    1.566    0.361
        47  -9.9254    163.0647    110.3014   9.5216277833e+01   2.7553554368e+01     0.217331    0.1995974  68.18 0.0002849179    1.091    0.083
        48 -11.6331     91.1592    109.3972   1.1371078449e+02   4.2744662334e+01    0.2938682    0.2351218 -45.82 0.0007925965    1.179    0.152
        49 -12.0939     84.7214    109.2262   1.1553704442e+02   4.3845408816e+01    0.4590918    0.2200899 -53.43  0.001905332    1.950    0.487
        50 -11.0900    208.4088    196.8897   1.0508549846e+02   1.8290748015e-01    0.2351206    0.1852669  48.10 0.0005095087    1.319    0.242
        51 -10.6201      1.4908    145.5472   1.4422294929e+02   4.4581657217e+01    0.2010846   0.08926469 -74.58 3.905148e-05    1.713    0.416
        52 -18.9608     48.9952     97.5977   1.2362316188e+02   5.1324871271e+01     18.00465    0.9880015 -57.44   0.02797473   16.733    0.940
        53  -9.9440    198.8967    222.3704   1.1164414716e+02  -2.4303752925e+00    0.1899475    0.1541089  31.05 0.0004664824    1.099    0.090
        54 -10.2073      9.1210    211.1867   1.4804566183e+02   2.9604967701e+01    0.1766336   0.09330994  76.14 0.0003658053    1.567    0.362
        55 -10.6855     89.5781     78.4808   1.0573049838e+02   4.9575571787e+01     0.241121     0.229204   7.67 0.0008244949    1.066    0.062
        56  -8.5134     13.4739    246.8010   1.4948279436e+02   2.2117125888e+01    0.1185198   0.08070511 -88.37 0.0005161536    1.237    0.192
        57 -12.1278    159.1533    235.7882   1.2165782423e+02   2.4140628036e+00    0.3426518    0.2887759   6.12  0.001281048    1.476    0.323
        58  -9.8289     13.5069     59.8582   1.2665190198e+02   6.2259111463e+01    0.1678542   0.09130727 -54.47 0.0004354605    1.483    0.326
        59 -12.8129    177.2415     29.4453   7.0271129122e+01   3.7633419089e+01    0.5342246    0.4030338  39.38  0.001643829    1.522    0.343
        60  -9.7746    126.4766     26.9752   7.8841171514e+01   5.0097791487e+01    0.2885545    0.1674362  77.26  0.001257584    2.475    0.596
        61 -10.7961    168.9200    234.6854   1.1956489563e+02   8.6515556110e-01    0.2103293    0.1925328 -65.56 0.0002512273    1.286    0.222
