#   1 NUMBER                 Running object number                                     
#   2 MAG_AUTO               Kron-like elliptical aperture magnitude                    [mag]
#   3 X_IMAGE                Object position along x                                    [pixel]
#   4 Y_IMAGE                Object position along y                                    [pixel]
#   5 X_WORLD                Barycenter position along world x axis                     [deg]
#   6 Y_WORLD                Barycenter position along world y axis                     [deg]
#   7 A_WORLD                Profile RMS along major axis (world units)                 [deg]
#   8 B_WORLD                Profile RMS along minor axis (world units)                 [deg]
#   9 THETA_WORLD            Position angle (CCW/world-x)                               [deg]
#  10 FWHM_WORLD             FWHM assuming a gaussian core                              [deg]
#  11 ELONGATION             A_IMAGE/B_IMAGE                                           
#  12 ELLIPTICITY            1 - B_IMAGE/A_IMAGE                                       
         1 -11.6830    216.7344     36.8772   3.8595206371e+01   2.7238284459e+01    0.8803983    0.5564082 -57.90  0.004744007    1.430    0.301
         2 -11.5875    238.3703     16.9963   3.2506732215e+01   2.5106445708e+01    0.6553938    0.4812739 -69.08  0.002576994    1.073    0.068
         3 -10.7221      1.8873     11.8788   8.9917457703e+01   7.2892438880e+01    0.7506659    0.1576835 -51.68  0.002636575    5.774    0.827
         4 -12.1250    125.8093    230.4570   9.7655447438e+01   8.8610095546e+00     1.091613    0.6084389  20.40  0.004826981    2.401    0.584
         5 -11.8541     82.8263    242.8587   1.0832376749e+02   1.2896323380e+01     1.031501    0.4118136  40.52  0.004633575    2.037    0.509
         6 -11.9747     53.6741    249.0727   1.1478682588e+02   1.5561792155e+01     2.114804    0.6268871  26.59  0.005683883    8.360    0.880
         7 -10.9059     58.3078    242.4947   1.1333679827e+02   1.6266170451e+01    0.7879812    0.3095474  50.66 0.0007537581    2.178    0.541
         8 -10.6273     69.1832    246.4826   1.1147128770e+02   1.4058498560e+01    0.5284777    0.2768005  57.98  0.002795994    1.789    0.441
         9 -10.1317     67.5517    241.1455   1.1132880511e+02   1.5325725608e+01    0.3671908    0.2453779 -87.20   0.00109473    1.575    0.365
        10 -13.1540      2.5922    130.5552   1.1627831077e+02   4.7806563581e+01     5.134525     1.293281 -82.11   0.01445721    5.810    0.828
        11 -12.9182      9.4383    207.7355   1.2089248216e+02   2.9107214222e+01     1.673825    0.9525225 -89.06  0.006935797    1.508    0.337
        12 -10.7869     14.9391    248.5902   1.2212199489e+02   2.0094536627e+01    0.5512261    0.4366892  48.60  0.001045089    1.277    0.217
        13 -11.8525      2.9316    243.6274   1.2406421784e+02   2.2259172264e+01     1.645039    0.5673586 -82.06  0.008361926    2.652    0.623
        14 -11.2907     23.9093    205.0654   1.1760325742e+02   2.8283568500e+01    0.4274222    0.3384734 -47.42  0.001014214    1.639    0.390
        15 -13.4841     34.7863    194.8575   1.1428394794e+02   2.9461652156e+01       3.2923     1.487957  69.87   0.01391338    2.695    0.629
        16  -9.9460     84.9355    232.9243   1.0684739677e+02   1.4573864136e+01    0.3266844    0.1447223  46.93  0.001508234    1.961    0.490
        17 -11.8264    104.6974    229.4643   1.0214461689e+02   1.2343209943e+01    0.9042296    0.3006875  32.49  0.003310557    3.088    0.676
        18  -9.2045     43.0563    218.1625   1.1448838809e+02   2.3243560551e+01    0.2113173    0.1555885  82.09 0.0002571077    1.211    0.174
        19  -9.6657     77.1297    225.3120   1.0772944388e+02   1.7259173689e+01    0.3317548    0.1646118 -65.24 0.0009806376    2.130    0.531
        20 -10.2561     85.0455    221.7017   1.0557163482e+02   1.6888355570e+01    0.4797518     0.344961 -77.22  0.001475644    1.484    0.326
        21 -10.1291     54.1722    178.2329   1.0773624166e+02   3.1144176418e+01    0.4098524    0.2840561 -33.24  0.001572089    1.996    0.499
        22 -10.2146     60.2884    172.4937   1.0539598719e+02   3.1760832412e+01    0.3543501    0.2681529 -38.76  0.001096576    1.604    0.376
        23 -11.6960     11.0224    232.2311   1.2199707284e+02   2.3748201662e+01    0.9522913    0.4067025  83.31  0.001641815    2.274    0.560
        24  -9.1009      1.6139    167.7927   1.1990510631e+02   3.8926851641e+01    0.2540423    0.1287109  73.29  0.001288899    1.954    0.488
        25  -8.9350     94.2676    168.9630   9.5830340423e+01   2.7579157219e+01    0.3185878    0.1640654  58.80  0.001176994    2.616    0.618
        26  -9.7566     71.4009    162.9266   1.0099695942e+02   3.2599136174e+01     0.303805    0.2904464  -6.96 0.0005023334    1.221    0.181
        27 -11.5949     57.6325    159.1666   1.0421536850e+02   3.5418812905e+01    0.5316411    0.3085208 -40.61  0.001325875    2.127    0.530
        28  -9.2246     35.5714    159.5324   1.1032819870e+02   3.7911090876e+01    0.5058033    0.2321563  69.06  0.001894523    3.240    0.691
        29 -11.2143     78.2948    156.4440   9.8014188439e+01   3.3195419184e+01    0.9967213    0.6094968  46.78   0.00184604    1.663    0.399
        30 -10.9011     69.8777    145.8665   9.8556731324e+01   3.7088143033e+01    0.5401183    0.4790038  10.71  0.001645798    1.309    0.236
        31 -10.9222     67.7820    142.5968   9.8584417098e+01   3.8208074270e+01    0.7247241      0.32066  43.84  0.002556424    2.363    0.577
        32  -8.7244     58.7139    229.5119   1.1212777717e+02   1.8864838879e+01    0.2409281    0.1331949 -56.26  0.001242495    2.074    0.518
        33 -10.1995      2.3089    172.5047   1.2009142049e+02   3.7763192820e+01    0.3839379     0.172559 -74.40  0.001948785    1.824    0.452
        34  -8.8333     94.7218    142.3431   9.0686323614e+01   3.4034012907e+01    0.3425431    0.2803613 -21.17  0.001692572    1.478    0.324
        35 -10.4460     82.3897    141.0002   9.3982154539e+01   3.6409959134e+01    0.3198878    0.2802289 -52.67 0.0004756811    1.121    0.108
        36  -9.6727     58.3000    133.6652   9.9816563215e+01   4.1739459128e+01    0.3619598    0.2113994  89.76  0.001457915    2.498    0.600
        37  -9.1336    106.9275    131.3319   8.4808207329e+01   3.4508491231e+01    0.3642933    0.2955756  39.06  0.001261834    1.253    0.202
        38  -9.3919     66.4515    128.0451   9.6214524749e+01   4.2033886471e+01    0.4623854    0.2616546  81.09  0.001580264    3.583    0.721
        39  -9.4260     94.1184    127.6206   8.7679527816e+01   3.7733466762e+01    0.2766844     0.244193 -48.73 0.0004220077    1.112    0.100
        40  -9.4670     56.4983    127.5240   9.9232834610e+01   4.3506555728e+01    0.3082054    0.1304701 -60.96  0.001211166    2.166    0.538
        41  -9.9480      7.3635    124.9939   1.1422267644e+02   4.8849575916e+01    0.2912508    0.2406273  66.33  0.001652147    1.291    0.226
        42  -8.3643    114.5674    125.2499   8.1228535619e+01   3.4474245230e+01    0.2195399     0.143982 -38.83 0.0005808258    1.628    0.386
        43  -7.8452    105.0749    119.8556   8.2626773770e+01   3.7575469295e+01    0.2015654    0.1793935 -14.13 0.0003807394    1.251    0.201
        44  -8.1033     14.4334    128.4601   1.1250395239e+02   4.7510018538e+01    0.1292971    0.1084042 -74.41 1.738215e-05    1.016    0.015
        45  -7.9428    205.4994    110.5044   5.7077920140e+01   1.8013967085e+01    0.1430924    0.1320726 -51.53 0.0008106782    1.004    0.004
        46  -7.8295     41.6225     91.7370   9.6744009218e+01   5.3898387938e+01    0.1399914   0.09421159 -23.86 0.0004021534    1.672    0.402
        47 -10.5266      2.0000     71.9673   1.0790971689e+02   6.1500383225e+01    0.8039852   0.08079696 -65.65  0.002165062    6.653    0.850
        48 -10.0676      2.3090     56.9992   1.0450692589e+02   6.4663349997e+01    0.5474432   0.05269295 -60.00  0.001761176    4.828    0.793
        49  -8.6807     13.2283     60.1396   1.0040058842e+02   6.3349249593e+01    0.1902375    0.1347358 -37.92 0.0005630947    1.170    0.145
        50 -10.4237    201.2530     51.3153   4.3735691953e+01   2.8734896203e+01    0.3070726    0.2437477 -51.27  0.001794307    1.191    0.161
        51 -11.6210    209.3087     41.2409   4.0391688435e+01   2.8306233449e+01    0.6364254    0.4954006 -42.77  0.003227887    1.301    0.231
        52  -9.1451     28.2554    242.7764   1.1929940810e+02   1.9807007599e+01    0.2517353    0.1225338 -71.00  0.001418663    2.041    0.510
        53 -11.2671    223.6363     30.2080   3.6459235640e+01   2.6593194228e+01    0.5218466    0.4458816  47.72  0.001597169    1.563    0.360
        54  -7.6683    127.1975     35.1058   5.1640734454e+01   4.8536218213e+01    0.1810692    0.1537301 -81.05 0.0004605985    1.319    0.242
        55 -11.5180     31.2181    249.6596   1.1915899531e+02   1.8123943234e+01     1.894327    0.6634054  23.83   0.00633645    6.430    0.844
