#   1 NUMBER                 Running object number                                     
#   2 MAG_AUTO               Kron-like elliptical aperture magnitude                    [mag]
#   3 X_IMAGE                Object position along x                                    [pixel]
#   4 Y_IMAGE                Object position along y                                    [pixel]
#   5 X_WORLD                Barycenter position along world x axis                     [deg]
#   6 Y_WORLD                Barycenter position along world y axis                     [deg]
#   7 A_WORLD                Profile RMS along major axis (world units)                 [deg]
#   8 B_WORLD                Profile RMS along minor axis (world units)                 [deg]
#   9 THETA_WORLD            Position angle (CCW/world-x)                               [deg]
#  10 FWHM_WORLD             FWHM assuming a gaussian core                              [deg]
#  11 ELONGATION             A_IMAGE/B_IMAGE                                           
#  12 ELLIPTICITY            1 - B_IMAGE/A_IMAGE                                       
         1 -13.2898      2.9141     21.4157   7.2173597223e+01   7.0795042306e+01    0.7127227    0.1843159 -50.38  0.003339332    2.690    0.628
         2 -13.1693      7.0083     11.1541   6.5831222698e+01   7.2227876634e+01    0.4993864    0.1768136 -37.94  0.002629179    2.169    0.539
         3 -11.5500      1.5184      6.0039   6.6655372501e+01   7.3400939175e+01    0.2933356    0.1351863 -33.96  0.001733015    1.645    0.392
         4 -10.6908      2.3129      1.6708   6.4149774973e+01   7.3996749437e+01    0.1686002    0.1335944  -0.26 0.0009399144    1.296    0.228
         5 -12.7166      9.5524      2.6269   6.0385982275e+01   7.3302190558e+01    0.5192577    0.2775667   2.59  0.003196787    1.915    0.478
         6 -12.8571    248.9437     18.1703   8.0424068375e+00   2.1424551554e+01    0.3794415     0.211891 -46.44  0.002098045    1.540    0.351
         7 -12.3462     17.5131      7.4825   5.8361743590e+01   7.1906201177e+01    0.1937614    0.1204538 -25.88  0.001231896    1.277    0.217
         8 -10.4071    167.6565      9.3367   1.4320505975e+01   4.1925222422e+01    0.1448678    0.0930995 -68.52 0.0007049671    1.768    0.434
         9 -11.2886    148.9931      8.9967   1.6963545594e+01   4.6661658087e+01    0.2223327    0.1536026 -71.20  0.001142035    1.723    0.420
        10 -11.7258    249.9176      3.4639   4.9157099870e+00   2.2885827512e+01    0.3894925    0.1651358 -56.98  0.001920942    2.098    0.523
        11 -12.2065    239.8658      2.1156   5.3396486273e+00   2.5223619209e+01    0.2820205    0.1452611 -59.54  0.001463493    1.732    0.423
        12 -10.7687    220.6837      3.6538   7.1675023098e+00   2.9437651476e+01    0.1223171   0.09155971  44.45 0.0007048163    1.722    0.419
        13 -10.6029    159.7832      3.1734   1.3567145459e+01   4.4473908679e+01    0.2345207    0.1162573 -64.72 0.0009494878    2.840    0.648
        14 -11.1785    169.1773      2.4162   1.2120298162e+01   4.2179377725e+01    0.1942934    0.1134432  85.23 0.0009012299    1.690    0.408
        15 -12.1653     13.4854      7.0206   6.0333420559e+01   7.2338278348e+01    0.2815836   0.08931745 -42.89  0.001360679    2.719    0.632
        16 -10.8893     38.4217    240.5759   9.4562924906e+01   2.0383790040e+01    0.2518661    0.1334771  67.78  0.001358865    1.573    0.364
        17 -13.3064    232.9169    244.8043   5.8259028488e+01  -9.7251647672e+00     0.497519    0.3007435 -21.00  0.003045651    1.721    0.419
        18 -13.0931    243.1737    245.1506   5.6509381226e+01  -1.1207940414e+01    0.6136636    0.2907223 -17.21  0.003112653    2.611    0.617
        19 -12.3515    249.3605    247.9703   5.5897930880e+01  -1.2369376249e+01    0.5868787    0.2716133 -25.76   0.00328163    2.235    0.553
        20 -12.1669    248.4317    238.2865   5.4461616816e+01  -1.1128322782e+01    0.2837957     0.181491 -12.99   0.00136116    1.476    0.322
        21 -11.5302    247.4072    242.7897   5.5387569122e+01  -1.1515007174e+01    0.2683945    0.1383541 -20.03   0.00121357    2.035    0.509
        22 -11.1738    213.2598    250.4682   6.2694626740e+01  -7.5406962022e+00    0.3654086   0.09521254  37.45   0.00144359    3.155    0.683
        23 -10.3650    185.2975    250.1312   6.7838161915e+01  -3.1807544979e+00    0.2548738    0.1160193  29.93  0.001211833    2.114    0.527
        24 -11.3491    104.4846    250.5141   8.3289716593e+01   9.6010726584e+00    0.2585175   0.09721032  40.58  0.001208404    2.157    0.536
        25 -11.7237     90.1488    249.3773   8.5861394248e+01   1.1926000000e+01    0.3679863    0.1602683  48.78  0.001915098    1.803    0.445
        26 -11.7657     74.5209    250.0245   8.8791096918e+01   1.4027655140e+01    0.4782844    0.1115197  45.95  0.001979802    3.035    0.671
        27 -11.9979     65.3829    248.9831   9.0358936027e+01   1.5452156849e+01    0.4340001    0.1874052  51.29  0.002287844    1.797    0.443
        28 -11.5628     50.4509    250.0306   9.3077172082e+01   1.7191596986e+01    0.4073474    0.1290476  42.73  0.002029461    2.404    0.584
        29 -11.7793     36.2247    247.9451   9.5397149814e+01   1.9287345794e+01    0.5337757    0.2026295  60.25  0.002837515    2.224    0.550
        30 -11.8875     29.9247    240.6421   9.6047218902e+01   2.1350939037e+01    0.4172874    0.2085637  72.25  0.002292142    1.715    0.417
        31 -11.7836     20.4926    248.7312   9.8071237194e+01   2.0912043380e+01    0.3427292    0.1748603  61.41  0.001832561    1.449    0.310
        32 -11.6438     11.8406    248.5111   9.9465313405e+01   2.1862867052e+01    0.3941525     0.155947  65.66  0.002309576    2.021    0.505
        33 -11.5006      4.7547    249.6543   1.0064044634e+02   2.2374829501e+01    0.2647587    0.1552958  59.80  0.001425773    1.222    0.182
        34 -12.0990      3.6351    243.2360   1.0055279588e+02   2.3635118228e+01    0.4248138    0.1805961  67.73   0.00262766    1.821    0.451
        35 -11.5244     64.9881    239.4657   8.9675759583e+01   1.7246831024e+01    0.2307389     0.137833  79.61  0.001377614    1.641    0.391
        36 -11.1587     44.7664    236.9824   9.3193106515e+01   2.0299438559e+01    0.3049795    0.1520112  65.82  0.001748477    1.760    0.432
        37 -11.8985     82.0226    236.5022   8.6192340189e+01   1.5434822926e+01    0.3289012    0.1565639  59.21  0.001651364    2.016    0.504
        38 -11.3346     21.7980    234.9397   9.7126499758e+01   2.3314558304e+01     0.355012    0.1356973  58.57  0.001767948    2.104    0.525
        39 -10.9670     36.9601    234.5824   9.4435543386e+01   2.1685974706e+01    0.3138339    0.1156438  57.05  0.001585836    2.285    0.562
        40 -13.2855    242.1499    237.2654   5.5386141485e+01  -1.0128490578e+01     1.084129    0.5063251   2.16  0.003747173    5.397    0.815
        41 -11.0585     11.7380    232.6927   9.8733049432e+01   2.4785154847e+01    0.2812064    0.1297449  76.52  0.001681757    1.826    0.452
        42 -12.3519     73.0980    240.7727   8.8273294868e+01   1.5899815963e+01    0.3391153    0.2032503  64.04  0.002041021    1.455    0.313
        43 -11.4003     59.0773    232.7469   9.0234025456e+01   1.9303268364e+01    0.3709262    0.1303962  52.55  0.001730824    2.398    0.583
        44 -11.1973     48.5360    230.3890   9.2025217894e+01   2.1101690724e+01    0.3597139    0.1601584  79.70  0.001721549    2.653    0.623
        45 -11.6897     26.5385    228.0594   9.5891391301e+01   2.4121364773e+01    0.4668555    0.1832449  87.02  0.002283104    2.700    0.630
        46 -10.7126     40.4055    229.5554   9.3470212758e+01   2.2249769508e+01     0.267164    0.1226392  62.80  0.001285462    1.923    0.480
        47 -10.4273     32.5203    229.4735   9.4902919156e+01   2.3180284964e+01     0.214945    0.1077664  66.04  0.001043134    1.689    0.408
        48 -11.6287    235.7557    226.7533   5.4731954909e+01  -7.8731651263e+00    0.2924562    0.1476597 -18.43   0.00142883    2.391    0.582
        49 -11.6936     95.0808    235.9060   8.3598129430e+01   1.3620261421e+01    0.3297977    0.1323058  48.75  0.001543399    2.064    0.516
        50 -10.3806     62.2271    228.4078   8.9271890049e+01   1.9730488191e+01    0.1800957   0.08487813  50.24 0.0009508645    1.735    0.424
        51 -11.2693     11.8740    226.3297   9.8385691746e+01   2.5989168293e+01    0.2244171    0.1188602  71.43  0.000972419    1.486    0.327
        52 -10.8486      8.4516    224.4853   9.8886456993e+01   2.6683151841e+01    0.1895977   0.06386966  47.31 0.0008802078    2.263    0.558
        53 -12.2295    247.5911    223.8119   5.2120197024e+01  -9.2325386913e+00    0.3642491    0.2006679  11.56  0.001897467    2.050    0.512
        54 -10.8522     32.3877    223.2720   9.4518556502e+01   2.4412876499e+01    0.3118485    0.1177931  58.41  0.001548585    2.333    0.571
        55 -11.5579     18.6432    222.3821   9.6970826451e+01   2.6073349542e+01    0.3563363    0.1610268 -87.50  0.002022521    1.958    0.489
        56 -10.7137     54.3444    222.6753   9.0309769291e+01   2.1893251266e+01     0.204615    0.1095442  66.63  0.001118905    1.731    0.422
        57 -11.6066      1.8786    220.5258   9.9833178033e+01   2.8075348798e+01    0.3122115    0.1173362  89.99  0.001668107    2.316    0.568
        58 -10.6832     44.5398    220.8762   9.2056088540e+01   2.3473263895e+01    0.2555484    0.1105532  53.40  0.001333689    1.936    0.484
        59 -12.0480      7.7473    218.4686   9.8701715698e+01   2.7928916816e+01    0.4828726    0.1448833  69.96  0.001965768    3.940    0.746
        60 -11.4644    240.1117    218.7935   5.2551093444e+01  -7.4746453926e+00    0.2482239    0.1407739  -6.87  0.001247256    2.152    0.535
        61 -12.4097    248.0082    214.8854   5.0451732305e+01  -8.1335017382e+00    0.4729445    0.2268654 -23.38  0.002343104    2.198    0.545
        62 -10.5146     24.5112    217.4649   9.5597659509e+01   2.6437810497e+01    0.2005001   0.08649106  88.10  0.001027337    2.243    0.554
        63 -12.1440     13.3752    216.6191   9.7591507015e+01   2.7750197280e+01    0.3183219    0.1542081  66.60  0.001892269    1.709    0.415
        64 -10.6320     35.8770    215.0872   9.3283267780e+01   2.5666868797e+01    0.2799699    0.1195032  65.31   0.00137403    2.311    0.567
        65 -10.5520     20.0294    215.4937   9.6305001178e+01   2.7304975267e+01    0.1561528   0.09402341  45.85 0.0006191593    1.533    0.348
        66 -10.3114     28.1046    213.2711   9.4642499131e+01   2.6903523723e+01    0.2316262    0.1080583  72.07  0.001220582    2.038    0.509
        67 -11.5107      2.5237    212.4440   9.9323340885e+01   2.9612584706e+01    0.3105527    0.1440706  77.50  0.001627964    1.791    0.442
        68 -11.2424     22.1178    210.8657   9.5618962055e+01   2.8031438647e+01    0.2351089    0.1253879 -86.24  0.001403283    1.601    0.376
        69 -11.8798      7.4558    207.3248   9.8152227314e+01   3.0195447279e+01    0.4559144    0.1659198  83.12  0.002149344    2.777    0.640
        70 -11.3254      1.9712    205.0797   9.9042363345e+01   3.1149837234e+01    0.3676703    0.1339192 -70.12  0.001613213    2.351    0.575
        71 -12.2442      4.0091    197.0431   9.8215779354e+01   3.2630914696e+01    0.4884475    0.2135156  84.56  0.002654691    1.998    0.499
        72 -11.3769      9.0060    198.0392   9.7314855585e+01   3.1975878790e+01    0.2333816    0.1038159  74.15 0.0007422662    2.064    0.515
        73 -12.4773      3.9631    188.7542   9.7731442076e+01   3.4385663567e+01    0.5152165    0.2353754  65.31  0.002868755    1.959    0.489
        74 -12.0493      5.5201    183.4447   9.7083047803e+01   3.5394930643e+01    0.2989643    0.1231973 -74.96  0.001265295    1.947    0.486
        75 -12.2989      2.2901    178.4917   9.7421495721e+01   3.6735711744e+01    0.4058577    0.1744017  88.35  0.002118284    2.036    0.509
        76 -10.5252     36.2002    207.7966   9.2667360673e+01   2.7140102085e+01    0.2193572   0.08582519  65.48 0.0009549146    2.838    0.648
        77 -12.1969     14.3966    204.4200   9.6675100319e+01   3.0136573325e+01    0.3853992    0.1672907  70.53  0.002021894    2.151    0.535
        78 -10.4301    250.3842    199.2345   4.7128811376e+01  -6.3544771351e+00    0.2367946    0.1078476 -29.65  0.001125476    2.112    0.526
        79 -10.3638     14.4622    196.7425   9.6168222693e+01   3.1741694975e+01    0.2193813   0.09192471 -85.21  0.001124191    2.094    0.522
        80 -11.5471     10.0401    187.0239   9.6402643007e+01   3.4229470364e+01    0.2374015    0.1089447  74.59  0.001243132    2.053    0.513
        81 -12.4089      5.6724    174.0134   9.6411918755e+01   3.7444118181e+01    0.3090792    0.1392675  69.43  0.001599661    2.165    0.538
        82 -12.1600     11.9972    181.9822   9.5649590098e+01   3.5152759593e+01    0.4026892    0.1364469  74.60  0.001473482    4.275    0.766
        83 -10.6308     17.0112    181.0179   9.4524141571e+01   3.4910214824e+01    0.1996392    0.1090446  70.20  0.001019356    1.671    0.401
        84 -10.1972     23.6700    180.3439   9.3044560522e+01   3.4425744032e+01    0.1321801   0.07140112  68.78 0.0007050761    1.751    0.429
        85 -10.3263     11.3070    172.6278   9.5102057076e+01   3.7282278310e+01    0.1292601   0.06830537  70.51  0.000703264    1.765    0.433
        86 -12.3978      1.8369    164.9268   9.6590660117e+01   3.9759760630e+01    0.3273927    0.1575161  77.37  0.001763508    1.944    0.486
        87 -11.7282     15.0046    170.8396   9.4152081954e+01   3.7362878070e+01    0.1855346    0.1033654  81.40  0.001041208    1.612    0.380
        88 -11.2424     25.0648    156.3822   9.0497227965e+01   3.9773612906e+01    0.3450118   0.08571493 -57.04  0.001296856    3.462    0.711
        89 -12.1906     10.0204    155.5054   9.3993815794e+01   4.1261049472e+01    0.2463652    0.1361939  85.54  0.001381197    1.620    0.383
        90 -12.6855      3.4135    153.7208   9.5381368194e+01   4.2164976504e+01    0.4419378    0.1318268 -67.39  0.002014778    2.479    0.597
        91 -12.5542      4.2513    136.5901   9.3675209221e+01   4.6030400626e+01    0.3547641    0.1320919 -81.20  0.001614134    2.361    0.577
        92 -12.1731      2.5114    126.9744   9.3178273478e+01   4.8360554743e+01    0.4060254   0.08599391 -72.27  0.001509835    3.409    0.707
        93 -12.2638    247.3206     42.5002   1.3464226790e+01   1.8684281538e+01    0.2533636    0.1700651 -42.26  0.001416795    1.346    0.257
        94 -10.7569    242.4994     38.4923   1.3054640485e+01   2.0286021741e+01    0.1335149    0.1109658 -66.71 0.0008105304    1.024    0.023
        95 -10.8793      9.3683     36.7960   7.4185962238e+01   6.7639303568e+01    0.1760882   0.07549495 -46.73 0.0009536532    1.714    0.417
        96 -11.1934    230.5471     28.5068   1.1979600691e+01   2.4292674639e+01    0.1330942    0.1124336 -72.11 7.549349e-05    1.009    0.009
        97 -10.7853     27.0541    248.8135   9.6991291022e+01   2.0177577326e+01    0.2042298    0.1041273  59.17  0.001163361    1.460    0.315
        98 -11.1930    218.7672    244.7122   6.0794158727e+01  -7.6401245031e+00    0.2711504    0.1469541 -17.22  0.001415368    2.349    0.574
        99 -12.8427     97.5490    244.9717   8.4045625488e+01   1.1608226023e+01    0.4917758    0.1939698  51.29   0.00231604    2.179    0.541
       100 -12.6523     84.2482    244.8054   8.6542547999e+01   1.3590793362e+01    0.3694468     0.190726  53.97  0.002062131    1.593    0.372
       101 -11.2778     14.5762     21.3175   6.6071927986e+01   7.0023982153e+01    0.2125808   0.09700333 -50.84   0.00114187    2.120    0.528
       102 -11.4750     45.2428    244.7069   9.3632557092e+01   1.8801055549e+01    0.3618927    0.1634436  54.42   0.00170777    1.717    0.418
       103 -11.5503    117.1196    244.2717   8.0211599237e+01   8.7187888394e+00    0.2334605    0.1447155  75.75  0.001238001    2.127    0.530
       104 -10.4845    148.6500     15.3244   1.9048372937e+01   4.6138426878e+01    0.1435755   0.09967798 -71.06 8.738296e-05    1.752    0.429
       105 -12.1737     57.3944    242.2948   9.1291637334e+01   1.7719459603e+01    0.5466092    0.1983413  56.26  0.002623698    2.432    0.589
       106 -10.4966    156.6633     17.3479   1.8364010834e+01   4.3909929007e+01    0.1467108    0.0987084 -68.49 0.0007047542    1.781    0.438
       107 -11.2676    209.8560    243.4330   6.2231802796e+01  -6.1214132443e+00    0.2326198    0.1368676   5.31  0.001191711    2.237    0.553
       108 -11.8768    109.4586    241.8157   8.1425064963e+01   1.0346155940e+01    0.3059644    0.1751938  77.64  0.001499387    2.521    0.603
       109 -11.4918     17.6758    241.1305   9.8155611557e+01   2.2595997135e+01    0.4864705    0.1540554  51.18  0.002623513    2.275    0.560
       110 -11.8006      5.1081    228.3792   9.9650413368e+01   2.6256429489e+01    0.3844797    0.1666081  70.06  0.002169881    1.889    0.471
       111 -10.9168     10.7006    238.9383   9.9209986772e+01   2.3720855624e+01    0.2382339    0.1409763  82.79  0.001179483    1.316    0.240
       112 -11.6513      6.4808    235.8063   9.9764150280e+01   2.4722357093e+01    0.2994378    0.1540084  70.94  0.001287989    1.478    0.323
       113 -12.0242    226.2754    240.3294   5.8725572801e+01  -8.2052898386e+00    0.2689895    0.1657399   9.07  0.001542618    1.690    0.408
