#   1 NUMBER                 Running object number                                     
#   2 MAG_AUTO               Kron-like elliptical aperture magnitude                    [mag]
#   3 X_IMAGE                Object position along x                                    [pixel]
#   4 Y_IMAGE                Object position along y                                    [pixel]
#   5 X_WORLD                Barycenter position along world x axis                     [deg]
#   6 Y_WORLD                Barycenter position along world y axis                     [deg]
#   7 A_WORLD                Profile RMS along major axis (world units)                 [deg]
#   8 B_WORLD                Profile RMS along minor axis (world units)                 [deg]
#   9 THETA_WORLD            Position angle (CCW/world-x)                               [deg]
#  10 FWHM_WORLD             FWHM assuming a gaussian core                              [deg]
#  11 ELONGATION             A_IMAGE/B_IMAGE                                           
#  12 ELLIPTICITY            1 - B_IMAGE/A_IMAGE                                       
         1 -14.0053    236.1909     26.2408   3.9200915719e+01   2.3665165504e+01     2.744392     1.259546 -48.66   0.01320104    1.905    0.475
         2 -12.7803    210.5421     32.8156   4.3397753879e+01   2.8717003711e+01     1.351031    0.9255435 -73.33  0.006261859    1.497    0.332
         3 -11.9056    212.0956      7.7748   3.7013970307e+01   3.1238645030e+01    0.7939979    0.4271852 -58.47  0.003003336    1.802    0.445
         4 -10.7121    240.3975      2.9768   3.3717624969e+01   2.5397907363e+01    0.5080748    0.2642705  80.85  0.002516702    1.824    0.452
         5  -9.3593    124.4777      4.4824   4.7173298040e+01   5.2793069559e+01    0.1295155    0.1178725  59.93 0.0001046225    1.060    0.056
         6 -13.1248     88.4048    223.6385   1.1138013886e+02   1.6512144320e+01    0.9660643    0.8368705 -82.37  0.006535221    1.203    0.169
         7 -13.3395    244.9696    244.4828   8.4527842387e+01  -1.0645971955e+01     1.550407    0.7378459 -22.74  0.008647729    2.180    0.541
         8 -11.9354    231.9854    247.2775   8.7191170584e+01  -9.2432492112e+00    0.5531143    0.4696223 -42.27  0.003980624    1.800    0.444
         9 -11.6677    234.6088    240.5780   8.5662894306e+01  -8.7975586099e+00    0.2728091     0.230149  17.97  0.001599444    1.255    0.203
        10 -14.5956    218.4910    191.0421   7.9731838801e+01   6.2836532406e-01     2.432702     1.750663  -7.52   0.01227693    1.431    0.301
        11 -14.1452    207.7883    165.9815   7.6657348252e+01   6.7901008487e+00     1.765695     1.339878 -11.87  0.006794559    1.387    0.279
        12 -14.2331    152.7767    208.8011   9.6064064543e+01   8.9907191320e+00     2.119421    0.8446084  44.63  0.008668507    2.335    0.572
        13 -13.9521    188.0941    178.4789   8.3176923067e+01   8.2208612171e+00     1.741165     1.216725  60.28  0.008362994    1.910    0.476
        14 -16.1312    173.7837    200.6676   9.0330896958e+01   6.7869661955e+00      4.01914     2.501894  52.91   0.01950723    1.847    0.458
        15 -13.9581    155.1970    246.2379   1.0105283164e+02   2.2836945082e+00    0.7447181    0.5209818  54.80  0.002986865    1.515    0.340
        16 -15.7829    156.0416    230.1668   9.8667026277e+01   4.7084667828e+00     2.795801     1.587053  61.39   0.01273625    2.714    0.632
        17 -14.5059     98.5322    246.3275   1.1178210006e+02   1.0857490246e+01    0.9167372    0.7063557  66.60   0.00484922    1.181    0.153
        18 -12.3355    110.0209    247.2817   1.0972778499e+02   9.0151376049e+00    0.4788199    0.3251993 -62.64  0.001510751    1.724    0.420
        19 -12.6345     63.3864    249.0571   1.1843804671e+02   1.5175319712e+01    0.5714638    0.3409592  60.41  0.002014272    1.370    0.270
        20 -13.2435     56.0622    249.2600   1.1974527889e+02   1.6064996546e+01    0.4476418    0.2859602  44.69  0.001448184    1.380    0.275
        21 -14.8338      3.1768    182.6008   1.2512667423e+02   3.5200325487e+01     6.563558    0.5186805 -73.18   0.01957341    6.213    0.839
        22 -14.1725     41.3148    198.7257   1.1852140359e+02   2.7888115376e+01       3.0377     1.238242  70.68   0.01222332    3.350    0.702
        23 -12.2094     31.1672    209.0964   1.2140482322e+02   2.6812304845e+01    0.4620511    0.3607495 -58.77 0.0009507072    1.587    0.370
        24 -13.5821     32.4059    233.4012   1.2284724130e+02   2.1807810610e+01    0.8963021    0.5713946  67.73  0.006119198    1.226    0.184
        25 -12.8779     43.3913    249.6666   1.2196842589e+02   1.7529306249e+01    0.3050236    0.2196454  46.83  0.001203577    1.324    0.244
        26 -14.6601     41.2724    242.3460   1.2186159185e+02   1.9110311883e+01    0.8338518    0.5693833 -60.39  0.004765816    1.842    0.457
        27  -9.9157     52.5229    241.9083   1.1984002843e+02   1.7839792386e+01    0.2679946    0.1518351 -50.60  0.001525744    2.638    0.621
        28 -10.5569    202.4482    237.8938   9.0976823632e+01  -3.8041509250e+00     0.323714    0.2217335  35.72  0.001149245    1.297    0.229
        29  -9.8265    194.6581    237.7437   9.2395023446e+01  -2.5958782482e+00    0.2647197    0.2091396  48.80  0.001699674    1.486    0.327
        30  -9.3075     62.5216    236.5516   1.1760321492e+02   1.7578298799e+01    0.1917534   0.09822131 -88.09  0.001020469    2.191    0.544
        31  -9.9584    102.4785    232.4558   1.0956011778e+02   1.2761172244e+01    0.3111134    0.2087457  81.84  0.001784335    1.745    0.427
        32 -11.5637    226.9898    225.8205   8.4536562747e+01  -5.8307322981e+00    0.5624953    0.4589128  18.14  0.003829485    1.118    0.105
        33 -10.0830    121.4811    225.2057   1.0489744408e+02   1.1165665104e+01    0.2977943    0.2234803  41.19 0.0009706781    1.186    0.157
        34 -10.2469     94.4656    216.9375   1.0939216501e+02   1.6941618451e+01    0.2823015     0.225909  76.14  0.000902307    1.186    0.157
        35 -10.0944     48.5071    224.9656   1.1929389311e+02   2.1576862285e+01    0.1971457    0.1426737  53.30 0.0003731429    1.209    0.173
        36 -10.2168    119.8980    219.3133   1.0444735173e+02   1.2521072934e+01    0.4052554    0.2480014  31.54  0.001397948    1.711    0.415
        37 -10.8549    122.1798    214.6720   1.0334399539e+02   1.3040061667e+01    0.4838763    0.3124348  52.96  0.001890316    1.468    0.319
        38 -12.0936    116.5225    249.1186   1.0870587987e+02   7.7415833636e+00    0.4811005    0.2837842  42.79   0.00190035    1.380    0.276
        39 -11.2759     75.9062    223.6515   1.1386954904e+02   1.8280247560e+01    0.4597043      0.34209  72.44  0.001928247    1.197    0.164
        40 -11.8907    116.0371    228.8417   1.0645029335e+02   1.1354280013e+01    0.6148949    0.3673453  51.04  0.002767981    1.498    0.333
        41 -11.9163    235.4595    185.2768   7.5521842042e+01  -1.2781369453e+00    0.4794934    0.3804468 -50.45  0.002800131    1.671    0.401
        42 -10.6483    148.9028    180.7990   9.2037049177e+01   1.5155065155e+01    0.4486545    0.3380814  20.99  0.001849453    1.519    0.342
        43 -10.4545     59.4432    180.9573   1.1272845166e+02   2.9661998957e+01    0.3462532    0.2466961 -37.23  0.001433131    1.993    0.498
        44 -10.4967     64.9629    175.2174   1.1073045705e+02   3.0268658451e+01     0.249608    0.2149416 -45.29 0.0005505233    1.407    0.289
        45 -13.5555    194.1137    194.1218   8.5016461193e+01   4.3345309661e+00     1.017319    0.9079636 -60.98  0.004149265    1.437    0.304
        46 -11.0051    156.4018    169.8138   8.8224977511e+01   1.6000630697e+01    0.6270648    0.4094342  51.03  0.002901116    1.611    0.379
        47 -12.7689     51.4825    190.3620   1.1555531911e+02   2.8526506989e+01    0.6431128     0.520614  69.76  0.002284097    1.081    0.075
        48 -11.7820    166.4898    162.6541   8.4496541854e+01   1.5494856981e+01    0.6719903    0.4007973 -35.46  0.002922696    1.799    0.444
        49 -10.1332     75.0310    165.2401   1.0689948496e+02   3.1229553879e+01    0.2342946    0.2023227 -62.78 0.0004041442    1.163    0.140
        50 -12.2042     62.0945    161.4941   1.0956313774e+02   3.3900562731e+01    0.4798815     0.274356 -46.08  0.001300565    2.031    0.508
        51 -11.3007    239.7218    160.3617   6.9661615306e+01   1.9621539164e+00    0.3417467    0.2800538 -63.98  0.001917611    1.750    0.429
        52 -11.8388    229.5747    153.5377   6.9945496751e+01   4.9085075754e+00    0.7423159    0.3631454 -29.90  0.003179347    2.025    0.506
        53 -10.7487     81.1974    158.8017   1.0434091766e+02   3.1865789599e+01    0.5171893    0.3745972  30.18  0.001514315    1.589    0.371
        54 -13.6392     35.0468    217.7602   1.2129714060e+02   2.4597565451e+01     1.158635    0.7372925  51.39  0.005721264    1.364    0.267
        55 -12.6669    174.1391    148.7754   7.9764660297e+01   1.6785036916e+01     0.881169    0.7318871  -3.27  0.002563903    1.365    0.267
        56 -12.4568    184.1762    144.3939   7.6612444507e+01   1.5579255330e+01    0.8162822    0.6135494  62.51  0.002534859    1.625    0.385
        57 -10.7468     70.3152    145.3282   1.0491615385e+02   3.6717927939e+01    0.3875422    0.3164462 -47.42  0.001098337    1.289    0.224
        58 -11.3114     67.5274    142.5072   1.0518246750e+02   3.7795396041e+01    0.4512736    0.3655159  65.63  0.001440867    1.283    0.220
        59 -10.9550     85.0494    142.5261   1.0045062587e+02   3.5221730444e+01    0.2698987    0.2459695 -40.78 0.0004126241    1.196    0.164
        60  -9.6587     32.5224    143.4924   1.1467922688e+02   4.1651023966e+01    0.1314947    0.1076614 -81.59 7.540279e-05    1.015    0.015
        61 -12.0731    137.5533    132.4509   8.4471849055e+01   2.7963146105e+01    0.8915479    0.7333051 -55.72  0.002789672    1.223    0.182
        62 -15.2996      6.8381    238.8787   1.2752023004e+02   2.3447534617e+01     6.676808     1.161442 -77.60  0.008183093    5.024    0.801
        63  -9.1410    107.6897    132.1488   9.2165669827e+01   3.3885372760e+01    0.2897223    0.1842444  29.05  0.001246477    1.877    0.467
        64  -9.2582     95.9086    128.1349   9.4497951014e+01   3.6938473063e+01    0.2360063    0.1789308 -23.11  0.001112288    1.682    0.405
        65 -13.4374    165.6713    114.2547   7.3193843325e+01   2.5773640302e+01     1.400114     1.205151 -65.53  0.004455187    1.272    0.214
        66 -12.1276    177.3572    116.8301   7.1320002919e+01   2.2604881559e+01    0.7600964      0.59828 -56.68  0.002483429    1.361    0.265
        67  -8.4527    106.2505    120.2879   8.9782943639e+01   3.6964188548e+01    0.1458228    0.1164454 -23.19 0.0002214685    1.474    0.322
        68 -11.8145    245.3506    107.9342   5.7106844676e+01   9.6232884465e+00    0.4700631    0.4141642  -5.81  0.002226066    1.238    0.192
        69 -11.1541    239.4129    107.0857   5.7780867151e+01   1.0940219202e+01    0.3846648    0.2855812  -0.15  0.001952778    1.769    0.435
        70  -9.1309    205.5077    110.4717   6.4175560083e+01   1.7516071759e+01    0.1502805    0.1399085 -33.28 0.0008099269    1.012    0.012
        71 -11.8440    185.1824    101.5822   6.5729486199e+01   2.3793518937e+01    0.6990732    0.6066259 -78.08  0.003369357    1.302    0.232
        72 -12.9098    119.4326    242.3762   1.0739826167e+02   8.4374979563e+00    0.8615073    0.5113935  66.22  0.004103753    2.093    0.522
        73 -13.2030    242.9276     87.0888   5.2614764151e+01   1.3499759560e+01     1.526513    0.6730119 -44.73  0.005180844    2.017    0.504
        74 -12.9398    241.5698     70.5901   4.8928279164e+01   1.6360413384e+01     1.196126    0.7309302 -62.21   0.00428581    1.817    0.450
        75 -12.8734    240.3170     58.1630   4.6168343588e+01   1.8477436239e+01     1.076431    0.7335933 -54.36  0.003955388    1.334    0.250
        76 -11.9830    246.7637     44.0450   4.2243221305e+01   1.9078944371e+01    0.8285373    0.4710031 -77.11  0.004051704    2.106    0.525
        77 -10.0311    174.7713     87.6207   6.4006042659e+01   2.8871977443e+01    0.3615711     0.191185  51.27  0.001442714    1.933    0.483
        78 -10.8137    180.4889     83.8706   6.1832299074e+01   2.8183056124e+01    0.6502014    0.3902496  66.96  0.002689405    1.994    0.499
        79 -13.7365      9.5352    207.2620   1.2541059923e+02   2.9382385208e+01     1.183226     1.069648   5.25  0.005701371    1.783    0.439
        80 -11.6394    127.9177     63.4405   6.7237071778e+01   4.4387824574e+01    0.6741813    0.4995239 -26.35  0.002757522    1.397    0.284
        81 -11.5838    211.9734     62.2580   5.0771186754e+01   2.4248933040e+01    0.7238133    0.3700943 -40.75  0.003180937    1.777    0.437
        82  -9.6336     13.3442     60.0068   1.0590382556e+02   6.2771091663e+01    0.1779031    0.1258228 -52.03 0.0004489193    1.111    0.100
        83  -9.3377     41.3028     59.1786   9.4313528700e+01   6.0481833390e+01    0.2201376    0.1597618  55.86  0.001042793    2.086    0.521
        84 -11.3192    202.5984     37.7332   4.5628529910e+01   2.9981451444e+01    0.4162653    0.3223397   1.18   0.00151543    1.765    0.433
        85 -10.4759     82.6393    248.0374   1.1488283154e+02   1.2797414928e+01    0.2086058    0.1271475  52.30 0.0008816776    1.316    0.240
        86 -11.3609    218.0810     25.5536   4.0772500895e+01   2.7847382848e+01    0.4674683    0.2904394  35.05  0.001275486    2.467    0.595
        87 -10.0243    135.8893     42.6121   5.8328689578e+01   4.5788466041e+01    0.2881924    0.2223693 -54.23 0.0005192017    1.471    0.320
        88 -10.9792    192.1572     38.5675   4.7231712937e+01   3.2413116404e+01    0.5793262    0.3000157  63.29  0.002595866    1.861    0.463
        89  -9.7751    221.7349    244.9401   8.8610911098e+01  -7.5430012938e+00     0.278026     0.136978  23.46   0.00146353    1.987    0.497
        90 -13.7925     73.2776    236.3300   1.1557407871e+02   1.6199988938e+01    0.9764671    0.6401153  80.36  0.004570603    1.508    0.337
