#   1 NUMBER                 Running object number                                     
#   2 MAG_AUTO               Kron-like elliptical aperture magnitude                    [mag]
#   3 X_IMAGE                Object position along x                                    [pixel]
#   4 Y_IMAGE                Object position along y                                    [pixel]
#   5 X_WORLD                Barycenter position along world x axis                     [deg]
#   6 Y_WORLD                Barycenter position along world y axis                     [deg]
#   7 A_WORLD                Profile RMS along major axis (world units)                 [deg]
#   8 B_WORLD                Profile RMS along minor axis (world units)                 [deg]
#   9 THETA_WORLD            Position angle (CCW/world-x)                               [deg]
#  10 FWHM_WORLD             FWHM assuming a gaussian core                              [deg]
#  11 ELONGATION             A_IMAGE/B_IMAGE                                           
#  12 ELLIPTICITY            1 - B_IMAGE/A_IMAGE                                       
         1 -13.7612    182.5818     34.4747   6.3685817409e+01   3.5101071250e+01      1.41429     1.031803  17.63  0.004382144    1.690    0.408
         2 -12.4974    187.0366     28.0234   6.1028831022e+01   3.4738250312e+01    0.5970986    0.5537704 -65.03  0.001397442    1.083    0.076
         3 -11.4046    189.6646     14.9339   5.6701192388e+01   3.5525783449e+01    0.2900308    0.2572045 -25.80 0.0009550804    1.188    0.158
         4 -10.1827     86.8279     12.6475   7.6328546137e+01   6.0729068364e+01    0.2787448    0.2051621  59.97 0.0008263392    1.640    0.390
         5  -9.9139     82.7840     11.5916   7.7089010966e+01   6.1648836074e+01    0.2462313    0.1999542  63.28  0.001445823    1.588    0.370
         6 -12.7319    206.1692      3.2185   5.1468520454e+01   3.2455987340e+01     0.938851    0.4680962  50.07  0.003219385    2.112    0.527
         7 -11.6025    201.5820      2.7856   5.1804891696e+01   3.3662014957e+01    0.4365189    0.3026067  85.66  0.001696355    1.404    0.288
         8  -9.1741     74.4846      9.5191   7.8799429286e+01   6.3463104827e+01    0.1292365    0.1108227   3.22 0.0003395159    1.032    0.031
         9 -11.0099     64.7126      7.2901   8.1121184894e+01   6.5463099439e+01     0.321852    0.1965881  53.31  0.001723965    2.052    0.513
        10 -10.2510     97.2885    213.2549   1.2236060632e+02   1.9534625256e+01    0.2948453    0.1769879  39.20  0.001746258    1.599    0.374
        11 -19.3812     35.2162    146.9081   1.2806949836e+02   4.0766804433e+01     18.36504     4.246341 -72.63   0.06382514    4.274    0.766
        12  -8.7372    209.4728    198.4995   9.9193347147e+01   3.0640223448e+00    0.1255024    0.1077761  28.64  0.000433872    1.085    0.079
        13  -9.6357     15.8343    201.2189   1.3622543051e+02   3.1650141391e+01    0.1158735   0.07751227  39.76 0.0003998971    1.653    0.395
        14  -9.8260     68.3193    212.0707   1.2759642927e+02   2.3744937796e+01     0.252469    0.1768037  17.67  0.001486876    2.580    0.612
        15 -11.6418     76.7940    190.8970   1.2392280220e+02   2.6586107064e+01    0.7984863     0.372552  62.33  0.003829144    2.380    0.580
        16 -11.8532     80.0352    186.6302   1.2279572392e+02   2.6972275187e+01    0.4918471    0.3800985  76.65  0.001881039    1.144    0.126
        17  -9.5370    153.4813    195.5110   1.0921593301e+02   1.3462180531e+01    0.1296486    0.1122661  44.29 -6.072033e-06    1.011    0.011
        18  -9.7622     92.6158    194.8831   1.2121786871e+02   2.3566530521e+01    0.3716988    0.1549495  43.20  0.001790613    2.100    0.524
        19 -11.8350     68.4619    202.5627   1.2671431153e+02   2.5473504324e+01    0.3384037     0.239975 -46.28  0.001336493    2.072    0.517
        20  -9.5069    127.3163    191.3087   1.1378625068e+02   1.8727646144e+01    0.1201505     0.100553   7.89 0.0003145011    1.633    0.388
        21  -9.7046    167.1169    187.9812   1.0532282249e+02   1.2260702621e+01    0.2403976    0.1964515 -55.30  0.001207426    1.447    0.309
        22 -10.4537     60.5487    208.1263   1.2868119816e+02   2.5450715266e+01    0.2906641    0.2546225 -74.17  0.001321088    1.395    0.283
        23 -10.2721     90.5205    183.9663   1.2032557584e+02   2.5986608394e+01    0.2957207    0.1742276  68.36  0.001338578    1.866    0.464
        24  -9.6788     64.8513    208.7552   1.2794425613e+02   2.4792813528e+01    0.2452411    0.1947272 -27.73  0.001585831    2.365    0.577
        25 -10.5083     99.5265    180.7731   1.1803469402e+02   2.5250427647e+01    0.2300414    0.2005302  66.31 0.0005644664    1.030    0.029
        26  -9.7761    208.8047    178.2080   9.5608927360e+01   6.0517963098e+00    0.3714397    0.2136203   3.27  0.001510233    3.075    0.675
        27  -9.3615    144.6597    179.3031   1.0838130417e+02   1.7873237711e+01    0.1366838   0.09915029  71.64 0.0007039102    1.675    0.403
        28 -10.7517    195.8867    169.8512   9.6406761386e+01   9.7775528285e+00     0.378362    0.3054724 -25.43  0.001737522    1.305    0.234
        29  -9.9023    193.5035    164.6035   9.5822142573e+01   1.1087423348e+01    0.3407843    0.2931684  89.07  0.001908318    1.599    0.375
        30 -10.6477    124.9840    172.8958   1.1146262020e+02   2.2593789423e+01     0.210095    0.1908108  62.97  0.001143243    1.011    0.010
        31 -10.5116    137.9891    171.5070   1.0845987483e+02   2.0538154942e+01     0.256266    0.1914045 -75.42  0.001371455    1.627    0.386
        32 -10.5002    132.2441    172.4146   1.0983427800e+02   2.1402793088e+01    0.2693137    0.1229445  38.86  0.001143654    2.163    0.538
        33  -8.8054      1.1941    163.3832   1.3674203526e+02   4.0290816634e+01    0.1023033   0.06032325 -67.54 0.0006164903    1.584    0.369
        34  -9.1666    141.9681    158.6772   1.0529765784e+02   2.2269032350e+01    0.1939165    0.1689409  51.49 0.0003763504    1.077    0.071
        35 -12.0242    100.8341    154.0906   1.1375949414e+02   3.0527942117e+01    0.6171164    0.4230428 -37.42  0.003151107    1.918    0.479
        36  -8.9566    120.2335    156.0592   1.0965479763e+02   2.6806003723e+01    0.2243833    0.1540852 -89.64  0.001069664    1.947    0.486
        37  -9.5788    164.5730    153.5105   9.9417371216e+01   1.8811225362e+01    0.1407454    0.1334986  33.76 0.0001496929    1.015    0.015
        38 -10.4053    134.3928    148.1962   1.0496442193e+02   2.5803560846e+01    0.4483438    0.2246176 -57.50  0.001842485    2.316    0.568
        39 -10.7186    133.8010    143.1875   1.0409602492e+02   2.6940879909e+01    0.5839698    0.2047199 -54.38  0.001942787    3.396    0.706
        40  -9.5793    175.1423    149.1744   9.6301372723e+01   1.7448419029e+01    0.1964726    0.1740271  81.99 0.0005241996    1.351    0.260
        41 -12.1036     11.5313    206.9178   1.3726683179e+02   3.1008868652e+01    0.2650042     0.193764  70.59   0.00123856    1.079    0.073
        42 -10.7172    144.3562    145.6929   1.0221048706e+02   2.4368919661e+01    0.4264777    0.2553397 -80.86  0.001450832    3.869    0.742
        43 -11.7191    110.3657    139.5448   1.0890274553e+02   3.2037518660e+01     0.567163    0.3573218 -33.75  0.002567239    2.175    0.540
        44 -11.5175     99.3656    139.6722   1.1159608550e+02   3.3883199880e+01    0.2570105    0.2488746  74.57 0.0005064245    1.102    0.092
        45 -10.7713    105.9810    131.0058   1.0829349768e+02   3.4661593042e+01    0.3499082    0.2965953 -80.06  0.001154081    1.196    0.164
        46 -10.3135    104.9762    126.2699   1.0757410061e+02   3.5877110996e+01    0.2876743    0.2451112 -36.13 0.0007759019    1.312    0.238
        47 -11.3381    117.7202    130.0728   1.0519304424e+02   3.2753104799e+01    0.4572156    0.3109742  36.53  0.001459435    1.575    0.365
        48 -11.1710    135.4806    124.4269   9.9626757850e+01   3.0496225800e+01    0.8266785    0.1430907 -48.86   0.00186044    6.596    0.848
        49  -9.7712    120.5229    124.4788   1.0328430869e+02   3.3429679910e+01    0.1424541    0.1396748 -77.27 7.832601e-05    1.034    0.033
        50  -9.8978    111.6654    119.1335   1.0431847539e+02   3.6244984651e+01     0.251776    0.2081891  35.47 0.0004147234    1.301    0.231
        51  99.0000      5.8806    207.4087   1.3823950693e+02   3.1438044539e+01    0.1950226     0.083799  53.62 0.0007818119    1.790    0.441
        52 -10.1064    167.9865    112.7481   8.9315075026e+01   2.5808802396e+01    0.4141518    0.3023666 -86.74  0.001291479    2.090    0.522
        53  -9.5711    205.6668    110.1141   8.1087555384e+01   1.7664865062e+01    0.2864533    0.2124586  41.57 0.0007304666    1.361    0.265
        54 -10.1416     92.4229    205.1806   1.2241439995e+02   2.1684042874e+01    0.4116512    0.1700882  45.53  0.002051077    2.027    0.507
        55 -10.1569    161.5105    128.4942   9.4590981211e+01   2.4211515490e+01    0.3358074    0.2340705 -87.22  0.001380996    2.420    0.587
        56  -9.8011     95.6380    201.3034   1.2136360628e+02   2.1921602008e+01    0.3326131     0.173424  75.41   0.00152061    2.839    0.648
        57  -8.9544    151.9901    102.5138   9.0231540956e+01   3.1408174457e+01    0.2160423    0.1504949  48.58  3.14939e-05    1.441    0.306
        58  -9.1509    163.3260    203.9926   1.0862488671e+02   1.0363326400e+01    0.1638097    0.1561008  40.71 0.0004412821    1.127    0.113
        59  -8.8996    151.4771     80.0042   8.3968650353e+01   3.5823509179e+01    0.2337548    0.1502496 -37.20 0.0005257418    1.539    0.350
        60 -10.4794    175.6256     73.9733   7.6988720583e+01   3.1006605898e+01    0.3190143    0.2520712 -66.63  0.000626403    1.508    0.337
        61  -8.7659    157.3068    203.6491   1.0971749124e+02   1.1463783959e+01    0.1257207   0.09326759  72.29 0.0003860009    1.709    0.415
        62 -12.7502    168.6657     49.2399   7.0746118993e+01   3.6678360104e+01    0.6822929     0.596539  14.77  0.001024892    1.232    0.188
        63 -10.9406     70.7391    228.4208   1.2852456117e+02   2.0581218133e+01    0.1898722    0.1440224  65.04 0.0004219593    1.018    0.018
        64 -10.6336      9.3836    227.1302   1.3855304950e+02   2.7664988549e+01    0.1113938   0.09362059  87.28 0.0006708782    1.418    0.295
        65  -9.6478     87.1348    224.2299   1.2529449889e+02   1.9094317843e+01    0.2065028    0.1512553 -56.71  0.001240545    1.736    0.424
        66  -9.0880     67.4930    224.9893   1.2881448599e+02   2.1580469536e+01    0.1486255   0.09660176 -70.05  0.001019251    1.655    0.396
        67 -11.1520    139.0672    200.5587   1.1278343733e+02   1.5108967408e+01    0.2308904    0.1755193 -82.04 0.0009432563    1.641    0.391
        68  -8.7817    198.6156    222.8074   1.0506549432e+02   1.7144945486e+00    0.1337226     0.114665 -45.97  0.000427168    1.556    0.357
        69 -11.2513    183.8443    215.9215   1.0664347719e+02   5.0820150809e+00    0.3654138    0.1950394  54.86  0.001817272    2.211    0.548
        70 -11.4705    193.4019    192.4548   1.0106887340e+02   6.7693565912e+00    0.6717896    0.4243824 -47.22  0.003170141    1.955    0.488
