#   1 NUMBER                 Running object number                                     
#   2 MAG_AUTO               Kron-like elliptical aperture magnitude                    [mag]
#   3 X_IMAGE                Object position along x                                    [pixel]
#   4 Y_IMAGE                Object position along y                                    [pixel]
#   5 X_WORLD                Barycenter position along world x axis                     [deg]
#   6 Y_WORLD                Barycenter position along world y axis                     [deg]
#   7 A_WORLD                Profile RMS along major axis (world units)                 [deg]
#   8 B_WORLD                Profile RMS along minor axis (world units)                 [deg]
#   9 THETA_WORLD            Position angle (CCW/world-x)                               [deg]
#  10 FWHM_WORLD             FWHM assuming a gaussian core                              [deg]
#  11 ELONGATION             A_IMAGE/B_IMAGE                                           
#  12 ELLIPTICITY            1 - B_IMAGE/A_IMAGE                                       
         1 -12.5271     65.2091    109.2143   1.1960626486e+02   4.6725285250e+01     0.972083    0.9346728 -84.73  0.004560872    1.130    0.115
         2 -12.8607    151.4288     59.0753   8.1755016304e+01   3.9666975069e+01     1.274179     1.092114  32.99  0.002601403    1.243    0.195
         3 -13.1856    162.3298     44.4218   7.5382385595e+01   3.9155282096e+01     1.190796     1.128741  -8.46   0.00439679    1.208    0.172
         4 -12.7882    175.9901     15.9471   6.5444911331e+01   3.9243422060e+01     2.344591    0.3087839  59.18  0.007103021    4.403    0.773
         5 -13.0846    176.0577      9.5812   6.3789150094e+01   3.9872647629e+01     1.430965     0.786773  77.26  0.005978559    1.669    0.401
         6 -11.2806    187.5543    238.2211   1.1483819418e+02  -3.1380382140e+00    0.4442974    0.2307122 -45.83  0.001588555    2.235    0.553
         7  -9.4968    176.0307    249.6913   1.1885903444e+02  -2.9981183016e+00    0.2073667    0.1796317 -21.40 0.0006112849    1.339    0.253
         8 -10.1573    133.4821    249.4435   1.2708096138e+02   4.2669026556e+00    0.2523637    0.1739086  60.62 0.0007239892    1.405    0.288
         9 -11.6185    133.9494    245.5031   1.2647811754e+02   4.8842855717e+00    0.7987332      0.50107  18.73  0.002711502    2.690    0.628
        10 -18.9714     70.0001    228.8120   1.3706006791e+02   1.8352009542e+01     5.301485     4.140122  60.89   0.02183784    1.116    0.104
        11 -11.5048    137.9096    172.1764   1.1369266435e+02   1.9233732659e+01     0.741465    0.5309946  66.88  0.002040413    1.611    0.379
        12 -10.4362    125.8302    172.7785   1.1667380184e+02   2.1464868828e+01    0.3559951    0.3017728 -73.09 0.0007135906    1.192    0.161
        13 -10.4862    170.2749    184.1080   1.0871789389e+02   1.0092305876e+01    0.4998232    0.2718577  51.36  0.001615286    1.927    0.481
        14 -11.4242    172.5699    189.3129   1.0924305907e+02   8.5650418105e+00    0.4723863    0.4244466   7.18  0.001503346    1.209    0.173
        15 -10.1433    175.8053    187.2126   1.0813437911e+02   8.3450784338e+00    0.3545285    0.2603241 -68.44  0.001291762    1.748    0.428
        16  -9.9183    230.0097    167.7888   9.3229143891e+01   1.4052668115e+00    0.3485096    0.1803969 -53.38  0.001405613    2.480    0.597
        17  -9.9434    142.4359    167.6990   1.1172538887e+02   1.9336870872e+01    0.3549441    0.2637142 -83.28 0.0009157959    1.697    0.411
        18  -9.8867    121.1754    165.7349   1.1643395862e+02   2.3997192041e+01     0.702408    0.3533565  67.91   0.00199417    4.611    0.783
        19  -9.3500     24.6060    166.1444   1.3990848936e+02   3.7933112761e+01      0.20748    0.1653124 -14.79  0.001294378    1.930    0.482
        20 -10.6272    180.1014    194.0098   1.0854428233e+02   6.1395055185e+00      0.38405    0.2990637  80.24  0.001890816    1.762    0.432
        21 -10.3312    153.7307    193.9852   1.1424639128e+02   1.1325654320e+01    0.3791263    0.1903614 -47.31  0.001566927    2.108    0.526
        22 -11.7686    250.4435    233.0095   1.0218351314e+02  -1.2390987250e+01    0.1931158    0.1371187 -24.54  0.001224547    1.335    0.251
        23  -8.9919    189.7278    159.0571   9.9257026118e+01   1.1237856926e+01    0.4493613    0.2076073  35.70  0.001589836    2.637    0.621
        24  -9.1974    121.5994    158.0332   1.1478616594e+02   2.5725567372e+01    0.3124861    0.2412398 -89.71  0.000832112    1.512    0.339
        25  -9.3299     22.7208    156.8661   1.3928720365e+02   4.0266600788e+01    0.2263191    0.1704343  39.83 0.0002712928    1.547    0.354
        26  -9.1472     17.5018    159.5120   1.4080601056e+02   4.0126395883e+01    0.1883833    0.1484322  76.51 0.0006024807    1.202    0.168
        27  -9.9371     17.9153    156.1074   1.4033146120e+02   4.0876138995e+01    0.3288918    0.2150097 -82.74  0.001986427    1.274    0.215
        28 -10.4195    165.4744    188.5412   1.1063580275e+02   1.0138228451e+01      0.25011     0.230943 -28.58 0.0006994792    1.161    0.139
        29 -11.0534    133.8589    146.0163   1.0915663502e+02   2.6081329400e+01     1.255375    0.3277904 -54.73  0.002992301    5.322    0.812
        30  -9.0267      7.0525    150.6877   1.4228247867e+02   4.3011803344e+01    0.2927709    0.1317882 -43.19  0.001398125    2.887    0.654
        31  -8.5641    177.2666    149.0587   9.9683818357e+01   1.6032018046e+01     0.212856    0.1949744 -50.70  0.000306478    1.086    0.079
        32  -9.5280    143.9473    146.9255   1.0688759570e+02   2.3757148519e+01     0.365365    0.2197114 -71.96   0.00132005    2.585    0.613
        33  -9.4824     27.0169    146.5830   1.3696065270e+02   4.2268976399e+01     0.239801    0.2253399  75.80 0.0009150826    1.214    0.176
        34 -10.2632    223.5966    143.3682   8.9099636263e+01   7.2185204219e+00    0.2507645    0.2359477 -63.39 0.0004003452    1.113    0.101
        35 -10.0887    109.7024    140.2685   1.1405586288e+02   3.2204344390e+01    0.2461369    0.2168337 -85.76  0.000172927    1.170    0.145
        36 -11.4765    107.5904    136.2409   1.1372194265e+02   3.3552542783e+01     0.579853    0.3380979 -53.28 0.0005618099    1.650    0.394
        37 -10.4452    175.7868    230.9414   1.1599048437e+02   1.2499787826e-01    0.3568451    0.1910137 -37.88  0.001687225    2.219    0.549
        38  -9.6401      8.6907    138.6851   1.4054069391e+02   4.5630679499e+01     0.332018    0.1780166 -52.94   0.00188081    1.695    0.410
        39 -11.1116    117.4234    136.8034   1.1125677763e+02   3.1543848905e+01    0.5413464    0.3226566 -41.96  0.002005915    1.765    0.433
        40 -10.8252    135.6144    128.2631   1.0455422223e+02   2.9783908073e+01     0.744224    0.1870528 -50.34  0.001915435    4.367    0.771
        41 -10.5516    135.3302    122.3756   1.0316733604e+02   3.1167538816e+01    0.4564191     0.173242 -49.45  0.001492586    2.685    0.628
        42 -10.0965    151.8204    183.0627   1.1261374031e+02   1.4031960761e+01    0.3028679    0.2137687 -70.71  0.001383536    1.744    0.427
        43 -10.0083    160.6059    128.5949   9.8585618072e+01   2.4182558783e+01    0.4051365    0.3165442 -69.83  0.001867054    1.467    0.318
        44 -10.5401    121.1631    128.2540   1.0827351595e+02   3.2789698216e+01    0.3626194    0.2723967 -48.21 0.0009776071    1.301    0.232
        45 -10.9532    169.5404    196.0578   1.1118670986e+02   7.8021719878e+00    0.5485079    0.2516322 -58.35   0.00195757    3.118    0.679
        46  -9.7933    198.8569    179.0829   1.0164681978e+02   5.3467253327e+00    0.4918571    0.3285403 -84.92  0.001853902    3.239    0.691
        47  -9.2784    242.0685    124.9573   8.1859003523e+01   6.8688696595e+00    0.2086705    0.1879991 -49.73 0.0003422663    1.028    0.027
        48 -10.4103    110.2536    124.1051   1.1018625168e+02   3.5890125342e+01    0.3504697    0.2994164 -39.14  0.000584189    1.191    0.160
        49 -10.3386     47.0912    124.5930   1.2812583382e+02   4.5394926015e+01    0.2615931    0.2308575  63.23 0.0007436833    1.263    0.209
        50 -10.8366    102.8629    117.4791   1.1060456682e+02   3.8799472457e+01    0.4842482    0.2967983 -43.76  0.002148094    1.602    0.376
        51 -11.3472    101.5677    112.8402   1.0981064062e+02   4.0090068912e+01    0.5114961    0.3676947  34.00  0.002069883    1.503    0.335
        52  -9.7789    114.5780    118.2853   1.0758200840e+02   3.6381075928e+01    0.2589374    0.2405031  61.67 0.0002689854    1.116    0.104
        53  -9.5684    160.3767    248.5580   1.2172959931e+02  -1.5730795371e-01    0.2604647    0.2028582  24.31 0.0008268933    1.346    0.257
        54 -11.1830    204.4106    177.1489   1.0012031914e+02   4.6177889609e+00    0.5282446    0.4059035 -61.23  0.002040149    1.582    0.368
        55  -9.1574     36.5966    102.8742   1.2701069378e+02   5.1473483182e+01    0.1986243    0.1677704 -10.21 0.0005158021    1.356    0.262
        56  -8.6038    124.9625     95.9698   9.8853512953e+01   3.9071474422e+01    0.1827415    0.1783159 -34.74 0.0005590951    1.017    0.017
        57  -9.3652    113.2868     95.0467   1.0176052375e+02   4.1686551263e+01    0.2104299    0.1892438 -40.41 0.0007261096    1.091    0.083
        58 -11.0648    203.4629    168.6498   9.8516753666e+01   6.4541274558e+00    0.7467611    0.5828379 -34.51  0.003473023    1.272    0.214
        59  -9.0983    144.0291     81.2388   8.9863205998e+01   3.7663966359e+01    0.2455171    0.2152634 -43.73 0.0003419692    1.163    0.140
        60  -8.8009    181.3199     79.9017   8.1558500953e+01   2.8928151763e+01    0.2007893    0.1887896 -45.16 0.0003895671    1.111    0.100
        61 -10.6764    117.4763    109.3812   1.0450802757e+02   3.7785860905e+01    0.3075669     0.257468 -23.66    0.0012856    1.323    0.244
        62 -11.5754    194.9439    169.2471   1.0038293016e+02   8.0773214910e+00     0.489002    0.3858408 -40.02 0.0009325975    1.262    0.208
        63  -9.8725    237.2323     69.1834   7.0146280474e+01   1.7516179265e+01    0.2287922    0.2087499 -68.69 0.0003333084    1.097    0.089
        64 -10.6008    192.2174    164.9578   1.0002646997e+02   9.5070563576e+00    0.4450286    0.3470091  21.81  0.001479381    1.470    0.320
        65  -8.7395    160.0000    243.8800   1.2112806024e+02   6.8769429994e-01    0.1847315    0.0756314 -49.25 0.0007926055    2.875    0.652
        66 -11.6727    166.5691     35.9294   7.2256316653e+01   3.9233191013e+01    0.4187327    0.4003209  78.57 0.0008361872    1.080    0.074
        67  -8.2945    123.1619     64.8453   9.0112463185e+01   4.5263459691e+01    0.1852706    0.1598489  13.81 0.0002402119    1.231    0.187
        68 -10.5783    134.7235     41.8952   8.0155979733e+01   4.6083411402e+01    0.2436633    0.2189111  45.42 0.0002610385    1.028    0.028
        69  -9.0599    229.7689     20.4843   6.0385395659e+01   2.6047983575e+01    0.2324629    0.1601016 -45.59  0.001382724    1.429    0.300
        70  -9.4140    150.8235    241.9836   1.2266728129e+02   2.6036734678e+00    0.2961573    0.1976127 -58.82  0.001631815    1.803    0.445
