#   1 NUMBER                 Running object number                                     
#   2 MAG_AUTO               Kron-like elliptical aperture magnitude                    [mag]
#   3 X_IMAGE                Object position along x                                    [pixel]
#   4 Y_IMAGE                Object position along y                                    [pixel]
#   5 X_WORLD                Barycenter position along world x axis                     [deg]
#   6 Y_WORLD                Barycenter position along world y axis                     [deg]
#   7 A_WORLD                Profile RMS along major axis (world units)                 [deg]
#   8 B_WORLD                Profile RMS along minor axis (world units)                 [deg]
#   9 THETA_WORLD            Position angle (CCW/world-x)                               [deg]
#  10 FWHM_WORLD             FWHM assuming a gaussian core                              [deg]
#  11 ELONGATION             A_IMAGE/B_IMAGE                                           
#  12 ELLIPTICITY            1 - B_IMAGE/A_IMAGE                                       
         1 -11.0365      6.9173     37.6365   2.9194168966e+02   7.1923590359e+00   0.05644212   0.02955474  57.86  0.004692273    2.898    0.655
         2 -11.5729     45.2348     60.3444   2.9163094392e+02   6.7312387186e+00   0.08966938   0.08642998  49.84  0.008002114    1.098    0.089
         3 -12.8873     21.9608     31.3112   2.9173085279e+02   7.1828438689e+00   0.06472865   0.03570382  33.84  0.002238831    1.774    0.436
         4 -12.0194      5.8507     21.9722   2.9186277862e+02   7.3742734638e+00    0.0328563   0.02647356 -52.56  0.001818497    1.217    0.178
         5 -11.6251     50.4778      4.9417   2.9124722012e+02   7.3261952559e+00   0.05056065   0.02935497  36.48  0.004898729    1.717    0.417
         6 -10.8260     39.5398      4.2641   2.9136978218e+02   7.3925988259e+00   0.03084215   0.01853153 -40.78  0.002334372    1.721    0.419
         7 -12.5367      6.6640      5.8870   2.9175961320e+02   7.5507852067e+00   0.05921781   0.04836832  19.87  0.007053055    1.219    0.180
         8 -12.0281     25.9717     48.1889   2.9178280802e+02   6.9714483087e+00   0.04725798   0.02428589 -65.69  0.000946252    2.054    0.513
         9 -12.9674     28.2854      6.6828   2.9151408902e+02   7.4258519612e+00   0.06071484   0.04067574 -53.69  0.001467927    1.448    0.309
        10 -11.4800     19.0634     10.7072   2.9164425292e+02   7.4300983309e+00   0.04693481   0.02252643  54.45  0.002691514    3.143    0.682
        11 -11.3470     62.0396     46.2855   2.9135477668e+02   6.7990914331e+00   0.04523387   0.02803853 -55.47  0.002314194    1.561    0.360
        12 -11.1324    113.7425     32.0622   2.9067436610e+02   6.6805337126e+00   0.03983863   0.02737535  17.53  0.002557175    1.493    0.330
        13 -10.9031    105.3567     21.8197   2.9071139903e+02   6.8409240559e+00    0.0400425   0.02698551  66.51  0.002746535    1.981    0.495
        14 -11.2398    109.6015     16.0388   2.9062857507e+02   6.8830070899e+00   0.03991427     0.016182 -55.00 0.0007810977    2.286    0.563
        15  -9.8253    114.0300     15.7074   2.9057547487e+02   6.8628361125e+00   0.01567311   0.01251692 -44.58 0.0004599532    1.229    0.186
        16 -10.1942    148.4418     18.2825   2.9019311948e+02   6.6480187121e+00   0.02076711   0.01446065 -43.82  0.001550393    1.426    0.299
        17 -10.2733    144.6110     23.8996   2.9027019436e+02   6.6055999635e+00   0.01965456   0.01278226 -57.58 0.0007902635    1.506    0.336
        18 -10.6497     76.9204      6.1527   2.9094851947e+02   7.1702936493e+00   0.05910567   0.02802293 -70.79  0.005037351    2.549    0.608
        19 -11.3984     69.9546     23.4282   2.9112993013e+02   7.0135847988e+00   0.04797733   0.02573967  12.31  0.003623388    2.192    0.544
        20 -10.9098     66.4611     18.2229   2.9113993011e+02   7.0909130467e+00   0.02929585   0.02269618  48.30  0.001925862    1.398    0.285
        21 -11.0196     85.3676     19.7786   2.9093046431e+02   6.9716217199e+00   0.04366693    0.0245372 -66.64  0.004241496    1.895    0.472
        22 -10.1515     82.2232     16.5858   2.9094816019e+02   7.0244547434e+00   0.01958426    0.0158916   1.30  0.000957018    1.288    0.223
        23  -9.4327    129.5469     17.7734   2.9040831863e+02   6.7558429217e+00   0.02523511   0.01361633 -33.12  0.002283473    2.236    0.553
        24  -9.4142    189.4760     15.4790   2.8970320038e+02   6.4574462425e+00   0.01564233   0.01292677  -7.75  0.001054884    1.271    0.213
        25 -10.1258    187.3233     12.6774   2.8971163141e+02   6.5005773659e+00   0.02136741   0.01508493 -83.51  0.002213415    1.735    0.424
        26 -10.6326    172.2485     13.9558   2.8989303310e+02   6.5678467130e+00   0.01667286   0.01454248 -58.73 0.0006419921    1.154    0.133
        27 -11.1507    176.6738      7.6373   2.8980498902e+02   6.6148653272e+00   0.01663487   0.01514677 -66.03 0.0005546525    1.137    0.121
        28  -9.8507    140.5611     14.2817   2.9026070830e+02   6.7355752231e+00   0.02193674    0.0104847  41.68  0.001961099    2.210    0.547
        29  -9.9592    154.8739     10.6171   2.9007402429e+02   6.6993685711e+00   0.02651125   0.01712865  70.16  0.002553435    2.215    0.549
        30  -9.3934    133.0531     10.7822   2.9032694465e+02   6.8154698144e+00   0.01874226   0.01297424  72.57  0.001914271    1.946    0.486
        31 -10.1220    202.2871      7.4160   2.8950824646e+02   6.4785783138e+00   0.02719847   0.01593903 -41.55  0.002151538    1.762    0.433
        32  -8.6172     69.3575      9.5338   2.9105570783e+02   7.1730084975e+00   0.01059902  0.006031358 -60.92 0.0005752202    1.745    0.427
        33  -8.8700    224.6728      4.7791   2.8923474194e+02   6.3867679746e+00   0.01667692   0.01057706 -59.59  0.001236271    1.560    0.359
        34  -9.3894     82.6292      3.4159   2.9086653090e+02   7.1703026190e+00   0.02284988   0.01278184 -62.75  0.002237662    1.809    0.447
        35  -9.4194    244.9384      3.4129   2.8899325161e+02   6.2920840202e+00   0.01809161   0.01475019 -16.31   0.00212489    1.296    0.228
        36  -8.4412    240.0143      2.0470   2.8904196705e+02   6.3341549552e+00   0.01175366  0.008587091  33.12 0.0005790968    1.362    0.266
        37  -9.5943    182.8074      3.1245   2.8970780024e+02   6.6323325148e+00   0.01743194   0.01299033 -43.66  0.001971977    1.327    0.246
        38  -8.3287    155.6820      2.3192   2.9001613866e+02   6.7882150980e+00    0.0104606  0.006658035 -66.33  0.001071279    1.650    0.394
        39  -9.6036    158.9300      2.6854   2.8998078688e+02   6.7665295615e+00   0.01629542   0.01446127 -14.43  0.001774634    1.136    0.120
        40  -7.9545    139.5457      1.5083   2.9019771318e+02   6.8845807146e+00  0.006348488  0.006279027  25.38 0.0002521768    1.055    0.052
        41 -10.6073    232.0303    205.5131   2.9032272064e+02   4.0900206918e+00   0.01672294   0.01311846 -51.83 0.0003513216    1.247    0.198
        42  -9.0022    215.3129    249.2979   2.9076983928e+02   3.6875673555e+00   0.01255975  0.009167532 -50.48 0.0008225144    1.334    0.251
        43  -9.9167    198.2708    248.2435   2.9095973860e+02   3.7913686439e+00   0.01580038   0.01295614 -56.28  0.001387095    1.208    0.173
        44  -8.8612     99.9642    214.5527   2.9189599891e+02   4.7003280890e+00   0.01660256   0.00877495  37.64  0.001580799    1.893    0.472
        45  -9.9378     79.5004    212.5700   2.9212033770e+02   4.8326880580e+00   0.01335179   0.01147414 -49.94 0.0005965594    1.142    0.124
        46  -9.2909    250.1654    214.3976   2.9016591461e+02   3.8920653748e+00   0.01583679    0.0107663 -69.52   0.00137196    1.585    0.369
        47  -7.7226    140.4480    213.5105   2.9142351767e+02   4.4941377186e+00  0.006430774  0.006205691 -21.50 0.0001063462    1.005    0.005
        48 -10.3614      6.4721    208.5222   2.9293880295e+02   5.2700809804e+00    0.0166585   0.01427516 -22.13 0.0009444749    1.188    0.158
        49 -11.9087     11.0137    206.9730   2.9287747075e+02   5.2632170170e+00   0.04110111    0.0349327  14.86   0.00331896    1.177    0.150
        50  -9.7165    122.1097    209.6348   2.9161226758e+02   4.6365523243e+00   0.01716078   0.01093767  23.39  0.001748132    1.566    0.362
        51 -10.2979    124.0002    206.0063   2.9156940714e+02   4.6672431177e+00  0.009130226     0.008802 -19.56  0.001163612    1.002    0.002
        52  -8.3858    243.0273    204.4719   2.9019016881e+02   4.0423103780e+00   0.01161744   0.00822134  57.28 0.0007671989    1.687    0.407
        53 -10.5069    210.0351    203.0127   2.9056122703e+02   4.2369705513e+00   0.01985973   0.01128367 -39.33  0.001388121    1.878    0.468
        54 -10.6378    203.0374    214.0821   2.9070619741e+02   4.1501625746e+00   0.02217117   0.01711516  11.90  0.001410209    1.334    0.250
        55  -9.3963     45.4962    202.6065   2.9245457828e+02   5.1275584770e+00   0.02834168   0.01041559 -37.65  0.001907762    3.982    0.749
        56  -8.5104     26.2592    203.6484   2.9268243087e+02   5.2189927329e+00    0.0104283   0.00893514 -46.87 0.0005637163    1.142    0.125
        57  -8.4494    247.3820    201.5357   2.9012297875e+02   4.0518066216e+00    0.0119383  0.007495527 -58.00  0.000634946    1.559    0.358
        58  -7.9827    164.0042    201.7417   2.9108377588e+02   4.4996943566e+00  0.008812816  0.008436142   6.57 0.0004209964    1.032    0.031
        59  -9.0375    113.8665    200.9691   2.9165692080e+02   4.7785378674e+00   0.01025077  0.009065751  14.93  0.000289726    1.124    0.110
        60  -9.2317     60.9645    200.2780   2.9226272908e+02   5.0707603126e+00   0.01116242  0.008924268 -48.79  0.000322887    1.222    0.182
        61  -8.5832    138.9824    199.0390   2.9135629332e+02   4.6650125492e+00  0.008990146  0.008845722 -16.87            0    1.031    0.030
        62  -9.1214    132.9933    198.9770   2.9142493818e+02   4.6979777722e+00  0.009114007  0.008725263 -22.19  0.001157309    1.011    0.011
        63  -8.4638     95.0023    198.3646   2.9185922021e+02   4.9093807426e+00   0.01129269  0.008422637 -41.93 0.0007795243    1.333    0.250
        64  -9.9027    175.3876    193.5861   2.9090522511e+02   4.5301135987e+00   0.02919779   0.01601854 -74.63  0.002667684    2.260    0.558
        65  -8.8663    100.5710    196.9477   2.9178680305e+02   4.8953863711e+00   0.01106995  0.008712503  -6.33  0.000405697    1.370    0.270
        66 -10.0576     12.6032    194.9985   2.9278982627e+02   5.3896495939e+00   0.01497344   0.01360635 -88.32  0.000922762    1.208    0.172
        67  -8.2766     36.8230    193.8140   2.9250363661e+02   5.2731671519e+00   0.01019408  0.008190899 -28.43 0.0007190434    1.284    0.221
        68  -9.1813    226.8442    193.2432   2.9031089974e+02   4.2561091278e+00  0.009703642  0.008708303  49.93 0.0005771632    1.189    0.159
        69  -9.8661     22.0527    188.5809   2.9264366769e+02   5.4113352771e+00   0.02661038   0.01443718 -16.38  0.002202963    2.854    0.650
        70  -8.8953    230.7312    190.4275   2.9024977102e+02   4.2667858747e+00   0.01102375   0.00616487  24.46 0.0004954415    1.781    0.438
        71  -8.1442    116.0581    189.7394   2.9156641625e+02   4.8932284536e+00  0.008839675  0.008377755 -13.99 0.0004552429    1.028    0.027
        72  -7.8420    138.9921    189.2763   2.9129941877e+02   4.7749065444e+00  0.008113666  0.005649914  23.58   0.00036028    1.429    0.300
        73  -9.1336    222.9984    188.0186   2.9032470827e+02   4.3356835565e+00  0.009187834  0.008841701 -23.86  0.001170125    1.008    0.008
        74 -11.9642    188.7166    204.3255   2.9081425185e+02   4.3372833308e+00   0.02591421   0.01831892 -25.88 0.0008570153    1.569    0.363
        75 -10.9952    205.8698    183.0165   2.9049270354e+02   4.4845218064e+00   0.02191318    0.0168265  68.97 0.0003550814    1.592    0.372
        76 -10.8085    208.4385    178.3848   2.9043614678e+02   4.5227720341e+00   0.01530413   0.01293055 -30.76 0.0002327912    1.190    0.160
        77 -10.0303     61.6093    184.9898   2.9216661090e+02   5.2395525577e+00   0.01513985   0.01170791 -26.93 0.0007153482    1.364    0.267
        78  -7.5158     89.7368    185.2906   2.9184400655e+02   5.0849841421e+00  0.006281126  0.004934522  63.32 0.0001613743    1.498    0.333
        79  -8.8292    189.8856    184.1742   2.9068347691e+02   4.5578158571e+00   0.01196924   0.00887136  12.05 0.0009251506    1.405    0.288
        80 -12.1553    198.6040    196.0617   2.9065232417e+02   4.3769326938e+00   0.02875019   0.01865204   9.09 0.0006549317    1.721    0.419
        81  -9.5306     75.3194    182.2110   2.9199237162e+02   5.1971956701e+00     0.014249   0.01096974   9.64  0.000570991    1.351    0.260
        82  -8.6741    185.4175    178.6205   2.9070258596e+02   4.6444556813e+00   0.01082815  0.009597799  29.93  0.001327329    1.134    0.118
        83 -11.8608    236.0655    170.7096   2.9007344632e+02   4.4597993454e+00   0.03770208   0.01908811 -28.15  0.002676442    2.819    0.645
        84  -9.4378    217.8395    177.1018   2.9032045761e+02   4.4864098581e+00   0.02572029  0.007444133  28.61  0.001881387    3.158    0.683
        85  -9.7986    193.5520    175.3976   2.9059013662e+02   4.6368090639e+00    0.0195478   0.01217097 -64.09  0.002010424    1.646    0.393
        86  -9.6058    245.5690    174.5753   2.8998665602e+02   4.3649112277e+00   0.01729201   0.01091127 -45.42  0.001479908    1.569    0.363
        87  -9.0575    101.0164    175.9989   2.9165996830e+02   5.1289680766e+00  0.009032713  0.008673011 -19.03            0    1.006    0.006
        88  -8.2633     43.4907    175.4818   2.9232043576e+02   5.4439590691e+00  0.006396099  0.006263587  -8.19 2.259463e-06    1.025    0.024
        89  -9.4052    212.2957    171.5963   2.9035218045e+02   4.5783268742e+00   0.01144366   0.01024528 -21.22 0.0003890939    1.115    0.103
        90 -10.2185     12.1922    169.7060   2.9264805119e+02   5.6768681409e+00   0.02298517  0.009889015 -52.82  0.002015728    2.172    0.540
        91  -8.7405     44.6439    170.8777   2.9228042088e+02   5.4896456725e+00   0.01308264  0.008474559 -11.10  0.001290551    1.928    0.481
        92  -9.2262    248.9421    168.4923   2.8991237436e+02   4.4150925150e+00   0.01306168  0.009919863 -63.79 0.0007980327    1.345    0.256
        93  -8.1897    218.9868    165.7388   2.9024100936e+02   4.6080739718e+00    0.0092978  0.008129204  19.22 0.0005055344    1.136    0.120
        94  -9.2588    152.6913    165.8089   2.9100500431e+02   4.9653028118e+00   0.01215472  0.009378552 -66.31  0.001385379    1.344    0.256
        95  -9.8355    157.2177    164.9404   2.9094778519e+02   4.9506635322e+00   0.01447787  0.009823417 -26.31  0.001509142    1.669    0.401
        96  -7.9048    215.4497    164.9801   2.9027730219e+02   4.6357313295e+00  0.009315876  0.006258914 -59.50 0.0003185108    1.474    0.322
        97  -9.2598     24.1735    163.1274   2.9247165488e+02   5.6867807958e+00   0.01720949   0.01124898  -5.00  0.001077357    1.872    0.466
        98  -9.3460    239.6157    159.2961   2.8996602323e+02   4.5689970984e+00   0.01845863   0.01039942  31.12  0.001218649    1.729    0.422
        99  -9.6761    165.9891    156.9408   2.9080011654e+02   4.9933921108e+00   0.01268933  0.009635296   9.14 0.0004138314    1.380    0.275
       100 -10.1362      5.3099    156.9701   2.9265365424e+02   5.8572412054e+00   0.02333421   0.01273846  39.57  0.002256109    1.873    0.466
       101  -8.4664    183.9235    152.9757   2.9057037638e+02   4.9411874815e+00  0.009539469   0.00942724   5.26 0.0004131655    1.043    0.041
       102  -8.0173    108.8691    151.8470   2.9142897280e+02   5.3587196327e+00  0.009867181  0.008196451 -25.31 0.0004325846    1.235    0.191
       103  -8.2620    246.8089    151.1317   2.8983561830e+02   4.6219126158e+00  0.009989752  0.008505648  61.65 0.0007621873    1.322    0.244
       104  -8.6880    238.9521    150.4919   2.8992228769e+02   4.6716264081e+00   0.01200961  0.009850841  16.43   0.00141671    1.223    0.182
       105  -9.4247    236.5582    146.9164   2.8992897128e+02   4.7248009793e+00   0.01577084   0.01405083  31.79 0.0005720077    1.133    0.118
       106  -8.3025    138.0717    151.5111   2.9109027361e+02   5.2051354122e+00  0.009635394  0.006348017  22.26 0.0004841175    1.522    0.343
       107  -8.8471     84.3474    151.1183   2.9170759781e+02   5.4989087793e+00  0.009938345  0.008549862  -7.35 0.0003916806    1.193    0.161
       108  -9.9947     15.3397    148.0871   2.9248636926e+02   5.9035924431e+00    0.0129087  0.009774986 -31.41  0.001347358    1.376    0.273
       109  -9.3141    179.2814    144.5360   2.9057466173e+02   5.0612527976e+00   0.01395403  0.008422617 -82.14  0.001302804    2.224    0.550
       110  -8.0347    121.2464    145.4144   2.9124879046e+02   5.3644817341e+00  0.008926976  0.005842073  35.62  0.000652828    1.525    0.344
       111  -9.2782     27.2934    143.6163   2.9232243886e+02   5.8898745091e+00   0.01609508   0.01043258  -3.04  0.001606091    1.884    0.469
       112  -9.1390    249.4814    142.4654   2.8975428311e+02   4.7049188471e+00   0.01350326  0.006352934 -62.36  0.001201852    2.136    0.532
       113  -9.6919    189.1246    142.3681   2.9044861522e+02   5.0324743096e+00   0.01639493   0.01187325 -22.63  0.000709369    1.536    0.349
       114  -9.3154      4.9144    142.0861   2.9257191062e+02   6.0270581613e+00   0.01027603   0.00984104 -16.59  0.000315199    1.011    0.010
       115  -9.6343     10.8048    139.3841   2.9248822964e+02   6.0259434000e+00   0.01182783   0.01113434 -37.08 0.0004089522    1.038    0.036
       116  -8.9164     32.7267    138.1539   2.9222800346e+02   5.9222664993e+00   0.01153248   0.00860022  37.98  0.001295597    1.364    0.267
       117  -8.6306     17.4696    138.4895   2.9240609050e+02   6.0003042200e+00  0.006450261  0.006199531 -20.08 0.0008098094    1.005    0.005
       118 -11.6520    245.5769    130.4610   2.8972912023e+02   4.8610657404e+00   0.02498668   0.02286165 -31.93 0.0007932576    1.071    0.066
       119  -9.5854    248.9959    124.8136   2.8965679369e+02   4.9060591185e+00   0.01359092   0.01174611 -24.41 0.0005641482    1.170    0.145
       120  -9.3115     41.3756    132.3890   2.9209467146e+02   5.9407919721e+00   0.01466908   0.01029771 -37.23 0.0005649776    1.468    0.319
       121  -8.0643    163.5655    134.7756   2.9069888046e+02   5.2559840630e+00  0.009232151  0.006390043 -79.40 0.0005252721    1.718    0.418
       122  -9.7707     32.9621    133.2458   2.9219678214e+02   5.9762924846e+00   0.02282606   0.01366144   5.49  0.002189585    2.024    0.506
       123 -10.0085      5.1004    128.8123   2.9249274932e+02   6.1756000142e+00   0.02428895   0.01424959  57.41 0.0007802715    2.282    0.562
       124 -10.1995     12.0157    127.8357   2.9240722469e+02   6.1495509275e+00   0.01658032   0.01535902 -25.23  0.000996168    1.057    0.054
       125 -10.1171    238.5975    118.2659   2.8973822448e+02   5.0360040337e+00   0.02015362  0.009582018 -45.17  0.001384776    2.129    0.530
       126  -9.9910    238.8018    114.1704   2.8971194911e+02   5.0809527024e+00   0.01797066  0.009735324  35.29  0.001190357    1.816    0.449
       127 -10.6553    236.3429    125.7050   2.8980762209e+02   4.9645488850e+00   0.02540902   0.01394031 -58.42  0.002047969    1.771    0.435
       128  -8.1615     79.0799    132.3341   2.9165914132e+02   5.7388076928e+00   0.00897803  0.007833316  16.79 0.0004194004    1.140    0.122
       129  -8.2136    228.9843    129.5396   2.8991471977e+02   4.9612514143e+00   0.00978627   0.00629349  24.27 0.0006001024    1.547    0.353
       130  -8.8038    114.0828    127.8785   2.9122931826e+02   5.6005383321e+00  0.009961431  0.009140089 -20.83 0.0006916506    1.075    0.070
       131  -8.5979     28.1763    128.5956   2.9222502932e+02   6.0543490318e+00  0.008977183   0.00616162   5.99 0.0004457576    1.619    0.382
       132 -10.3783    222.7817    124.2133   2.8995503654e+02   5.0547306902e+00   0.01427151   0.01326516 -50.47 0.0005012543    1.071    0.066
       133 -10.1919    189.9959    123.7108   2.9032974659e+02   5.2377166618e+00   0.01741211   0.01294506 -50.33  0.001154816    1.311    0.237
       134  -8.5481    102.1529    125.3931   2.9135248983e+02   5.6927887007e+00   0.01034109  0.008369341 -45.01 0.0004250604    1.211    0.174
       135  -8.6813     30.2831    125.5352   2.9218292548e+02   6.0775195704e+00   0.01630604   0.00902269  67.96   0.00130548    3.195    0.687
       136  -8.1260     36.6676    122.2988   2.9209040009e+02   6.0797143025e+00   0.00672093  0.004844206  57.71 0.0002511696    1.647    0.393
       137  -8.0562    133.2487    121.6225   2.9097178683e+02   5.5676467440e+00  0.008824889  0.006122516   7.93 0.0002993739    1.575    0.365
       138  -9.7892    187.9486    117.8941   2.9031939623e+02   5.3142321596e+00   0.02415037   0.01403493  -9.83   0.00129275    2.443    0.591
       139  -8.1791     55.9864    118.4950   2.9184522396e+02   6.0188152660e+00  0.009642372  0.004607267  46.91 0.0008098436    2.483    0.597
       140  -8.6296     29.9180    118.0312   2.9214354334e+02   6.1639983008e+00  0.009651614  0.009057355 -26.73 0.0003458519    1.037    0.036
       141 -11.1831     17.6569    113.6685   2.9225980336e+02   6.2788920595e+00   0.03677967   0.02499915 -21.40  0.003842362    1.712    0.416
       142 -10.2152      2.3474    114.4012   2.9244089296e+02   6.3526765644e+00   0.02452029   0.01370431 -48.81  0.001230147    1.736    0.424
       143  -8.7850      1.9728    108.7606   2.9241246816e+02   6.4182125606e+00    0.0101379  0.009830092 -35.67 0.0008160343    1.028    0.027
       144 -10.7321    246.3543    110.0645   2.8960103039e+02   5.0862129469e+00   0.02700436   0.01743556  39.54  0.002398094    1.584    0.369
       145 -10.3451    239.6208    109.6719   2.8967624153e+02   5.1271016114e+00   0.01671356   0.01167571  34.97 0.0009678297    1.430    0.301
       146  -8.8555    158.8683    107.9317   2.9059649091e+02   5.5834662895e+00   0.01046887  0.008264165 -28.89 0.0005360279    1.314    0.239
       147  -7.7991    129.9885    106.9804   2.9092404906e+02   5.7500494948e+00  0.007320974  0.006989762 -37.19            0    1.030    0.029
       148  -9.8114    228.7476    114.6808   2.8983067964e+02   5.1296539841e+00   0.02670762   0.01050958  37.30 0.0009264793    2.487    0.598
       149  -8.1843    250.4760    104.5002   2.8952107811e+02   5.1264395444e+00  0.006399632  0.006259216 -11.49 0.0004279342    1.022    0.021
       150  -7.7699    227.0392    104.0376   2.8978817852e+02   5.2585972975e+00  0.007683774  0.007206057   7.51 0.0003234936    1.052    0.049
       151  -9.8116      8.2845    102.4169   2.9230270277e+02   6.4558439302e+00    0.0201089   0.01295797  26.32  0.002123408    1.532    0.347
       152  -9.0678    234.3609    101.9456   2.8969165098e+02   5.2424684622e+00   0.01543112  0.009001818  30.33  0.001549622    1.673    0.402
       153 -10.1803    208.9852    101.1601   2.8997931253e+02   5.3886929379e+00   0.02607255   0.01518751   0.36  0.001651824    2.273    0.560
       154  -9.1969    211.5396     96.5170   2.8992276333e+02   5.4270864290e+00  0.009706917   0.00759024  58.33 0.0001318456    1.471    0.320
       155  -8.5484     67.8278     98.7165   2.9159340659e+02   6.1778778286e+00     0.013416  0.009167831 -77.55  0.001256468    1.715    0.417
       156 -11.7270    239.7711     75.4224   2.8947431063e+02   5.5113219915e+00    0.0408851   0.02700944  12.30  0.003988713    1.634    0.388
       157 -10.5012    247.6651     94.1703   2.8949305089e+02   5.2578002838e+00   0.02644435    0.0168178  18.89  0.001828715    1.620    0.383
       158 -10.5873    246.6079     89.6712   2.8947891717e+02   5.3141051231e+00     0.022954   0.01900496  42.77 0.0009328102    1.260    0.206
       159 -10.9953    244.8878     69.8078   2.8938255873e+02   5.5466807695e+00   0.02076784   0.01668464 -86.51  0.001381907    1.446    0.308
       160  -8.7381     61.8071     95.6157   2.9164488528e+02   6.2451599096e+00    0.0111566   0.00834125 -43.90 0.0005544664    1.319    0.242
       161  -8.1276    227.8509     95.1366   2.8972682207e+02   5.3542895860e+00  0.008965844  0.007304707 -20.06 0.0004211467    1.288    0.224
       162  -8.0186     78.6568     94.6532   2.9144469762e+02   6.1653708929e+00   0.01224783  0.008409314 -33.86 0.0006617364    1.549    0.354
       163  -9.3694     78.5142     91.0161   2.9142515770e+02   6.2070820398e+00   0.01231781   0.01032289 -28.84 0.0003594387    1.209    0.173
       164  -8.1711     73.5261     95.0008   2.9150596896e+02   6.1890615851e+00   0.01224541  0.006644834 -69.68  0.001133242    2.073    0.518
       165  -8.3230     72.0999     90.8710   2.9149838712e+02   6.2432253785e+00   0.01251238  0.009466729 -58.43  0.001420787    1.311    0.237
       166  -8.5511    171.2147     94.3265   2.9037472884e+02   5.6698439240e+00  0.009994753  0.007901252  -4.14  0.001139299    1.357    0.263
       167  -8.3861    145.4915     93.4916   2.9066652592e+02   5.8181918196e+00  0.006440314  0.006227776 -16.38 0.0005335121    1.005    0.004
       168  -9.2366     66.2442     91.9557   2.9157233082e+02   6.2625077641e+00   0.01796509   0.01329684  18.63  0.002020886    1.364    0.267
       169  -8.3009     41.0137     93.2611   2.9187135907e+02   6.3833864002e+00  0.009031501  0.008046553  19.63 0.0002975416    1.115    0.103
       170 -10.5368      5.8175     89.2342   2.9225460135e+02   6.6175093495e+00   0.02378248   0.01512274 -14.59  0.002331142    1.989    0.497
       171  -8.0887    128.1347     90.8731   2.9085150958e+02   5.9413304534e+00  0.008287722    0.0069321 -28.41 0.0009750298    1.214    0.176
       172  -7.8527     50.9765     91.0207   2.9174323484e+02   6.3550994728e+00  0.007578581   0.00727938 -32.29 0.0003387356    1.020    0.020
       173  -8.0221     37.9944     91.0305   2.9189326206e+02   6.4247114582e+00  0.007681649   0.00738589  -8.32 0.0003888452    1.013    0.013
       174 -10.1061     15.4619     90.6406   2.9215133182e+02   6.5499858370e+00   0.01394868   0.01079726 -20.88 0.0005065312    1.389    0.280
       175  -8.0080    229.5273     87.5125   2.8966295754e+02   5.4309284264e+00  0.006401218  0.006253831 -12.23 3.050877e-05    1.020    0.020
       176 -10.3813    249.4924     74.4555   2.8935673602e+02   5.4694812735e+00    0.0249089   0.01723819 -65.06  0.001686404    1.492    0.330
       177  -9.1491    222.6796     83.1005   2.8971603456e+02   5.5176262316e+00   0.01251458   0.01102107 -78.12    0.0010689    1.230    0.187
       178 -11.0949      2.4283     84.0132   2.9226342134e+02   6.6944525642e+00   0.03385936   0.02379148 -83.75  0.003266628    1.746    0.427
       179  -9.6531     65.3517     79.1213   2.9150789038e+02   6.4117815223e+00   0.01948201   0.01507817 -81.40  0.001213072    1.485    0.327
       180  -8.3859    181.2384    249.1259   2.9116083548e+02   3.8732769749e+00  0.009606685   0.00843861 -30.75 0.0004760224    1.130    0.115
       181 -10.5703     38.6447     45.2798   2.9161934107e+02   6.9361451437e+00   0.02530861   0.02279597  84.07  0.002005053    1.240    0.193
       182  -8.4578    108.1684    248.3880   2.9199775053e+02   4.2750572857e+00   0.01068066  0.008402026 -44.11 0.0004816953    1.250    0.200
       183  -9.0216    160.4814    243.5438   2.9136730392e+02   4.0479956482e+00   0.01107287   0.01061295 -23.99 0.0005397123    1.011    0.011
       184  -8.5091     51.3857    243.7666   2.9262506981e+02   4.6321622697e+00  0.009498212  0.005634132 -51.03 0.0009231161    1.626    0.385
       185  -7.9777      6.8074    244.2359   2.9314141403e+02   4.8658044311e+00  0.009303551  0.007160314 -30.28 0.0005725151    1.354    0.261
       186 -14.1461    231.9485    236.1039   2.9050177187e+02   3.7462488024e+00   0.04012044   0.02458185  -7.32   0.00295064    2.152    0.535
       187  -9.1623    212.7840    241.5830   2.9075405941e+02   3.7880355643e+00    0.0131817   0.01013379 -43.96  0.001093483    1.281    0.219
       188 -11.7979    210.0955    229.8647   2.9071682168e+02   3.9344273730e+00   0.04526274   0.03509935 -41.68  0.003063187    1.278    0.217
       189 -10.3831     18.6232     46.1885   2.9185612358e+02   7.0333791841e+00   0.01629019   0.01551943 -20.44 0.0005534459    1.016    0.016
       190 -10.9068     31.1259     44.2250   2.9170012195e+02   6.9883824291e+00   0.01690371   0.01483708 -43.97 0.0009486537    1.115    0.103
       191  -9.2827    116.1059    239.5517   2.9185508929e+02   4.3318899064e+00   0.01175585  0.009785587 -47.58  0.000315546    1.176    0.149
       192 -10.4170    132.5140    225.7007   2.9158571476e+02   4.3995800781e+00   0.01932383   0.01355007 -19.70 0.0007268543    1.639    0.390
       193  -8.3914    103.1513     79.8589   2.9107564982e+02   6.1999885581e+00  0.009406135  0.008753275  76.61 0.0004049008    1.181    0.153
       194  -8.1397    117.5008     78.0727   2.9089957302e+02   6.1427309737e+00  0.009990062  0.008267234  18.71 0.0004962939    1.205    0.170
       195 -10.3148    201.0641     65.1921   2.8986040674e+02   5.8360229877e+00   0.02572423   0.01348778  38.03  0.002352531    1.914    0.478
       196 -10.7242    190.6367     72.2144   2.9002165189e+02   5.8135110011e+00   0.03215809   0.01427629  35.94  0.001200804    2.191    0.544
       197  -9.2698    199.2454     71.3834   2.8991756144e+02   5.7762620606e+00   0.01430579  0.009091617  17.41 0.0008060601    1.641    0.391
       198  -9.5634    195.3406     69.4306   2.8995115684e+02   5.8193542836e+00   0.01591048   0.01157332   4.31 0.0008856934    1.502    0.334
       199 -11.0195    244.1623     82.0550   2.8946253869e+02   5.4129700380e+00   0.03588482   0.02328772  15.16  0.003746547    1.632    0.387
       200  -7.8232    174.5343     72.4370   2.9020861461e+02   5.8981156206e+00  0.006372298   0.00622885   0.12 0.0001049956    1.028    0.027
       201  -8.9267    120.5744     70.7029   2.9082109223e+02   6.2090740790e+00   0.01235765   0.00576796 -56.18 0.0007552296    2.026    0.506
       202  -7.7803    101.3353     71.6798   2.9104891902e+02   6.3018134997e+00  0.006821636  0.004851521  59.30 0.0007049639    1.704    0.413
       203  -9.6970    224.5126     67.9294   2.8960621899e+02   5.6782395227e+00   0.02220959   0.01302696 -67.99  0.001791536    1.843    0.457
       204  -8.4200    229.2977     68.3388   2.8955349605e+02   5.6477064297e+00  0.006953206  0.004661417 -29.78 0.0007032983    1.659    0.397
       205  -8.9662     13.1036     97.2024   2.9221672297e+02   6.4887397403e+00   0.01004535  0.008368805 -25.57 0.0004671444    1.228    0.186
       206  -8.7002    147.6572     67.1159   2.9048757648e+02   6.1032296569e+00   0.01244647  0.009341686   7.07 0.0005926597    1.415    0.293
       207  -9.7185    126.3432     66.6715   2.9073096941e+02   6.2233034532e+00   0.01605923   0.01230671  18.49 0.0008815454    1.312    0.238
       208  -9.5847     96.4678     66.0001   2.9107200030e+02   6.3919491530e+00   0.01877186   0.01270809  32.92  0.002030365    1.462    0.316
       209  -9.0008     82.5599     66.9590   2.9123822900e+02   6.4560660842e+00    0.0132862  0.009253347  16.70 0.0007697045    1.477    0.323
       210  -7.9193     76.7374     66.4002   2.9130222931e+02   6.4936959383e+00  0.008773032  0.006190052   8.41 0.0007020097    1.531    0.347
       211  -8.7083    120.3037     64.2888   2.9078678293e+02   6.2826940132e+00   0.01265442  0.008968252 -36.77 0.0006789405    1.456    0.313
       212  -8.5194     38.0500     64.8694   2.9174033792e+02   6.7189038933e+00  0.009573287  0.009195818 -13.30 0.0004194093    1.008    0.008
       213  -8.6426    107.6683     96.0032   2.9111762780e+02   5.9939464662e+00   0.01170231  0.008457511 -16.68 0.0008801728    1.571    0.364
       214  -9.2141     96.2059     50.3683   2.9098382061e+02   6.5692212066e+00   0.01971103  0.009592726 -44.80 0.0005689802    2.086    0.521
       215  -9.1511     87.0569     41.1538   2.9103573929e+02   6.7221582213e+00   0.01763892   0.01134714 -51.11  0.001018397    1.505    0.335
       216 -11.0137     76.4593     54.5337   2.9123624936e+02   6.6287116624e+00   0.03876294   0.03290853 -64.64  0.003836963    1.210    0.174
       217  -9.3235     90.0723     51.9135   2.9106369133e+02   6.5848859321e+00   0.01919239    0.0115762 -27.91  0.001038231    1.997    0.499
       218  -9.5919     82.9446     55.4882   2.9116688913e+02   6.5830600338e+00   0.01677694   0.01409464 -23.26  0.001116244    1.220    0.180
       219 -11.1640     86.1130     49.3806   2.9109465357e+02   6.6347054542e+00   0.03558871   0.02417749 -27.22  0.002178715    1.654    0.395
       220 -10.5332    226.0000     57.9919   2.8953096165e+02   5.7818651428e+00   0.01930196   0.01051772 -52.30  0.001346817    1.757    0.431
       221 -10.5676    225.6907     53.8973   2.8951057026e+02   5.8295551192e+00    0.0189679   0.01625631 -14.30  0.002294504    1.200    0.167
       222  -9.5680    208.3113     58.6773   2.8973878548e+02   5.8700091741e+00   0.02242249   0.01752938  75.58   0.00252512    1.567    0.362
       223  -9.4377    208.3650     53.0120   2.8970503307e+02   5.9333940298e+00   0.01610814  0.009608221 -62.82  0.001622064    1.699    0.411
       224  -8.6126    128.7113     60.1463   2.9066553940e+02   6.2839240077e+00   0.01205551  0.009292193  10.10 0.0006182657    1.346    0.257
       225 -10.1174    248.8029     56.4779   2.8925949408e+02   5.6752242413e+00   0.01332051   0.01133968  -8.84 0.0004356377    1.215    0.177
       226  -8.9840    237.5028     57.4928   2.8939555120e+02   5.7251105273e+00  0.006409986  0.006252424 -11.64 -0.000135703    1.018    0.017
       227  -7.8021    182.0659     57.0102   2.9003160662e+02   6.0308411265e+00  0.007725498  0.007354809   1.32 0.0003684997    1.031    0.030
       228  -8.6469    164.4796     56.5450   2.9023173081e+02   6.1311967317e+00  0.006484314  0.006152017 -19.03 0.0001074731    1.024    0.024
       229  -9.1118     55.9010     53.6696   2.9146877432e+02   6.7490246995e+00   0.02568049  0.008428669 -57.53  0.002001264    2.763    0.638
       230 -10.6651    125.8782    235.8743   2.9172120246e+02   4.3207206666e+00   0.02206947   0.01532597 -33.05   0.00120175    1.535    0.349
       231 -10.2880    124.2838     54.1477   2.9068162753e+02   6.3752898681e+00   0.01535304   0.01382322  -7.23 0.0006715833    1.112    0.101
       232  -9.0258    100.4487     53.2795   2.9095180361e+02   6.5136078389e+00   0.01137258   0.01081556  65.20  0.000529623    1.136    0.120
       233  -8.2465    141.5829     53.2651   2.9047677596e+02   6.2918181102e+00   0.00950722  0.005651275 -49.73 0.0007736905    1.629    0.386
       234 -10.4900     20.3943     40.2910   2.9180129114e+02   7.0902317051e+00   0.01732431   0.01417588  10.95 0.0005898317    1.241    0.194
       235 -10.0654    248.2012     50.3474   2.8923054417e+02   5.7473591699e+00   0.02259672   0.01526721  -8.35  0.002326027    1.786    0.440
       236  -9.1016    135.8791     50.3610   2.9052564982e+02   6.3552822474e+00   0.01287214  0.009314203 -40.09 0.0003760981    1.392    0.282
       237  -9.0366    172.0112     49.9957   2.9010656766e+02   6.1640999662e+00  0.009036875   0.00875169 -16.92            0    1.007    0.007
       238  -9.4956     69.3900     48.7095   2.9128396706e+02   6.7322809517e+00   0.01911529   0.01388485  60.70  0.001485971    1.667    0.400
       239  -9.3991    129.0317     46.4941   2.9058211136e+02   6.4357379301e+00    0.0114707  0.009285958 -57.73  0.000362299    1.229    0.186
       240  -8.2090    208.8038     44.5826   2.8965066454e+02   6.0257480734e+00  0.009531984  0.005610227  37.68 0.0009441286    1.708    0.414
       241  -8.8594    142.9965     42.7617   2.9039909172e+02   6.4022881231e+00   0.01243514  0.009211815  -2.73  0.001365965    1.500    0.333
       242  -7.3491    180.7054     42.7236   2.8996376423e+02   6.1988041894e+00  0.006586446  0.004746764 -25.53 0.0002347101    1.527    0.345
       243  -9.2320    244.4236     40.5796   2.8921686605e+02   5.8775769669e+00   0.01241078   0.01042888   4.66 0.0009673487    1.219    0.179
       244  -8.7898    112.8771     40.1530   2.9073162070e+02   6.5942266568e+00   0.01318698  0.008749351 -65.89 0.0006514832    1.570    0.363
       245  -8.1736     75.2694     41.1680   2.9117203097e+02   6.7854727567e+00  0.008632861  0.007349226  59.19  0.000495292    1.312    0.238
       246  -8.3243     49.2610     40.0461   2.9146610142e+02   6.9379855350e+00  0.008932775  0.008463475 -45.16 0.0006154852    1.048    0.046
       247 -10.1770    233.6357     36.9095   2.8931963019e+02   5.9773283849e+00   0.01953359   0.01646131 -80.89  0.001815303    1.317    0.241
       248  -9.4279    189.9331     36.2591   2.8981953090e+02   6.2215015621e+00   0.02118548  0.009059856 -63.66  0.001555053    2.410    0.585
       249  -9.2773     89.4168     35.1422   2.9097338160e+02   6.7770547168e+00   0.02005224    0.0166625  59.83  0.002370088    1.361    0.265
       250  -9.2161     54.2172     36.5270   2.9138828439e+02   6.9509295831e+00   0.01261783  0.007865158  66.00 0.0009595118    2.303    0.566
       251  -9.5526    127.0843     33.8999   2.9053101800e+02   6.5878637139e+00   0.02459026     0.012087  42.46  0.002057847    2.175    0.540
       252  -9.8515    120.2746     31.0159   2.9059280749e+02   6.6570480408e+00   0.01430138   0.01250343  39.60 0.0003188849    1.179    0.152
       253 -10.4380    129.3582    231.2452   2.9165425381e+02   4.3541242609e+00   0.01749373   0.01214906 -48.89 0.0007141717    1.403    0.287
       254  -7.8856     71.0589    239.0149   2.9237089565e+02   4.5800925078e+00   0.00775309   0.00729127 -44.85 0.0003552307    1.050    0.048
       255  -7.7526     56.3372    239.2831   2.9254206756e+02   4.6561083286e+00  0.006815029  0.004748437 -23.77 0.0003960273    1.624    0.384
       256  -8.4162      7.4898    237.5760   2.9309506836e+02   4.9372044425e+00   0.00643738  0.006147902 -13.14 0.0002725916    1.018    0.017
       257  -9.1443    250.2707     32.7008   2.8910340825e+02   5.9343290127e+00   0.02299585  0.009423572 -71.48  0.001717362    3.310    0.698
       258  -7.7962    173.9680     34.0016   2.8999047231e+02   6.3332950872e+00  0.007395933  0.007120213 -10.02            0    1.009    0.009
       259  -8.3686    110.4950    235.5099   2.9189626815e+02   4.4076036269e+00  0.006506811  0.006162152 -21.29 -7.138477e-05    1.026    0.026
       260  -9.5673    144.4127     32.2196   2.9032112711e+02   6.5131539010e+00   0.01287311   0.01177295 -81.52 0.0008974174    1.183    0.155
       261  -9.6438    140.6118     28.1503   2.9034121788e+02   6.5794339572e+00   0.02260953   0.01043625  36.45  0.001992272    2.125    0.529
       262  -8.4387     20.5824    234.1857   2.9292458913e+02   4.9052857329e+00  0.009128828  0.005624505 -48.36 0.0004655348    1.582    0.368
       263  -9.8574     96.4206     27.6003   2.9084841600e+02   6.8241175411e+00   0.02147097   0.01572049 -31.87  0.002383788    1.438    0.304
       264  -9.9394     73.9390     28.7108   2.9111470901e+02   6.9327364327e+00   0.02265553   0.01463216 -12.99 0.0005156571    1.938    0.484
       265  -9.3543    153.6419    232.2396   2.9138038433e+02   4.2121358324e+00   0.01147301    0.0113207  69.50 0.0004181765    1.078    0.072
       266  -9.6407     93.6266     22.1767   2.9084902285e+02   6.9001553114e+00   0.04049624   0.01775421   7.68  0.002857198    3.826    0.739
       267  -8.9699     61.8820    232.1564   2.9243690808e+02   4.7066447405e+00   0.01187024  0.008928184 -52.75  0.000594736    1.298    0.229
       268  -7.6987      1.6565    233.6533   2.9313962466e+02   5.0126395620e+00  0.007194848  0.004623616 -27.93 0.0007044929    1.797    0.443
       269  -8.2002     43.6957    232.3144   2.9264739671e+02   4.8024611112e+00  0.006629186  0.004904115  60.91 0.0003831308    1.619    0.383
       270  -9.3239    194.3195    230.7890   2.9090371899e+02   4.0091525441e+00   0.01130204   0.01006013   3.69  0.000459799    1.125    0.111
       271  -9.2556    166.5807     26.8463   2.9003385243e+02   6.4536804002e+00   0.01262586   0.01094368  30.33 0.0004357462    1.156    0.135
       272  -9.6619    182.7747     25.2176   2.8983749162e+02   6.3843326668e+00   0.02273023   0.01260719  33.80  0.001860581    1.763    0.433
       273  -8.8883    118.9073     23.8669   2.9056682332e+02   6.7447971600e+00   0.01618291  0.008081669 -49.56  0.001505454    1.929    0.482
       274  -9.4536    246.5072     21.8620   2.8908326791e+02   6.0764643638e+00   0.01727671   0.01390646  79.04  0.001620154    1.492    0.330
       275  -8.5473    212.1810     23.1327   2.8948620375e+02   6.2484272507e+00  0.009556224  0.008454259 -24.07 0.0004116831    1.131    0.116
       276  -8.6478    234.1363     27.3667   2.8925799380e+02   6.0817944304e+00  0.009705132   0.00838987  25.51  0.001172984    1.151    0.131
       277  -9.0503     18.0739     21.0876   2.9171622210e+02   7.3186823767e+00  0.009786473  0.008910213 -23.08  0.001214632    1.084    0.077
       278  -8.9582     15.0222     18.0151   2.9173361436e+02   7.3696021519e+00  0.009288158  0.008952001 -24.39  0.001186045    1.009    0.009
       279  -9.3201     35.5529    227.3267   2.9271237185e+02   4.9023356282e+00   0.01263177   0.01020125 -21.62 0.0002527889    1.300    0.231
       280  -8.1031    217.5499     17.3331   2.8939036302e+02   6.2844511480e+00   0.01574384  0.006013183  24.41 0.0009466573    2.640    0.621
       281  -9.7985     22.8006    227.0758   2.9285790104e+02   4.9735227683e+00    0.0170834   0.01239331   0.08 0.0008695379    1.535    0.348
       282  -8.8685     14.2153    227.6792   2.9296034473e+02   5.0127196142e+00    0.0113646   0.01000562 -46.59 0.0004189304    1.113    0.101
       283  -9.3068    249.8240    226.6425   2.9024116140e+02   3.7561577849e+00   0.01111754   0.01064201 -41.30 0.0003868284    1.036    0.035
       284  -9.0545    190.0055    222.1648   2.9090320809e+02   4.1295076616e+00    0.0103395  0.009135919 -52.67 0.0003227517    1.120    0.107
       285  -8.2287    162.9963    222.2422   2.9121458415e+02   4.2742955776e+00  0.009019312  0.008016725  16.63 0.0002406276    1.117    0.105
       286  -7.6673    250.7419     13.9720   2.8898828274e+02   6.1420471421e+00  0.008177803  0.005506639 -59.63 0.0005431792    1.474    0.322
       287  -9.2417    145.2129    222.1983   2.9141911432e+02   4.3706265822e+00  0.009810938  0.008494413 -23.66 0.0005975308    1.167    0.143
       288 -10.4717     56.0134    216.9944   2.9241670613e+02   4.9089897797e+00   0.02087525  0.008979731 -61.98  0.001061305    2.309    0.567
       289  -8.1939    228.3227     10.3187   2.8922513216e+02   6.3047696061e+00  0.006948932  0.004705416 -27.03 0.0006374763    1.670    0.401
       290  -9.3599    167.0327    217.6187   2.9114123051e+02   4.3045936162e+00   0.01172485  0.009347186 -59.98 0.0003523955    1.257    0.205
       291  -7.9604     93.5786    220.5048   2.9200411814e+02   4.6676168098e+00  0.006415277  0.006175529 -27.29 0.0001000702    1.013    0.012
       292 -10.3151    182.3291    207.2111   2.9090458065e+02   4.3392660809e+00   0.01882011   0.01387667  22.77 0.0004448932    1.351    0.260
       293 -12.4144    196.1333    211.2308   2.9076906467e+02   4.2195227112e+00    0.1118829   0.04882656 -36.64  0.008795359    2.950    0.661
       294 -10.8683    194.9877    200.5049   2.9071982207e+02   4.3464432027e+00   0.01752348   0.01358845  23.01  0.001074778    1.282    0.220
       295  -8.3796    112.4289    215.3981   2.9175727715e+02   4.6237433138e+00   0.01327536   0.00747467 -33.06  0.000865715    2.087    0.521
       296  -8.5777    233.6838    201.0385   2.9027763271e+02   4.1314343173e+00  0.009457889  0.008758898  59.34  0.000496975    1.170    0.145
       297  -9.5658    229.7970    213.8316   2.9039685833e+02   4.0084829846e+00   0.02093823   0.01914866 -20.31  0.002009951    1.081    0.075
       298 -10.3125    235.2952    209.4382   2.9030802910e+02   4.0282151294e+00   0.02414797   0.01606599  11.09  0.001815313    1.632    0.387
