#   1 NUMBER                 Running object number                                     
#   2 MAG_AUTO               Kron-like elliptical aperture magnitude                    [mag]
#   3 X_IMAGE                Object position along x                                    [pixel]
#   4 Y_IMAGE                Object position along y                                    [pixel]
#   5 X_WORLD                Barycenter position along world x axis                     [deg]
#   6 Y_WORLD                Barycenter position along world y axis                     [deg]
#   7 A_WORLD                Profile RMS along major axis (world units)                 [deg]
#   8 B_WORLD                Profile RMS along minor axis (world units)                 [deg]
#   9 THETA_WORLD            Position angle (CCW/world-x)                               [deg]
#  10 FWHM_WORLD             FWHM assuming a gaussian core                              [deg]
#  11 ELONGATION             A_IMAGE/B_IMAGE                                           
#  12 ELLIPTICITY            1 - B_IMAGE/A_IMAGE                                       
         1 -11.6381      7.1133     18.1760   1.0553951166e+02   6.9408081574e+01    0.2447751    0.1933861 -39.00 0.0006345958    1.111    0.100
         2 -12.1319     18.0931     23.9568   1.0280546947e+02   6.7645102723e+01    0.4929855    0.2438211 -55.11  0.002446211    1.720    0.419
         3 -11.3749    182.1996     19.5311   5.3825894133e+01   3.7491883658e+01    0.3811671    0.2503869 -14.03  0.001766642    1.710    0.415
         4 -12.0739     80.2331     15.5023   7.5542746362e+01   6.1383517425e+01    0.3749036    0.2931243 -32.70   0.00130926    1.304    0.233
         5 -10.7217     60.1778     17.7186   8.3469905227e+01   6.4212608559e+01     0.282158    0.1348848  21.25   0.00121189    3.188    0.686
         6 -11.8398     25.5185     13.1506   9.5527013103e+01   6.8913209112e+01    0.3058629    0.2441132  10.50  0.001424285    1.410    0.291
         7 -10.6489     43.5015     16.4455   8.9356198273e+01   6.6544717973e+01    0.3221068     0.255133  89.76  0.001830423    2.917    0.657
         8 -12.1608    174.1777     12.0370   5.2623729229e+01   4.0430643049e+01    0.4013721    0.3003257  60.09  0.002064294    1.249    0.199
         9  -9.8672     97.9086     12.0989   6.8709313542e+01   5.8530048526e+01     0.187704    0.1687806 -23.14 0.0003625662    1.204    0.169
        10 -11.3691     38.9566      4.1733   8.5657325779e+01   6.8912198839e+01    0.3573376    0.2114376 -50.41  0.001979199    2.424    0.587
        11 -11.7981     46.9824      8.9899   8.4622501229e+01   6.7253706458e+01    0.5143403    0.3286953  42.42  0.003136154    2.027    0.507
        12  -9.3602     13.1206     11.1773   1.0027843084e+02   7.0233819235e+01    0.1339056    0.1071161 -46.09  0.000414187    1.273    0.215
        13  -9.8683      7.8570     10.8547   1.0257339368e+02   7.0642388149e+01    0.1227655    0.1141286 -28.15 0.0004377913    1.371    0.270
        14 -12.4365    209.5235      5.2110   4.5886610655e+01   3.1819646807e+01    0.5968384    0.3491024 -61.78  0.000526218    1.923    0.480
        15 -10.8680    194.9274      8.6889   4.8652403338e+01   3.5301625826e+01    0.2019342    0.1754158  75.39  0.000427825    1.093    0.085
        16 -10.9634     74.1832      8.5007   7.4376336370e+01   6.3323578070e+01     0.220669    0.1568309 -20.76 0.0003878695    1.242    0.195
        17 -10.5441     52.0084      6.0092   8.1222257921e+01   6.7013863969e+01    0.1886589     0.119378  -5.57 0.0003561968    1.616    0.381
        18 -10.8836    159.2324      7.5168   5.3478383085e+01   4.4777603371e+01    0.2480956    0.2356752  41.88  0.000622033    1.023    0.023
        19 -10.3355    127.9790      8.3321   5.9710664008e+01   5.2407761971e+01    0.1967918     0.162735  46.69 0.0003436636    1.140    0.123
        20 -11.2092    106.6895      7.7152   6.4467921829e+01   5.7227080350e+01    0.3203704     0.159951  54.46  0.001478753    1.991    0.498
        21 -10.4168     24.7417      6.8312   9.3145171840e+01   6.9994848040e+01    0.2067967     0.125186 -46.17  0.001321845    1.564    0.361
        22  -9.6646     19.8210      7.1609   9.5534395562e+01   7.0374578777e+01    0.1504763   0.09629991 -26.91 0.0004157849    1.252    0.202
        23 -10.2108     87.5815      7.2002   6.9540416962e+01   6.1100682938e+01    0.2232996    0.1456228 -11.30 0.0008132887    1.467    0.318
        24 -11.5443    194.0515      3.7678   4.7270184526e+01   3.6024198372e+01    0.4188493    0.2096355  51.94 0.0006465277    1.906    0.475
        25 -10.6392     14.1677      4.9102   9.7191834396e+01   7.1186280166e+01    0.1515807    0.1188891 -39.86 0.0002727996    1.246    0.198
        26 -10.1176      7.8196      5.4966   1.0046718882e+02   7.1543036453e+01    0.1277602   0.09485904  -2.14 0.0003718104    1.441    0.306
        27 -11.4990    161.2437      2.8770   5.1540298606e+01   4.4704229560e+01    0.4377802    0.2844016  73.95  0.002033803    1.569    0.362
        28 -10.4554    217.9112      2.6491   4.4273722933e+01   2.9901312063e+01    0.2282607    0.1979667  -3.01  0.001287829    1.336    0.252
        29 -10.7920     73.7542      2.0854   7.1495853950e+01   6.4164053342e+01    0.2558969    0.2052038  11.73  0.001561339    1.084    0.078
        30 -10.4479    199.1570      1.5482   4.5997473713e+01   3.4894302862e+01    0.2444349    0.1563953  64.13 0.0006943599    1.439    0.305
        31 -11.2574    181.2248      1.9676   4.8349882250e+01   3.9575359018e+01    0.3746955    0.1589927  56.34   0.00151951    2.066    0.516
        32 -10.3155     49.8509      2.1654   8.0197941351e+01   6.7815867975e+01    0.2033401    0.1461085   9.16 0.0007401082    1.308    0.235
        33 -10.5649      8.9714      1.4248   9.8168174522e+01   7.2122143791e+01    0.2396643    0.1062304  35.23   0.00112379    3.217    0.689
        34  -9.7050    143.6850      1.3065   5.3920495900e+01   4.9292478786e+01    0.1376239    0.1048978 -62.35 0.0004095902    1.625    0.385
        35 -10.2376     90.5143      1.4591   6.6068004570e+01   6.1170940949e+01    0.2281162    0.1197369  51.53  0.000464056    1.918    0.479
        36  -9.9605    217.2747    236.6002   9.8752598817e+01  -3.1386648145e+00    0.1724599    0.1604923 -43.51 0.0009949077    1.518    0.341
        37  -9.8973    208.4797    250.4587   1.0205694097e+02  -3.1944248297e+00     0.148292    0.1130532  54.68 0.0006336482    1.440    0.305
        38 -10.7477    210.4514    247.1006   1.0130084340e+02  -3.1568615713e+00    0.2235346    0.1481833  34.57  0.000604757    1.170    0.145
        39 -11.4156    187.2879    248.3840   1.0514915413e+02   4.0869511317e-01    0.2726884    0.2103216 -32.76  0.001014715    1.740    0.425
        40 -10.3022    159.2730    250.3641   1.0983778293e+02   4.6448875068e+00    0.1699336    0.1173045  25.85  0.001121352    1.850    0.459
        41 -10.9849    115.0335    249.9117   1.1673495062e+02   1.1478911652e+01    0.2237022    0.1610865  42.24  0.001653847    1.443    0.307
        42 -10.6067    117.7315    246.6235   1.1601639843e+02   1.1545147795e+01    0.1700197    0.1543837 -80.04 0.0006814802    1.431    0.301
        43  -9.9170     70.0525    249.6654   1.2350827211e+02   1.7692581474e+01    0.1453642    0.1128198 -76.12  0.001217178    1.565    0.361
        44 -12.5623     31.3489    213.1226   1.2705347933e+02   2.8200978785e+01    0.3732026    0.2312955 -85.61  0.002837324    1.341    0.254
        45 -13.3168      8.3474    213.2705   1.3058204313e+02   3.0476289468e+01    0.4269471    0.2891116  56.48  0.001148166    1.364    0.267
        46 -11.8747     19.6399    217.5854   1.2910229422e+02   2.8645616660e+01    0.1853772    0.1648762  63.18 0.0006451079    1.607    0.378
        47 -12.5678     13.5775    220.3544   1.3014178634e+02   2.8776719382e+01    0.4467714    0.1713044 -70.98  0.001453604    2.387    0.581
        48 -11.9341      6.7170    222.6806   1.3124439011e+02   2.9044292169e+01    0.4703732    0.2022227 -71.98   0.00327661    2.165    0.538
        49 -12.1242     19.9159    222.4998   1.2931203684e+02   2.7788805179e+01    0.3930435    0.2490327 -75.19  0.001884968    1.599    0.375
        50 -12.2134     27.7388    219.6244   1.2798740829e+02   2.7466866923e+01     0.341917    0.1759617  56.44  0.001926873    1.487    0.327
        51 -12.0479     29.9976    237.3232   1.2859478564e+02   2.4316840654e+01    0.2608306    0.2132098 -84.63 0.0004483516    1.545    0.353
        52 -12.7902     30.9182    230.9932   1.2813239546e+02   2.5237330706e+01    0.6185293    0.1602429  54.38  0.002259275    2.752    0.637
        53 -13.4482      4.0268    244.6571   1.3248554192e+02   2.5793011188e+01    0.5740292    0.3911682 -72.87  0.003277861    1.835    0.455
        54 -13.0699     21.7981    238.1175   1.2979500657e+02   2.5054014390e+01    0.3847562    0.2250844  67.37 0.0006096516    1.148    0.129
        55 -13.3139     17.0773    247.1063   1.3083919843e+02   2.4138194722e+01    0.5340214     0.225192  74.76    0.0015653    1.854    0.461
        56 -12.3714     10.2807    249.0783   1.3182404582e+02   2.4515803054e+01    0.3958713    0.1789212 -78.82    0.0030207    1.982    0.495
        57 -13.1330     23.9947    246.2923   1.2986410700e+02   2.3550776688e+01    0.5174227    0.3043095  81.53  0.002296153    1.265    0.209
        58 -13.9598     35.5322    241.8930   1.2804005620e+02   2.2992932346e+01    0.6388175     0.374464 -86.87  0.003114024    1.477    0.323
        59 -13.2369      3.6963    233.4577   1.3210978099e+02   2.7575592523e+01    0.5134254     0.240394  78.04  0.001161703    1.544    0.353
        60 -12.8722     11.4844    231.4186   1.3094406560e+02   2.7159322837e+01    0.3821733    0.1749923  65.22 5.474587e-05    1.544    0.352
        61 -11.0549    219.0755    232.6239   9.7883094708e+01  -3.0016892047e+00     0.190125    0.1631536  21.16 0.0003100867    1.160    0.138
        62 -10.8675    197.1445    234.2095   1.0169575879e+02   4.4552115648e-01    0.2225294    0.1908106  10.25  0.001105091    1.309    0.236
        63 -10.8396    231.3323    233.5915   9.6051246658e+01  -5.0900888683e+00    0.2332342    0.1708605   4.12 0.0008572394    1.435    0.303
        64 -10.0928    173.2329    233.6060   1.0557226209e+02   4.5128551960e+00    0.2110583    0.1199078  39.96 0.0008984185    1.462    0.316
        65  -9.9088    157.3363    234.2563   1.0829502652e+02   7.0598096870e+00    0.1337166    0.1048367 -73.14 0.0005640881    1.629    0.386
        66  -9.6873    133.2555    234.6656   1.1232640722e+02   1.0886408645e+01    0.1098241   0.07286405  71.45 0.0002105639    1.567    0.362
        67  -9.9070    183.2624    233.0015   1.0382669734e+02   2.9130459681e+00    0.1515723    0.1285276  40.81  0.001105278    1.099    0.090
        68 -10.1294    156.7881    238.1414   1.0884694711e+02   6.6243163473e+00    0.1700047    0.1251143  57.97 0.0005738303    1.183    0.155
        69 -12.3238     73.6042    227.2223   1.2134074509e+02   2.0754306714e+01    0.4447882    0.2192354  84.09  0.001820067    2.298    0.565
        70 -11.2764    152.1612    230.8570   1.0874989830e+02   8.3820484847e+00    0.2103062    0.1794882  77.49 0.0004238694    1.265    0.209
        71 -10.4905    151.5100    227.4386   1.0844551320e+02   8.9756196522e+00    0.1991999    0.1345756  47.63 4.786046e-05    1.173    0.147
        72 -10.0360     80.9683    231.4988   1.2050943533e+02   1.9077570556e+01     0.151381    0.1099023  71.02 0.0003261458    1.056    0.053
        73 -10.2938     58.6284    230.3803   1.2392427854e+02   2.2142881425e+01    0.2570056    0.1181995  74.46  0.001227158    2.160    0.537
        74  -9.8356     44.7899    223.5648   1.2560990771e+02   2.4921758370e+01    0.1401778    0.0802068  51.27 0.0004016297    1.469    0.319
        75 -12.4266     39.5353    229.7078   1.2678427050e+02   2.4499739249e+01    0.2279808    0.1579836 -83.63  0.001858917    1.377    0.274
        76 -11.5190     45.8500    229.4163   1.2581568018e+02   2.3827039823e+01    0.4340261    0.2027453  68.54  0.002811063    1.781    0.439
        77 -11.3462     37.9023    223.9594   1.2669133752e+02   2.5635556347e+01    0.3444615    0.1483901  54.84  0.001963412    1.756    0.431
        78 -11.7923     38.7599    218.2778   1.2621176473e+02   2.6502326568e+01     0.231251     0.202408  75.77 0.0008307865    1.457    0.314
        79 -11.5043    143.6210    232.2842   1.1034466993e+02   9.5733988435e+00    0.3332283    0.1556157  45.99 0.0009847896    1.680    0.405
        80  -9.7219    248.4877    230.4702   9.2847785133e+01  -7.4884235059e+00    0.1146293   0.08537604  25.77 5.008049e-05    1.008    0.008
        81 -12.2945    107.4256    227.9372   1.1589981132e+02   1.5881720365e+01    0.2470998    0.1679411  68.19 0.0003775669    1.257    0.204
        82 -10.5037    111.4604    227.5182   1.1518921910e+02   1.5341561505e+01    0.1800031    0.1334141  80.23 0.0001280818    1.283    0.221
        83 -11.1828     95.6429    229.3575   1.1796706737e+02   1.7378793173e+01    0.3501274    0.1609924  72.67   0.00103141    3.009    0.668
        84  -9.8097     64.9776    229.2744   1.2285952908e+02   2.1531394769e+01    0.1408383   0.09475061  59.54 0.0004082805    1.154    0.134
        85 -10.5654    174.4865    228.0384   1.0463539963e+02   5.0339687183e+00    0.2681693    0.1379363  45.84  0.001045407    1.525    0.344
        86  -9.5273    125.8537    228.3430   1.1287358274e+02   1.2993232714e+01    0.1522574    0.0885374  40.92            0    1.624    0.384
        87 -11.1455    242.6466    228.9432   9.3532395679e+01  -6.4205784426e+00     0.269939    0.2107112 -71.02   0.00161847    2.970    0.663
        88  -9.2271    202.6363    227.3001   9.9808125120e+01   3.4749349693e-01    0.1140801   0.08379005  63.79 0.0005644799    1.725    0.420
        89 -11.0073    164.4818    224.6401   1.0588532560e+02   7.1948192734e+00      0.22618     0.181689  76.32 0.0007999025    1.429    0.300
        90 -10.5884    187.8623    222.5213   1.0160662711e+02   3.4723398120e+00    0.2077413    0.1706679 -16.07 0.0003532413    1.538    0.350
        91 -10.6124    177.8084    223.4101   1.0344496064e+02   5.0864045468e+00    0.3170196    0.1868716  66.42  0.001628634    2.437    0.590
        92 -10.7770     78.8245    223.7013   1.2021337964e+02   2.0640396815e+01    0.2105005    0.1303422 -84.04 0.0009844018    1.572    0.364
        93 -10.5574     64.1948    221.2649   1.2238716538e+02   2.2963219788e+01    0.2955357    0.1318263  69.65  0.001059349    2.275    0.561
        94  -9.8960     54.1503    221.9657   1.2404019568e+02   2.4087082630e+01     0.150086    0.1137487 -53.37  0.001104547    2.112    0.527
        95  -9.6350    241.6453    221.1822   9.2456637441e+01  -5.4629150098e+00    0.1442961   0.09806398  -6.91 0.0002594601    1.596    0.374
        96 -10.3367    228.8898    220.1898   9.4373516547e+01  -3.2540179104e+00    0.1662568     0.137972  38.13 0.0003058198    1.195    0.163
        97 -10.8948    135.1786    218.5852   1.1017263784e+02   1.3000414549e+01    0.2076779    0.1885523 -39.44  0.001408455    1.518    0.341
        98 -10.9225     47.2939    218.3795   1.2487775174e+02   2.5511286442e+01    0.2239118     0.162912  49.09  0.001050633    1.474    0.322
        99  -9.6063    190.3235    218.2632   1.0056760391e+02   3.6033467093e+00    0.1193842   0.08094783  26.37 0.0001532455    1.559    0.359
       100 -10.5353    173.5040    216.9865   1.0329040673e+02   6.7166842935e+00    0.2776331    0.1992859  87.01  0.001343079    2.120    0.528
       101  -9.7647     95.6758    217.6870   1.1686747136e+02   1.9283481180e+01    0.1530355     0.128378  68.33  0.001065655    1.159    0.138
       102 -10.1729     97.9387    214.1224   1.1612691777e+02   1.9554068275e+01    0.1877944    0.1528109 -82.63 0.0005675968    1.275    0.216
       103 -11.6920     96.4470    209.4018   1.1590304319e+02   2.0584528897e+01    0.2595933    0.2388074 -54.91  0.001416073    1.561    0.359
       104 -11.4801     88.2899    217.6851   1.1811545563e+02   2.0342184628e+01    0.2740035    0.1496811 -73.88  0.001317722    1.922    0.480
       105 -11.6861     84.3490    215.3257   1.1856217451e+02   2.1296281922e+01     0.455555     0.198266  40.02  0.002420982    2.362    0.577
       106 -10.7781     86.2052    211.9176   1.1792729137e+02   2.1623803927e+01     0.223168    0.1467246  86.25 0.0006484948    1.437    0.304
       107 -11.1723    117.0081    216.5095   1.1308471194e+02   1.6252103022e+01    0.2272958    0.2017308  46.84 0.0006541864    1.328    0.247
       108 -10.1226    117.9667    212.5046   1.1246568538e+02   1.6761174295e+01    0.1827104   0.09753437  46.93 0.0006155829    1.573    0.364
       109 -10.4753    101.3560    217.2095   1.1585304163e+02   1.8528364936e+01    0.1511608    0.1341925 -80.75 0.0005587455    1.341    0.254
       110 -11.2896     73.8204    215.4228   1.2033855276e+02   2.2712071617e+01     0.335047    0.2854652 -56.87 0.0009896758    1.728    0.421
       111 -11.1795    111.9845    213.6808   1.1364531242e+02   1.7503423622e+01    0.2804645     0.191737 -54.64  0.001170024    1.802    0.445
       112  -9.4970    147.5764    215.5443   1.0762945635e+02   1.1401792867e+01    0.1210342   0.09710395  57.02 5.242643e-05    1.040    0.038
       113  -9.7290     59.3489    214.6862   1.2267058563e+02   2.4698484475e+01    0.1118294    0.0837405  73.48 0.0008460077    1.053    0.050
       114  -9.8706     61.8624    212.3929   1.2207736878e+02   2.4784783811e+01    0.1545487   0.08901802  49.17 0.0004009338    1.520    0.342
       115 -10.5310    217.9771    212.9856   9.5035103406e+01  -5.5650148432e-01      0.15164    0.1166853  34.44 0.0006323687    1.046    0.044
       116 -11.2818     30.0600    201.9638   1.2656398940e+02   3.0314269637e+01    0.7106572   0.09623026  52.45  0.002690222    5.273    0.810
       117 -11.9774     39.2852    211.7266   1.2570854830e+02   2.7578496027e+01     0.363631     0.199814  77.25  0.002499413    1.478    0.323
       118 -10.5871    231.2130    211.9756   9.2652648381e+01  -2.7144880899e+00     0.198166    0.1422668  35.91 0.0003698264    1.139    0.122
       119 -11.9698    128.6598    208.2521   1.1006012491e+02   1.5737573833e+01    0.3298522     0.310554 -67.99  0.002403555    1.323    0.244
       120 -10.5977     14.2105    211.2539   1.2959913120e+02   3.0266639904e+01    0.1933923   0.09957214  74.76 0.0009279204    1.449    0.310
       121 -10.5610     23.3662    208.5873   1.2803868243e+02   2.9825521060e+01    0.2107174    0.1401331  45.91  0.001195276    1.622    0.383
       122  -9.4033    164.3511    213.1671   1.0435691164e+02   8.8680067909e+00    0.1448586     0.112611 -70.01 0.0003069213    1.632    0.387
       123 -10.5231     80.6920    210.0648   1.1869891054e+02   2.2714646482e+01    0.1557174    0.1192442  83.05  0.001126344    1.124    0.111
       124 -12.1721     67.1236    207.3861   1.2077970974e+02   2.4999424233e+01    0.2823198    0.1595979  63.52 0.0002738721    1.467    0.318
       125 -10.1407     62.5264    207.5271   1.2157171403e+02   2.5561317913e+01     0.188251    0.1130411 -89.61 0.0006777297    1.497    0.332
       126  -9.3601    144.3296    208.2718   1.0725174456e+02   1.3095957617e+01      0.11454   0.08988161  26.80 0.0002776502    1.586    0.370
       127  -9.9806     89.9821    208.5062   1.1694124232e+02   2.1681495609e+01    0.1664043   0.09640309  46.78 0.0007971721    1.539    0.350
       128 -10.3967     90.1983    204.9174   1.1654008266e+02   2.2283922656e+01    0.2117431    0.1471881  85.02 0.0003346755    1.331    0.249
       129 -10.3507     17.3364    207.9488   1.2894478897e+02   3.0538713562e+01    0.1511529    0.1126865  56.91 0.0004147861    1.381    0.276
       130 -10.6731     12.4628    203.9248   1.2948949577e+02   3.1715976286e+01    0.3553044    0.1286058  66.81  0.001091806    2.404    0.584
       131 -12.0295     19.1102    201.5188   1.2830653839e+02   3.1505109700e+01    0.2545786     0.185179 -89.62 0.0008594216    1.205    0.170
       132 -10.7061     14.4615    198.3241   1.2886949363e+02   3.2527331472e+01    0.2647032    0.1404124  80.25  0.001867186    1.436    0.303
       133  -9.6167    156.6658    207.2776   1.0489902722e+02   1.1109687349e+01    0.1243409   0.08519556  67.41 0.0006999348    1.607    0.378
       134 -10.4712    152.0704    207.0293   1.0569105551e+02   1.1953765797e+01    0.2023575     0.134948  70.08  0.001135937    1.740    0.425
       135 -10.8953     52.8665    206.8741   1.2314281261e+02   2.6866824389e+01    0.2479445    0.1539178  47.58  0.001339161    1.534    0.348
       136 -12.2918     52.2436    202.6490   1.2291934094e+02   2.7702801912e+01    0.2571279    0.2328864  55.33 0.0005960868    1.522    0.343
       137 -10.8035    101.0466    206.2848   1.1476178929e+02   2.0441954291e+01    0.1668323    0.1200326  58.22 0.0002993038    1.138    0.121
       138 -10.8767      2.2004    205.2697   1.3113555228e+02   3.2418701968e+01    0.2514477    0.1047184  61.76  0.001634575    1.820    0.451
       139 -12.7088      5.0176    199.8994   1.3044604830e+02   3.3113677211e+01    0.2436276    0.1713875  71.78 0.0006547747    1.127    0.113
       140  -9.4252    200.4657    205.4687   9.6829456725e+01   3.5096664479e+00    0.1258652    0.1040369  37.44 8.360808e-05    1.010    0.010
       141 -10.1569    110.7748    204.2479   1.1279210163e+02   1.9300898335e+01    0.2693014    0.2040687 -11.39  0.001439668    3.087    0.676
       142 -10.4691    121.0836    221.9772   1.1298730314e+02   1.4731940468e+01     0.171894    0.1331419  62.45 0.0003547882    1.028    0.027
       143 -10.9002    195.2440    204.2406   9.7549031580e+01   4.6230761121e+00    0.2809174    0.1488983  39.62  0.001302805    1.620    0.383
       144 -10.9578    183.9546    203.3760   9.9417420327e+01   6.7995865844e+00    0.2424995    0.1967691   9.20 0.0008849544    1.478    0.323
       145  -9.4463    158.6400    203.1939   1.0395813586e+02   1.1399466605e+01    0.1417944    0.1192288 -35.22  0.000908748    1.503    0.335
       146 -10.4355    122.2603    203.3814   1.1060933055e+02   1.7610555491e+01    0.2430816    0.1581338  55.10 0.0008054861    1.289    0.224
       147 -10.5840    121.2395    199.1951   1.1026988019e+02   1.8502730381e+01    0.2137181    0.1895771  75.45 0.0007086468    1.116    0.104
       148 -12.4285    240.3606    201.1585   8.9278690292e+01  -3.0268512162e+00    0.3701346    0.2841536  22.44  0.001699694    1.081    0.075
       149 -11.7753    190.7476    200.8488   9.7799434247e+01   5.9215116409e+00    0.2211878    0.1988603  28.48 0.0002678946    1.103    0.094
       150 -11.3286     70.6559    201.6304   1.1965954729e+02   2.5575530681e+01    0.2759133    0.1466877  55.90  0.001018922    1.569    0.363
       151 -10.9425     40.3060    201.7966   1.2486237205e+02   2.9235948955e+01    0.1541376    0.1422747  -1.96  0.001216043    2.073    0.517
       152 -11.3343     95.9421    200.0539   1.1499621372e+02   2.2313113655e+01    0.2329578    0.1585767 -71.81 0.0004822144    1.492    0.330
       153 -11.0618    209.0607    199.2102   9.4283990439e+01   2.7912438958e+00    0.2453687    0.1905007   9.02 0.0008090277    1.400    0.286
       154 -10.1646    155.0926    199.8679   1.0412131750e+02   1.2562971681e+01    0.1859446    0.1449702  62.63            0    1.214    0.176
       155 -10.4133    149.8573    199.3975   1.0501645981e+02   1.3571102179e+01    0.1843544     0.160041  84.35 0.0003300387    1.219    0.180
       156 -11.6740     89.3364    199.3360   1.1611221069e+02   2.3411965354e+01    0.3475491    0.1776375  51.95  0.001191805    1.660    0.397
       157  -9.9986    169.5634    198.1779   1.0121019290e+02   1.0211636996e+01    0.2675204    0.1269792 -43.02  0.001278428    2.524    0.604
       158 -10.9226    109.4920    197.9804   1.1228332121e+02   2.0609027794e+01    0.2199682    0.1760637  70.14 0.0004220145    1.043    0.042
       159 -10.6143    108.6350    194.2171   1.1198365314e+02   2.1423053429e+01      0.21286    0.1567509 -74.56 0.0002632886    1.387    0.279
       160 -10.8328    224.0161    198.2298   9.1520648316e+01   2.0811510730e-01    0.1959488    0.1609992  24.80 0.0003835437    1.035    0.034
       161 -11.8767    228.8591    195.0945   9.0136199088e+01  -2.6521863900e-01    0.3898069    0.2463705  19.75  0.001628346    1.690    0.408
       162 -11.7240     62.7863    196.4058   1.2056949453e+02   2.7553226301e+01    0.2318714    0.1918904  77.94 0.0002596986    1.163    0.140
       163 -10.8605     57.2538    195.1460   1.2143431640e+02   2.8477151752e+01    0.2627219     0.152584  62.21   0.00115953    1.437    0.304
       164  -9.8551     50.2572    198.0489   1.2289393318e+02   2.8780362321e+01    0.1502796     0.106868  83.88 0.0003246317    1.099    0.090
       165 -10.6021     24.8603    194.7287   1.2695501487e+02   3.2167093174e+01    0.2611211    0.1083109 -80.22  0.001557881    2.021    0.505
       166 -11.6822    217.2732    194.6087   9.2049739535e+01   1.9021194800e+00    0.3380671    0.2161954  27.93  0.001865203    1.514    0.340
       167 -10.0167    166.0322    202.0293   1.0244255032e+02   1.0255359207e+01    0.1943336    0.1393903  69.25  0.001113959    1.610    0.379
       168 -10.7870    140.6150    195.4896   1.0617249627e+02   1.5853922287e+01    0.3576609    0.1784289  61.64  0.001615969    2.404    0.584
       169 -10.8781    136.3515    195.4164   1.0695913100e+02   1.6608991803e+01    0.2537418    0.1628825  66.45  0.001107994    1.643    0.391
       170  -9.1426    102.3516    196.2496   1.1339326551e+02   2.2032822018e+01    0.1051993    0.0923823  28.58 0.0002072774    1.591    0.372
       171  -9.9520     82.4703    195.8593   1.1698983129e+02   2.5027981576e+01    0.1586457    0.1027641 -72.13 0.0005732563    1.508    0.337
       172 -10.4606     95.3124    195.0738   1.1455542846e+02   2.3313693611e+01    0.1817113    0.1458132  51.04 0.0004543042    1.266    0.210
       173 -11.6782    122.4656    192.5777   1.0917872401e+02   1.9471120577e+01    0.4533128    0.2408546  64.79 0.0009548735    2.181    0.542
       174 -10.5115     71.2677    194.0697   1.1883718618e+02   2.6889900692e+01    0.1935423    0.1396239  59.70 0.0006153539    1.189    0.159
       175  -9.7213     43.8953    194.3389   1.2369875982e+02   3.0203886643e+01    0.2157423   0.06831818  46.93  0.001108086    2.602    0.616
       176 -10.2828    163.9659    192.2526   1.0131779486e+02   1.2184570208e+01    0.3708724    0.2506671  -5.24  0.001709471    3.011    0.668
       177 -10.2387    146.9821    192.9222   1.0460582538e+02   1.5164288452e+01    0.2292828    0.1642012  31.90  0.001038765    1.594    0.373
       178 -11.6156     52.7789    192.6479   1.2200927941e+02   2.9486543245e+01    0.2026331    0.1452507  86.11 0.0002953263    1.111    0.100
       179 -10.1054     57.1318    190.2590   1.2102570951e+02   2.9410990374e+01    0.2743955    0.1599637  75.71 0.0008826323    1.536    0.349
       180  -9.9906    131.2003    191.8099   1.0742374890e+02   1.8127784875e+01     0.155097    0.1433663  34.63 0.0003340764    1.311    0.237
       181 -11.6318    245.9939    190.9282   8.6492145055e+01  -2.7948047209e+00    0.2692101      0.16162  41.11 0.0003663123    1.480    0.324
       182 -10.8014    249.3238    189.6810   8.5710150183e+01  -3.2271477253e+00    0.1865969    0.1515906 -32.25  0.001200551    1.472    0.321
       183 -10.7790     81.1088    189.1778   1.1653291324e+02   2.6470671568e+01    0.2016447    0.1400079  48.78 0.0005212689    1.383    0.277
       184 -10.6153     66.4148    191.1200   1.1943028417e+02   2.8079927605e+01    0.2115696    0.1574896  31.77 0.0009331985    1.893    0.472
       185  -9.8584     34.2423    191.2306   1.2512910172e+02   3.1845237338e+01    0.1517189    0.0910283  74.38  0.001041693    1.322    0.243
       186 -10.6582     16.8773    191.0421   1.2805109786e+02   3.3627289359e+01    0.1548562    0.1111057  70.12            0    1.141    0.123
       187 -10.8315    227.0760    189.3363   8.9398980005e+01   7.9752955341e-01    0.2020824    0.1804623 -27.37 0.0003381195    1.307    0.235
       188 -12.4829     91.5755    188.9079   1.1454497724e+02   2.5016890182e+01    0.2598375    0.1941528  80.20 0.0005742366    1.177    0.151
       189 -11.8023    131.7890    186.5815   1.0656633734e+02   1.8959376549e+01    0.2324574    0.2054932  85.30 0.0002903649    1.117    0.105
       190  -9.5177    126.6361    188.3236   1.0780393562e+02   1.9533083988e+01    0.1359939   0.08693154  72.64 -1.043479e-05    1.788    0.441
       191 -10.7442      3.4681    187.7800   1.3007290449e+02   3.5440293233e+01     0.163516     0.134336  62.94 0.0008974795    1.404    0.288
       192 -10.3548    205.2059    187.0528   9.2842641621e+01   5.2007192478e+00    0.1871174    0.1561582  19.48 0.0002272577    1.169    0.145
       193  -9.7616    220.9959    186.2513   8.9889064177e+01   2.3339453719e+00    0.1815805    0.1450359  35.23 0.0003677091    1.087    0.080
       194 -10.9481     75.1112    185.8437   1.1729544043e+02   2.7934388919e+01    0.2076664    0.1372311  87.65  0.001303968    1.386    0.278
       195 -12.6223     79.7881    182.5418   1.1605138694e+02   2.7928664480e+01    0.2637555    0.2369589 -70.26 0.0002994301    1.365    0.267
       196 -11.4732     79.3156    174.5161   1.1521630497e+02   2.9572834073e+01    0.3172912    0.2012933  81.82 0.0008672836    1.569    0.363
       197 -11.0761     15.8833    183.8829   1.2777497748e+02   3.5055909212e+01    0.2962656    0.1615344  71.72  0.001892383    1.459    0.315
       198  -9.9913     10.4676    185.5003   1.2878885412e+02   3.5247507354e+01    0.1728334    0.1036226  24.39  0.001137334    2.853    0.650
       199 -11.3137    105.0590    183.9171   1.1136114717e+02   2.3901772049e+01    0.3234554    0.2979085  -1.45  0.002152335    1.651    0.394
       200 -11.6705     29.3179    181.5660   1.2527887411e+02   3.4190333974e+01    0.4029468    0.2381621 -88.89  0.002767912    1.336    0.251
       201 -11.6433     32.3604    176.3581   1.2433098580e+02   3.4887367212e+01     0.293961    0.2235141 -74.12 0.0009252594    1.336    0.252
       202 -10.3274    226.3754    183.7140   8.8476532963e+01   1.6709117357e+00    0.2250966    0.1448911  50.54  0.001206904    1.587    0.370
       203 -11.4770     55.9822    181.5518   1.2043364086e+02   3.1224993828e+01    0.4062176    0.1940712  54.48  0.002071442    1.865    0.464
       204 -10.7914     60.3550    179.2261   1.1938856479e+02   3.1142796791e+01    0.2059028    0.1352409 -74.27 0.0002525162    1.370    0.270
       205 -11.1045    174.5325    183.1237   9.7823189712e+01   1.1683161155e+01    0.4212591     0.170718  47.07  0.001576184    2.175    0.540
       206 -11.0689     47.6915    182.0288   1.2200588309e+02   3.2111558289e+01     0.247669    0.1771231  28.47 0.0009551611    2.090    0.522
       207 -10.0738      6.1218    176.1246   1.2897153844e+02   3.7391955041e+01    0.1758992    0.1097515 -67.95 0.0004345343    1.604    0.377
       208 -10.2538      4.5063    182.5566   1.2961743074e+02   3.6318352201e+01    0.1780741    0.1202802  55.97  0.001423214    1.403    0.287
       209 -11.5935    229.6822    180.6555   8.7322428247e+01   1.4626313153e+00    0.2884052    0.2455583 -86.45  0.001692711    1.863    0.463
       210  -9.9424    122.9992    182.5214   1.0768398945e+02   2.1217249297e+01    0.1983794    0.1126427  46.85 0.0006587246    1.585    0.369
       211 -10.8072     88.0434    182.0086   1.1440781802e+02   2.6854334477e+01     0.186429    0.1476731  79.94 0.0003974283    1.061    0.057
       212 -10.5503    131.6517    179.6608   1.0556539538e+02   2.0247296894e+01     0.251314    0.1843925 -89.33 0.0009753122    1.551    0.355
       213 -10.4382    104.2990    178.3007   1.1076804059e+02   2.5098320585e+01    0.2210599    0.1565839  82.20   0.00129702    1.420    0.296
       214 -10.6372    106.4485    175.5142   1.0996116571e+02   2.5296306087e+01    0.3144866    0.1482292  52.42  0.001498393    1.982    0.496
       215 -11.0267     92.0128    177.3510   1.1306487155e+02   2.7176421199e+01    0.1866112    0.1548033 -69.61  0.000217625    1.269    0.212
       216 -11.0560     73.7741    177.3735   1.1662719958e+02   2.9766879953e+01    0.2502016     0.210155  26.69  0.001361225    1.744    0.426
       217 -11.5133     46.9391    177.0329   1.2169834078e+02   3.3173971651e+01    0.3343831    0.1489204  47.65  0.001899622    2.045    0.511
       218 -11.5323     22.1646    175.3866   1.2610092733e+02   3.6088154718e+01    0.2034284    0.1384491  88.34 0.0003253554    1.089    0.081
       219 -11.1661     15.7496    175.5427   1.2725386287e+02   3.6656472818e+01    0.2619816    0.2090431 -14.97  0.001163666    2.629    0.620
       220 -10.1511    136.5762    176.1961   1.0405339008e+02   2.0009677617e+01    0.1699352    0.1249366 -42.26 0.0006883976    1.650    0.394
       221  -9.9048     68.9184    175.9095   1.1740488446e+02   3.0703386099e+01    0.1588003    0.1401885 -87.11   0.00114218    1.233    0.189
       222  -9.3939    201.4444    175.4801   9.1394219942e+01   7.6464935791e+00    0.1357839    0.1183913  28.86 0.0007310303    1.048    0.046
       223  -9.9265    171.4554    175.4706   9.7073096138e+01   1.3552654396e+01    0.1351177    0.1205819  40.98 5.583252e-05    1.058    0.055
       224 -10.2280    191.7992    174.3867   9.2987685117e+01   9.7233979299e+00    0.1893041    0.1145187  37.74 0.0002754519    1.559    0.359
       225 -10.3577    159.8303    173.8145   9.9050724179e+01   1.6094253930e+01    0.2257876    0.1656394  40.33  0.000276857    1.302    0.232
       226 -10.1398    156.1938    173.8256   9.9769828329e+01   1.6789895965e+01    0.2192085    0.1668907  35.48            0    1.359    0.264
       227  -9.8904      2.1573    173.8324   1.2952014949e+02   3.8157938460e+01    0.1204225    0.0967744 -86.10 0.0004053083    1.302    0.232
       228 -10.5113     98.0692    172.0449   1.1116455351e+02   2.7302409209e+01    0.2202135     0.155483 -77.19 0.0008425953    1.379    0.275
       229 -10.1899    199.8075    171.7874   9.0993211847e+01   8.5413086306e+00     0.196916    0.1654516  24.35 0.0003806129    1.154    0.133
       230 -10.2323    110.0759    171.0098   1.0859025336e+02   2.5588856023e+01    0.2040772    0.1362556  75.75 0.0004373585    1.627    0.385
       231 -10.4871     63.4659    171.0262   1.1793468058e+02   3.2383314727e+01    0.2176664    0.1303279  59.28 0.0005250387    1.522    0.343
       232  -9.7306     31.5323    170.5212   1.2400952792e+02   3.6120283667e+01    0.1128763   0.08079892  82.11 0.0001231425    1.055    0.052
       233  -9.9506     19.7880    170.1793   1.2615123050e+02   3.7327318163e+01    0.1411372    0.1061618 -72.65  0.001078211    1.366    0.268
       234  -9.9815    114.1302    168.7902   1.0743407611e+02   2.5352047259e+01    0.2034938    0.1584602  75.44 0.0006061147    1.225    0.184
       235 -10.2724      2.1265    168.7943   1.2922787270e+02   3.9124076103e+01    0.1659328   0.09529325 -63.54  0.000612976    1.805    0.446
       236 -11.6608     46.6980    166.3318   1.2073198630e+02   3.5338782252e+01    0.3126256    0.2040978  60.53   0.00102556    1.383    0.277
       237  -9.6724    121.6808    167.2964   1.0565395434e+02   2.4353811835e+01    0.1357795   0.09371008  75.58 0.0004335666    1.613    0.380
       238 -10.6277     73.3698    165.6443   1.1533658841e+02   3.2180521817e+01    0.1944404    0.1202486  74.05 0.0009852671    1.620    0.383
       239 -10.8361     59.0622    165.8980   1.1824554023e+02   3.3972183745e+01    0.1794096    0.1390913  83.05 0.0004779898    1.034    0.033
       240  -9.6411     82.6902    165.7027   1.1344430642e+02   3.0873482006e+01    0.1090214    0.0972997 -38.00 0.0002669862    1.595    0.373
       241 -12.3495     23.9796    163.9891   1.2489512978e+02   3.8160546301e+01    0.2182499    0.1643989  74.31 0.0004410204    1.132    0.117
       242 -11.3270    141.1923    161.1543   1.0058604971e+02   2.2000986531e+01    0.2574843    0.2049779  55.18 0.0003695209    1.160    0.138
       243 -10.2243     75.8068    162.1466   1.1440132158e+02   3.2567586968e+01    0.1870859    0.1417121  85.48 0.0005042948    1.152    0.132
       244  -9.4763     32.7544    162.5912   1.2309515646e+02   3.7584792150e+01    0.1073333   0.06974448 -58.62 0.0006929612    1.706    0.414
       245 -10.7738     45.4320    159.3732   1.2028154593e+02   3.6901677164e+01    0.2594382    0.2044114 -44.80  0.001234432    1.811    0.448
       246 -11.4662     35.8510    158.7752   1.2213649040e+02   3.8046215699e+01    0.5402752     0.171408  55.55  0.002378906    3.443    0.710
       247 -10.0757     18.7521    160.7736   1.2563051514e+02   3.9285691861e+01    0.1501061    0.1148452 -87.55 0.0007954722    1.117    0.105
       248 -11.1765    248.0833    157.8007   7.9580695976e+01   1.0584233845e+00    0.2730719    0.1803442 -19.92  0.000777232    1.509    0.337
       249  -9.2822    149.2396    159.3094   9.8583993108e+01   2.0808731368e+01    0.1250837    0.1088399  -5.37 0.0001839192    1.497    0.332
       250 -10.9199    107.9996    158.4231   1.0710849821e+02   2.8459656164e+01    0.3742061    0.2017732  42.66  0.001593228    1.855    0.461
       251 -12.0392     96.3652    153.8797   1.0889086262e+02   3.1273360282e+01    0.3763314    0.2650785 -61.28 0.0004964689    1.381    0.276
       252  -9.1801     27.9607    158.0000   1.2362188298e+02   3.8989065260e+01    0.1535432   0.05981549  34.89 0.0008005051    2.929    0.659
       253 -10.7170     52.1636    155.5721   1.1849894848e+02   3.6926960267e+01    0.2214539    0.1433393 -71.66 0.0006568831    1.329    0.248
       254  -9.7122    164.4869    155.4579   9.4709535244e+01   1.8491978323e+01    0.1408827    0.1302345  56.43 1.421975e-05    1.018    0.017
       255 -10.2812     71.0454    154.5085   1.1441039121e+02   3.4802065078e+01    0.1781541       0.1416 -81.64 0.0003046595    1.086    0.079
       256 -10.7710     12.0459    157.1636   1.2662872406e+02   4.0591577768e+01    0.2445633    0.1021443 -66.61 0.0007641608    1.988    0.497
       257 -10.5759     65.5066    152.2536   1.1529642568e+02   3.5998963943e+01     0.195646      0.16816  81.70 0.0002047503    1.097    0.088
       258  -9.4793    137.4880    151.4820   9.9599428920e+01   2.4599496955e+01    0.1383135    0.1284637  70.28 7.353751e-05    1.017    0.017
       259  -9.6682     51.9688    149.4879   1.1783754368e+02   3.8226713352e+01     0.153968    0.1094802  48.68 0.0003802501    1.474    0.322
       260 -10.2810    226.1843    148.6007   8.1382306703e+01   6.7433051344e+00    0.1980471    0.1205148  36.89 0.0003792899    1.598    0.374
       261  -9.4183     91.9438    147.9842   1.0893781418e+02   3.3198723371e+01    0.1539728    0.1323386 -86.98 0.0009578452    1.026    0.025
       262 -10.9346     36.0176    145.7354   1.2079367042e+02   4.0735894742e+01    0.2980527    0.1384459 -71.92 0.0007065702    1.751    0.429
       263 -11.2628      4.7610    143.3927   1.2700255251e+02   4.3949654456e+01    0.2134706    0.1195281 -72.22 0.0001990273    1.403    0.287
       264 -10.5587     16.6824    142.6956   1.2452795374e+02   4.3147794853e+01    0.1812954    0.1436735  -3.55   0.00129573    2.212    0.548
       265 -10.6918    132.3131    140.4018   9.8590042124e+01   2.7830045746e+01    0.2439292    0.2155992 -87.60 0.0004216323    1.125    0.111
       266  -9.8391     72.8372    140.1596   1.1200919409e+02   3.7624902399e+01    0.1622646    0.1417409 -56.30 0.0004785934    1.301    0.231
       267  -9.4267     65.9781    139.2240   1.1342374423e+02   3.8725843109e+01    0.1427834   0.09862784  45.17 0.0008425688    1.548    0.354
       268 -10.0844     34.7417    138.5771   1.2028819612e+02   4.2376022371e+01    0.2066544    0.1165059  84.74  0.001158899    1.725    0.420
       269 -10.7851     94.5583    136.8625   1.0650450105e+02   3.5176974239e+01    0.2959608    0.2008933 -44.63  0.001038841    1.690    0.408
       270 -10.7180     49.9712    136.3336   1.1664199205e+02   4.1264208073e+01    0.3895938    0.1880868 -47.74  0.001549363    2.560    0.609
       271 -10.1722     55.0380    136.2107   1.1548040627e+02   4.0713183042e+01    0.1629142     0.136659  88.38            0    1.062    0.058
       272 -10.5554     23.9034    136.1237   1.2237632482e+02   4.3901648621e+01     0.175741    0.1209253  79.45 0.0004091443    1.268    0.211
       273 -11.0782     40.1211    133.0942   1.1845256878e+02   4.3012873638e+01    0.3795033    0.1856297  77.87  0.001504968    2.656    0.624
       274 -11.9573     27.6598    131.6499   1.2107644950e+02   4.4516176349e+01    0.3975054    0.2115816  72.29  0.001591058    2.019    0.505
       275 -10.6529      9.5844    131.4927   1.2500900749e+02   4.6037800454e+01    0.2432804     0.135049 -55.96 0.0007718748    1.832    0.454
       276 -10.6157     47.4267    131.6728   1.1660754233e+02   4.2552864233e+01    0.2065108    0.1519439 -30.37 0.0007896977    2.106    0.525
       277 -10.4423     91.0270    127.4729   1.0565112077e+02   3.7769133139e+01    0.2597302    0.2260002  -1.60  0.001339537    1.624    0.384
       278  -9.0510    156.6790    127.2742   9.0373215611e+01   2.5538791068e+01    0.1470277    0.1155093  85.26 0.0002560752    1.574    0.364
       279 -10.0598     30.0605    125.7344   1.1985142078e+02   4.5566078081e+01    0.1498248    0.1265442 -86.49 0.0003219757    1.121    0.108
       280  -9.8937      3.4229    124.8333   1.2574022712e+02   4.7865335441e+01    0.1544947   0.07223783 -67.30 0.0004377379    1.629    0.386
       281  -9.6569     82.1212    124.3476   1.0722959643e+02   3.9786550430e+01    0.1891243    0.1108933  52.74 0.0009466255    1.828    0.453
       282  -9.9359     39.4510    121.9808   1.1717237065e+02   4.5488246126e+01    0.1854103   0.09529701 -68.39  0.001019108    1.566    0.361
       283  -9.2870    123.4673    121.4160   9.6649621495e+01   3.3493067286e+01    0.1425399    0.1326907 -89.60 9.408942e-05    1.036    0.035
       284 -11.2754     67.4551    119.6977   1.1000626839e+02   4.2815920865e+01    0.3938443    0.1776941 -42.54  0.001626178    3.056    0.673
       285 -11.4563     20.3062    119.3322   1.2136163685e+02   4.7776019818e+01    0.4285443    0.2237193  69.87  0.002403857    2.164    0.538
       286 -10.2033     18.9783    114.9493   1.2116331990e+02   4.8820589258e+01    0.1623762    0.1182654 -75.58 0.0004537379    1.048    0.046
       287  -9.3907     93.4288    119.4902   1.0353588607e+02   3.9145445752e+01    0.1870962    0.1252965  54.25 0.0005579206    1.588    0.370
       288 -10.3234     91.7165    116.6540   1.0339188532e+02   4.0038077673e+01    0.3298042     0.170043  36.87  0.001496768    2.229    0.551
       289 -10.2289     10.5979    117.7763   1.2344500851e+02   4.8845531872e+01    0.1925118    0.1061796 -82.84 0.0007122742    1.437    0.304
       290  -9.5383     55.0088    117.7601   1.1276591319e+02   4.4755425644e+01    0.1386576    0.1042724  41.80  0.000440824    1.531    0.347
       291  -9.5712    100.7266    116.6731   1.0115163413e+02   3.8578598696e+01    0.1333291    0.1060585 -29.21 0.0003350897    1.584    0.369
       292  -9.7625    138.7466    115.6061   9.1709693414e+01   3.1683938784e+01    0.1921498    0.1388025  57.68 0.0002777218    1.453    0.312
       293 -10.6404     60.0177    113.2609   1.1076023213e+02   4.5163437076e+01    0.2655895    0.1645594 -78.39 0.0005287497    1.610    0.379
       294 -11.1178      5.5013    113.5617   1.2419004330e+02   5.0087348844e+01    0.3172838    0.1597899  84.66 0.0008151853    1.922    0.480
       295 -11.4435      2.9620    107.8091   1.2419198492e+02   5.1463245849e+01    0.2942153    0.1726342 -89.63 0.0003973985    1.436    0.304
       296 -11.8458    149.8160    111.2529   8.8083554039e+01   3.0228320624e+01    0.2536747     0.244351 -66.80 0.0002399732    1.032    0.031
       297 -10.4508     37.8715    111.8317   1.1612527642e+02   4.7859477552e+01    0.1766743    0.1291472 -86.21            0    1.221    0.181
       298 -10.9503     37.9453    108.5068   1.1560925033e+02   4.8580854170e+01    0.2601652    0.1773075 -82.28 0.0005753941    1.310    0.236
       299 -10.1845     73.2097    111.5433   1.0707591721e+02   4.3864732774e+01    0.2261903    0.1212724  44.64  0.001117051    2.034    0.508
       300 -10.1486     85.9957    109.7523   1.0342666839e+02   4.2437014722e+01    0.2642056    0.1434237  59.80  0.001152113    2.457    0.593
       301 -10.7397     20.6073    109.4880   1.2009779536e+02   4.9867493371e+01     0.248241    0.1631448 -47.66  0.001620549    1.662    0.398
       302  -9.9940     65.4561    109.1964   1.0863388842e+02   4.5396343321e+01    0.1836619    0.1447521 -65.04 0.0002903123    1.084    0.078
       303  -9.9912     63.3718    105.6798   1.0851742592e+02   4.6435385509e+01    0.2045179    0.1388477  81.84 0.0007489996    1.780    0.438
       304 -11.5384    112.7712    105.0390   9.5503415827e+01   3.8995777813e+01    0.2354913    0.2242017 -60.76 0.0002302769    1.036    0.034
       305  -9.8751      8.7977    106.0254   1.2258205054e+02   5.1464287765e+01    0.2122031    0.1134622 -78.59  0.001308837    1.449    0.310
       306 -10.4208      9.3150    100.2342   1.2176312982e+02   5.2662997589e+01    0.2541795    0.1679393  84.29  0.001723478    1.431    0.301
       307  -9.8642    123.5015    103.0685   9.2323483333e+01   3.7378891564e+01    0.2269679    0.1389145 -50.86  0.001020813    1.587    0.370
       308 -10.0060     76.3380    103.3036   1.0460683734e+02   4.5260132241e+01    0.1304778   0.09862435 -29.78 0.0007038961    1.671    0.401
       309 -10.8708     70.7362    101.8369   1.0579834909e+02   4.6344757846e+01    0.2630728    0.1870196 -45.36 0.0003487937    1.408    0.290
       310 -11.7797     52.0170    101.5638   1.1076820073e+02   4.8669748263e+01    0.5482011    0.3569392 -25.43  0.002888939    2.401    0.583
       311 -11.7411     58.7756    100.2065   1.0869402229e+02   4.8200520390e+01    0.2312099    0.2085299 -72.62   0.00027492    1.085    0.079
       312 -11.1819     43.3432    102.4112   1.1322798930e+02   4.9393041871e+01    0.3015522    0.1648654 -61.53 0.0003514625    1.467    0.318
       313  -9.4030     29.4273    103.4385   1.1703756440e+02   5.0457511887e+01    0.1181469    0.0914111 -74.34 0.0001440444    1.014    0.014
       314 -10.7875    134.9860    101.0466   8.8983171595e+01   3.5474758971e+01    0.3174817      0.20903 -37.80  0.001011194    1.566    0.361
       315 -10.1929     18.9416    103.3674   1.1971890874e+02   5.1314467034e+01    0.2298203    0.1456688  60.53 0.0008239182    1.776    0.437
       316 -11.0199     85.8192     98.0302   1.0090576196e+02   4.5041927706e+01    0.4175802     0.244332 -40.56   0.00199043    1.834    0.455
       317 -10.3802     37.0000    100.0113   1.1451354691e+02   5.0531598934e+01    0.2085636   0.05574894 -64.91 0.0008078818    2.980    0.664
       318 -12.8544    106.2905     97.6792   9.5371497667e+01   4.1745659042e+01    0.3018235    0.2798154  62.41 0.0006044083    1.140    0.123
       319  -9.7615     16.0257     98.6673   1.1983806360e+02   5.2539428345e+01    0.1515106    0.1203065 -75.99 0.0004775141    1.061    0.057
       320  -9.4584     79.4882     96.4932   1.0227351683e+02   4.6313994151e+01    0.1347864    0.1183046 -58.53 0.0001934827    1.027    0.026
       321 -10.7815     62.8190     96.0217   1.0675075119e+02   4.8637746375e+01    0.2018295    0.1812464  73.48 0.0003670204    1.215    0.177
       322 -10.4055      1.3996     92.7322   1.2288110158e+02   5.4736715494e+01    0.1988383    0.0816345 -76.56 0.0005827488    1.899    0.473
       323 -10.2976     54.0287     92.5059   1.0847615286e+02   5.0441568432e+01    0.1612421     0.126352  37.01 0.0006352867    1.523    0.343
       324  -9.8101     17.9956     91.9792   1.1836800183e+02   5.3836613009e+01    0.1296437    0.1124519 -74.78 0.0006093282    1.152    0.132
       325 -11.4911      6.8192     90.2561   1.2113670735e+02   5.4943345040e+01    0.3538417    0.2037247  67.27  0.001822833    2.071    0.517
       326 -10.8432    115.6445     90.2075   9.0983166609e+01   4.1601814188e+01    0.2703484    0.2367133  21.41 0.0009029788    1.303    0.232
       327  -9.9749    105.9677     91.2886   9.3825933390e+01   4.3166482799e+01    0.1907912    0.1810528  56.57 0.0002055013    1.127    0.113
       328 -10.3243     88.5237     89.1825   9.8038235023e+01   4.6546636110e+01    0.2398342    0.2042409  39.13  0.001185797    1.315    0.239
       329 -10.1749     66.8520     88.8407   1.0406160502e+02   4.9706745603e+01     0.189099    0.1612279 -43.81 0.0004165513    1.167    0.143
       330 -10.3278     63.3226     86.9013   1.0463185552e+02   5.0573723364e+01    0.1945671    0.1773545  -4.29 0.0005533453    1.335    0.251
       331  -9.5024     77.7761     88.0330   1.0076911115e+02   4.8403746304e+01    0.1802964   0.09873329 -54.61 0.0004074041    1.608    0.378
       332 -11.4014     27.3818     86.8320   1.1493989832e+02   5.4233873259e+01    0.3415057    0.1528771 -77.05  0.001627856    2.376    0.579
       333 -10.7006     21.1112     88.1735   1.1692570609e+02   5.4428642778e+01    0.1632254    0.1221225 -59.53  0.001136796    1.138    0.121
       334 -10.5916    120.7032     85.9712   8.8500680848e+01   4.1489935005e+01    0.2090736    0.1836505 -47.11 0.0003348031    1.084    0.077
       335 -11.4050     48.9994     84.4581   1.0825019242e+02   5.2745781224e+01    0.3812216    0.2103605 -34.17  0.001884512    2.358    0.576
       336  -9.9646     53.5170     82.4717   1.0649292409e+02   5.2687138984e+01    0.1274075    0.1052096 -57.57 -3.486363e-05    1.013    0.013
       337 -10.5752      9.4941     85.5818   1.1976011375e+02   5.5772408643e+01    0.1925731    0.1520257 -87.24 0.0005786369    1.199    0.166
       338  -9.9705    128.8174     85.6252   8.6323779531e+01   3.9907641693e+01    0.2170721    0.1409423  58.70 0.0009583279    1.784    0.439
       339 -10.1699     98.2715     84.0850   9.4003106576e+01   4.6035534746e+01    0.2047199    0.1758142 -32.20 0.0008164799    1.187    0.157
       340 -10.0341    133.0526     82.7392   8.4430658320e+01   3.9588886064e+01    0.2242758    0.1994467  87.18 0.0008765307    1.282    0.220
       341  -9.7575     14.3368     83.6721   1.1811717483e+02   5.5868619747e+01    0.1134644   0.07427715  79.02 0.0007051851    1.727    0.421
       342 -11.4968     42.4738     80.4762   1.0933386400e+02   5.4269853921e+01    0.3465731    0.1224827 -58.69  0.001553684    2.198    0.545
       343 -10.4519     20.0606     82.0434   1.1621644451e+02   5.5821459142e+01    0.1748525     0.133473 -68.15  0.000376658    1.021    0.021
       344 -10.6818     77.0796     80.6909   9.9135003088e+01   5.0081736857e+01    0.2323944    0.1710888 -48.69 0.0006825492    1.191    0.161
       345 -10.0160     67.9403     78.8339   1.0135371179e+02   5.1727860707e+01    0.1967147    0.1560242 -36.57 0.0005166511    1.264    0.209
       346 -11.1260     53.2398     75.7622   1.0503048085e+02   5.4161262749e+01    0.3633243    0.2462996 -73.36  0.002055992    1.586    0.370
       347  -9.7487     49.5046     77.5187   1.0657478311e+02   5.4191136497e+01    0.1611207    0.1161307  47.99 0.0006178218    1.685    0.407
       348 -10.1903    110.9848     77.5516   8.8670968181e+01   4.5091977937e+01    0.2113278    0.1434884  43.67 0.0005064411    1.575    0.365
       349  -9.2779     98.6628     76.6881   9.1833282907e+01   4.7507009271e+01    0.1425053    0.1084204 -11.69 0.0006105422    1.688    0.408
       350 -10.4519     17.6658     75.1991   1.1573307935e+02   5.7448127907e+01    0.2196551    0.1450218 -73.06 0.0008312979    1.266    0.210
       351  -9.9613      3.9250     75.8723   1.1990559714e+02   5.8147835895e+01    0.1740099    0.1090308 -59.73 0.0005367554    1.216    0.178
       352 -10.2607     28.7451     74.2270   1.1219189165e+02   5.6830982758e+01    0.2415271     0.115049 -49.99  0.001018099    1.724    0.420
       353 -10.8802    141.3008     73.7114   7.9707648519e+01   3.9512667575e+01    0.3184885    0.2459779  -2.90  0.000147822    1.619    0.382
       354 -11.0978     80.5572     74.0005   9.6320777211e+01   5.0985340805e+01    0.2141309    0.1987138  33.43 0.0002712024    1.220    0.180
       355 -11.1300     59.3229     73.3174   1.0256713955e+02   5.3979575967e+01    0.2313365    0.1869905 -49.10  0.001451744    1.053    0.051
       356  -9.4861     69.2586     73.6584   9.9620969720e+01   5.2651716076e+01    0.1272963   0.09684444 -78.33 0.0004461293    1.587    0.370
       357  -9.9957     37.0113     71.5101   1.0906240414e+02   5.6702213944e+01    0.1560772    0.1226327  20.08  0.001038371    1.618    0.382
       358 -10.2893    117.9104     69.8106   8.4467484079e+01   4.5268889277e+01    0.2117977    0.1885522  -4.76 0.0003159251    1.197    0.164
       359 -12.2674     52.6728     68.0282   1.0329315567e+02   5.5860792246e+01    0.5147629    0.2925075 -44.55  0.001634938    1.533    0.348
       360 -10.8487      2.2492     68.6967   1.1928384873e+02   5.9735814142e+01    0.3204545    0.1625224 -78.91   0.00189433    1.769    0.435
       361 -10.0151     88.1893     68.8551   9.2575326294e+01   5.0858923639e+01    0.1916484     0.153571 -20.91 0.0004840364    1.355    0.262
       362 -10.1174     80.2424     69.6554   9.5186623394e+01   5.1931129626e+01    0.1303453   0.09975576 -71.59 0.0002020779    1.566    0.362
       363 -10.6438     58.4792     69.4865   1.0184255667e+02   5.4887242953e+01    0.2221348     0.180687 -50.54 7.926625e-05    1.027    0.026
       364 -10.8126     45.1630     68.6892   1.0583997928e+02   5.6518573654e+01     0.292845    0.1293633 -54.27 0.0009915165    1.780    0.438
       365 -11.6186     22.1651     66.9611   1.1276714949e+02   5.8871090351e+01    0.5059006    0.2565051 -77.84  0.002609109    2.259    0.557
       366 -11.1733     16.5894     66.3157   1.1440614369e+02   5.9392629368e+01    0.3791988    0.2662071  87.92  0.001431395    1.640    0.390
       367 -11.4967      9.7064     62.8501   1.1593221261e+02   6.0542130172e+01    0.2818089    0.2130023  -6.74 0.0008435877    1.751    0.429
       368 -11.8123      5.1421     59.5086   1.1677675376e+02   6.1485678421e+01    0.3869128    0.2491518 -18.59  0.001977555    2.020    0.505
       369  -9.7439     75.4479     66.5055   9.5736315079e+01   5.3278697044e+01    0.1344105    0.1158204 -42.29 6.012846e-05    1.011    0.011
       370 -10.0287    101.3599     64.0185   8.7238931679e+01   4.9560419638e+01    0.2022715    0.1678132 -35.43 0.0004163885    1.111    0.100
       371  -9.9650     73.8481     61.1509   9.4642061513e+01   5.4588933523e+01    0.2033787    0.1475231 -19.11 0.0005633198    1.604    0.377
       372 -10.7038     69.0065     60.7542   9.6057548100e+01   5.5342470395e+01    0.3626398    0.2303698  27.01  0.001161039    1.906    0.475
       373 -10.4420     39.3825     60.5861   1.0569625059e+02   5.8771497568e+01    0.2196361    0.1748321 -48.32 0.0007421153    1.038    0.037
       374  -9.7851     25.3195     61.6561   1.1060639054e+02   5.9744578886e+01    0.1131179   0.08232519  86.99 0.0005339421    1.724    0.420
       375 -10.6727     47.6338     58.6161   1.0242675323e+02   5.8352123944e+01    0.2270164    0.1678529 -45.01 0.0006303497    1.114    0.103
       376 -11.1482     30.9358     53.0413   1.0661340678e+02   6.1063487274e+01    0.4200217    0.2716508 -22.24  0.002555731    1.844    0.458
       377  -9.6416     31.6068     48.1523   1.0505676571e+02   6.1986896725e+01    0.1605342   0.08484326 -47.93 0.0009089918    1.454    0.312
       378 -10.7887     21.9325     57.0623   1.1068897080e+02   6.0943732312e+01    0.2556269    0.1870036  40.40 0.0008362603    1.774    0.436
       379 -10.2308     31.2738     58.9757   1.0799888647e+02   5.9823758903e+01    0.1709777    0.1373927 -70.76 0.0003564647    1.256    0.204
       380 -10.8250     27.5876     57.0115   1.0876288542e+02   6.0527183504e+01    0.1863457    0.1596867 -26.16  0.000323856    1.283    0.220
       381  -9.8505    110.5764     56.8834   8.2297609272e+01   4.9159661660e+01    0.2192672     0.178583  53.97 0.0007524847    1.382    0.276
       382 -11.2553    225.8481     55.7174   5.8036284769e+01   2.1322246623e+01    0.2513161    0.2331285 -40.06 0.0002591152    1.040    0.039
       383 -10.0371    137.5082     55.9059   7.4940016979e+01   4.3575116205e+01     0.228404    0.1447294 -33.50 0.0009662946    1.545    0.353
       384 -10.4053     79.0000     55.5085   9.1242975330e+01   5.4937512848e+01    0.3008102   0.06826159 -45.95 0.0009291118    3.889    0.743
       385 -10.1370     52.6005     55.7549   9.9951605204e+01   5.8387488674e+01    0.1779267    0.1055793 -59.22 0.0006926535    1.643    0.391
       386 -11.5478     41.8960     52.1236   1.0255635151e+02   6.0248795548e+01     0.355606    0.1733011 -45.12 0.0009390798    1.663    0.399
       387  -9.7565     60.7910     51.8264   9.6001281375e+01   5.8184633172e+01    0.1627568    0.1398196 -59.04 0.0006562726    1.259    0.206
       388 -10.8483      4.4271     36.5022   1.1202024897e+02   6.6131048266e+01    0.5710143    0.1469125 -61.98  0.002545789    2.895    0.655
       389 -11.7756     11.7466     39.6973   1.1006062358e+02   6.5098236145e+01    0.3814361    0.3039772 -22.93   0.00211225    1.357    0.263
       390 -12.4339     12.3964     46.4330   1.1150977904e+02   6.3728448303e+01    0.4682674    0.2538194 -71.41  0.001935942    1.837    0.456
       391 -10.6847     17.4595     46.5013   1.0970218715e+02   6.3391476497e+01     0.217112    0.1464061 -47.62 0.0005655289    1.147    0.128
       392 -10.5821    173.9842     50.3810   6.5169485691e+01   3.5514876714e+01      0.25508    0.2194795 -12.17 0.0003293885    1.220    0.180
       393 -10.9946     65.8517     50.2997   9.3814789885e+01   5.7820788297e+01    0.2850983    0.1892824 -55.90  0.001481406    1.567    0.362
       394 -10.2820    128.9496     50.0110   7.5059992723e+01   4.6503805748e+01     0.223385    0.2033328  -4.60 0.0003102813    1.075    0.070
       395 -11.2082     94.9696     49.2701   8.4201836946e+01   5.3463178477e+01     0.414264    0.3120447   5.83 0.0007587044    1.571    0.364
       396 -11.0356     73.5321     50.0410   9.1194147508e+01   5.6794508002e+01    0.2605592    0.1115474 -41.99  0.001095777    2.040    0.510
       397  -9.6955    152.8944     48.3527   6.8852001049e+01   4.1148336980e+01    0.2267457     0.127639  44.01 0.0006082028    1.805    0.446
       398 -10.5839    122.8641     46.3466   7.5337828483e+01   4.8445882585e+01    0.3069692     0.221695 -38.23  0.000839093    1.358    0.264
       399  -9.7153     76.5369     52.4818   9.1035258772e+01   5.5888405389e+01     0.134267    0.1150994 -31.44 1.140827e-05    1.022    0.021
       400  -9.8966    114.4451     47.0409   7.7827279815e+01   5.0108989699e+01    0.2118304    0.1340522 -33.37  0.000393699    1.504    0.335
       401  -9.5371    165.0012     45.9847   6.5523853156e+01   3.8479368426e+01    0.1827014    0.1684354 -23.06 0.0003608615    1.088    0.081
       402 -11.0298     61.7910     44.9372   9.3403887550e+01   5.9372953703e+01    0.2714826    0.1768893 -33.66 0.0003980043    1.374    0.272
       403 -11.3856     69.7575     42.0960   8.9698528222e+01   5.8807497271e+01    0.3802907    0.1864895 -33.10  0.001018841    2.009    0.502
       404 -10.0050     34.0346     44.2497   1.0305691702e+02   6.2542975237e+01     0.170075    0.1286329  64.42  0.001060671    2.045    0.511
       405  -9.5141     25.3844     43.7150   1.0607091557e+02   6.3370115429e+01    0.2535252    0.1756901  84.64  0.001472975    2.412    0.585
       406 -10.7708     21.4263     40.7676   1.0671180170e+02   6.4244300508e+01    0.3040869    0.1803215   4.33   0.00139179    2.271    0.560
       407 -10.7639    141.4879     42.3643   6.9364684804e+01   4.4833556169e+01     0.244109    0.2332896  13.30 0.0002005295    1.009    0.009
       408 -10.3715     80.9444     43.0887   8.6365403336e+01   5.6934641296e+01    0.1972535    0.1698053 -23.72 0.0003078872    1.015    0.015
       409 -11.0112    129.9174     37.7460   7.0465875385e+01   4.8226867179e+01    0.6757093    0.4028191  10.97  0.002631524    2.645    0.622
       410 -10.5605     91.8269     39.6690   8.1683457748e+01   5.5688754901e+01    0.3647129    0.1821974 -42.99  0.001637413    1.950    0.487
       411  -9.7739     57.0084     41.2934   9.3821726347e+01   6.0658323618e+01    0.1633755     0.146256 -22.41 0.0004114549    1.111    0.100
       412 -11.6917    103.6653     39.0211   7.7921899627e+01   5.3591626321e+01     0.247582    0.2343719 -43.15 0.0003969371    1.198    0.165
       413 -11.5158     41.5258     38.1952   9.8384519980e+01   6.2984203660e+01    0.3053478     0.181491 -26.10 0.0003985053    1.789    0.441
       414 -10.1590    186.7268     38.6109   5.9140693553e+01   3.3892906352e+01    0.2685592    0.1658662 -48.02 0.0007886537    1.750    0.429
       415 -10.1849    116.5866     38.6213   7.4193209261e+01   5.1026885731e+01    0.3369857      0.14229  56.62  0.001243424    2.865    0.651
       416 -10.4672     86.1624     37.3477   8.2573748184e+01   5.7061986768e+01    0.2427395    0.1688147 -33.99 0.0004546974    1.294    0.227
       417 -11.2542     87.3100     32.9682   8.0525855624e+01   5.7580332908e+01     0.326588    0.2427628  45.83  0.001841202    1.523    0.344
       418 -12.0771    193.9063     35.2885   5.6939485204e+01   3.2446130409e+01    0.2645502    0.2625084  51.37 0.0002747235    1.021    0.021
       419  -9.8247     72.3291     36.2965   8.6701829434e+01   5.9453515175e+01    0.1321109   0.09218531  -8.14 0.0004151034    1.635    0.388
       420 -11.0227    119.4619     34.2994   7.1824696587e+01   5.1066493313e+01    0.3277957    0.2580584 -62.31 0.0009538492    1.677    0.404
       421 -10.7183    112.8830     33.4575   7.3245998740e+01   5.2594258174e+01    0.2475515    0.1829301 -44.01 0.0005131208    1.471    0.320
       422 -11.3218     77.2330     33.1947   8.3870744020e+01   5.9219966103e+01    0.3025672    0.2374166  67.42  0.001389287    2.001    0.500
       423  -9.8695     66.3645     33.1842   8.7568075548e+01   6.0856150471e+01    0.2403924    0.1044946 -38.77 0.0007672465    1.993    0.498
       424 -10.0746     60.7352     34.0044   8.9866808014e+01   6.1488752109e+01    0.1887172     0.139244 -35.88  0.001151189    1.144    0.126
       425 -10.5166     29.2728     34.0621   1.0167857700e+02   6.4904879072e+01    0.1704694    0.1476299 -28.61 0.0004511365    1.159    0.137
       426 -11.2831    142.0157     31.8009   6.5495620577e+01   4.6234853310e+01    0.4531553     0.353914  16.64  0.002301173    1.377    0.274
       427 -11.7475    107.4227     29.1753   7.3081951018e+01   5.4352013405e+01    0.3481508    0.2623961 -22.67 0.0003932444    1.253    0.202
       428  -9.9426     45.4695     31.5586   9.4579000413e+01   6.3777347002e+01    0.1937509    0.1105757  13.47  0.001022926    2.358    0.576
       429 -10.8007     34.2330     30.3700   9.8490926676e+01   6.5139758614e+01    0.2086225    0.1931776  -2.14  0.001578708    1.289    0.224
       430 -10.5261    159.0117     29.9826   6.1330327801e+01   4.2253245090e+01    0.2187807    0.2090947  24.77            0    1.016    0.016
       431 -10.4497    206.4782     31.5128   5.3923942605e+01   2.9620637373e+01     0.277362    0.1427148  65.34 0.0005769443    1.913    0.477
       432 -11.0732     72.3814     28.3792   8.3599452136e+01   6.0761267760e+01    0.5163149    0.1633372  35.37  0.001875693    3.989    0.749
       433  -9.7813     51.1911     29.0958   9.1494730942e+01   6.3547749489e+01    0.1473394     0.127603 -42.24 0.0002739147    1.253    0.202
       434  -9.8607    127.4934    249.5388   1.1476177483e+02   9.6765004321e+00    0.1099155   0.08000658  56.18 9.981559e-05    1.005    0.005
       435 -11.0947     77.9299    248.0042   1.2222827391e+02   1.6923240040e+01    0.2590256    0.1391022 -83.11  0.001086723    1.970    0.492
       436 -11.7509     10.2419     23.4494   1.0593743609e+02   6.8265774137e+01    0.2471062     0.167824 -36.75 0.0005267886    1.179    0.152
       437 -10.8395     98.8762     27.3054   7.4768889213e+01   5.6320715823e+01    0.3092492    0.2221034  37.94  0.001436237    1.404    0.288
       438 -11.2133    242.9236     25.3535   4.7729870263e+01   2.1065613273e+01    0.2386076    0.2148547 -41.52 0.0003323214    1.078    0.073
       439 -11.8022      1.8932     25.3180   1.1001064205e+02   6.8388220080e+01    0.2770902    0.1220315 -61.25  0.001608907    1.830    0.454
       440 -11.0403    131.5137     23.1109   6.4645793738e+01   4.9879590698e+01    0.4531129    0.2372233 -17.80  0.001450474    2.118    0.528
       441  -9.8503     46.0302     24.7057   9.1754973199e+01   6.4902737488e+01    0.1638818    0.1411029 -15.81   0.00115106    1.129    0.114
       442 -11.0209    175.4901     23.3175   5.6124616141e+01   3.8816053893e+01    0.3260861    0.1988688  39.43  0.001434636    1.748    0.428
       443  -9.6597     90.2995     24.6695   7.6264984610e+01   5.8314461668e+01    0.1261851     0.103607 -57.15 0.0004727158    1.644    0.392
       444 -10.3814     60.9101     23.6263   8.5708320909e+01   6.3196330155e+01    0.2323603    0.1870924  -9.03  0.001508107    1.127    0.112
       445 -11.1772    221.9229     22.6151   4.9362731891e+01   2.6686411627e+01    0.2528899     0.193746 -40.96 0.0003431242    1.268    0.211
       446 -12.1583    117.3792     22.6183   6.7857179377e+01   5.3146943206e+01    0.3420657    0.2404729  40.34   0.00055652    1.375    0.273
       447 -10.1430    101.8290     22.1843   7.1844126585e+01   5.6460754151e+01    0.1881663    0.1728277 -14.28 0.0003788827    1.117    0.105
       448  -9.7732     78.7998     22.1770   7.8885808961e+01   6.0686190584e+01    0.1756243    0.1314301  -3.64  0.001017386    1.302    0.232
       449  -9.9770     26.5766     22.1335   9.8608054379e+01   6.7296027260e+01    0.2338105    0.1156845 -23.32  0.001206709    2.445    0.591
       450 -11.0945    190.2734     20.3777   5.2884012012e+01   3.5257532821e+01    0.2482324    0.2458442 -84.94 0.0002673562    1.034    0.033
       451 -11.8232     75.7067    240.7120   1.2203718453e+02   1.8325332419e+01    0.3954542    0.1891189  71.56  0.001232762    2.086    0.521
       452 -10.5553     37.7821     21.1617   9.3620973270e+01   6.6400351380e+01    0.2814995    0.1822208   8.83  0.001740203    1.808    0.447
       453 -10.3038     33.3391     18.3286   9.4309389480e+01   6.7323711481e+01    0.2537823    0.1819993 -66.80   0.00107363    2.285    0.562
       454 -10.9359     91.8111     19.0553   7.3461494487e+01   5.8821606982e+01    0.3649922    0.2705307  45.48  0.002085024    1.441    0.306
       455 -10.1292    198.9155     18.2251   5.1012025386e+01   3.3216227133e+01    0.2581957    0.1441341  42.64    0.0010942    1.965    0.491
       456 -12.0756    151.5404    245.1674   1.1049767047e+02   6.5354309149e+00    0.3073575    0.2418627  17.55 0.0006374984    1.823    0.452
       457 -11.3759    146.0278    242.9617   1.1114329412e+02   7.7032639653e+00    0.2407871    0.2190778 -29.78 0.0009631168    1.597    0.374
       458 -10.5834    112.2461     15.7652   6.6408369203e+01   5.5120164081e+01     0.317419    0.2319023  30.33 0.0003268675    1.319    0.242
       459 -10.8487    115.6766     15.6682   6.5504486990e+01   5.4386372948e+01    0.3371149    0.2043523  27.17  0.001591518    1.795    0.443
       460 -10.5795    148.9623    239.5393   1.1028839331e+02   7.6994249481e+00    0.1901658    0.1604386 -64.17 0.0005320375    1.498    0.333
       461  -9.9678    185.7164     13.9340   5.1523702069e+01   3.7185474482e+01    0.1955897    0.1843603 -36.93 0.0003700048    1.105    0.095
       462 -10.6330    179.9729     13.6904   5.2285472517e+01   3.8729306058e+01     0.210398    0.1778475  68.46 0.0005007805    1.135    0.119
       463 -10.5208    111.3698    246.5743   1.1700637679e+02   1.2489404942e+01     0.210736   0.09503248 -56.31  0.001250331    2.803    0.643
       464 -11.8716    137.4646    246.5898   1.1289752466e+02   8.5537241335e+00    0.3491504    0.1487307  45.25  0.001602695    1.801    0.445
       465 -10.6717    148.4845     12.9895   5.7336837860e+01   4.6941064224e+01    0.2778123    0.1740052  44.86  0.000653332    1.507    0.336
       466 -11.3327    200.2620    245.0312   1.0264817632e+02  -1.3030260125e+00    0.1953286    0.1570305  38.05 0.0003265097    1.082    0.076
       467  -9.9448     32.0510     12.5142   9.2426054732e+01   6.8399930257e+01    0.1499005    0.1070528  19.04 0.0009938561    1.565    0.361
       468 -11.7758    198.8777    240.2853   1.0224008252e+02  -5.4605510662e-01    0.4262285    0.1529886  46.80 0.0009079176    2.205    0.546
       469 -10.1728    121.2917    247.7103   1.1555960387e+02   1.0861443944e+01    0.1655041    0.1068592  52.52 0.0003723597    1.150    0.131
       470 -11.6220     98.9198    245.3082   1.1883023055e+02   1.4463606124e+01    0.4097288    0.1640001  57.07  0.002284772    2.090    0.522
       471  -9.6172     85.9499    245.4512   1.2083124024e+02   1.6236936874e+01    0.1472465   0.05864306  60.37 0.0005025226    2.236    0.553
       472  -9.5207    246.7015     10.6655   4.3604417226e+01   2.1835067437e+01    0.1326462    0.1015322  31.79 0.0002394769    1.651    0.394
       473 -12.4850     46.5760    247.0213   1.2674369095e+02   2.0948965930e+01    0.2549731    0.1514395  79.61 0.0004914852    1.325    0.245
       474 -11.4423     63.0030    243.4983   1.2414153735e+02   1.9517445236e+01    0.1901326    0.1436051  71.18 0.0006301141    1.149    0.130
       475 -10.8159    180.8907    243.3998   1.0555572242e+02   2.0268927014e+00      0.22378    0.1493271  20.63  0.001402224    1.936    0.483
       476 -11.1348     91.9396    242.6809   1.1969404826e+02   1.5833132864e+01    0.2603844    0.1686904  46.80  0.001501348    1.410    0.291
       477 -10.7932    191.7048    241.4189   1.0355224237e+02   4.9638594168e-01    0.2301729    0.1968013 -54.13   0.00099169    1.607    0.378
       478 -11.3056    129.9083    242.4284   1.1368020310e+02   1.0296680487e+01    0.1966456    0.1602958 -81.56  0.001516125    1.417    0.294
       479 -10.1668    246.1313    241.7001   9.4932510528e+01  -8.1887199806e+00    0.1547524    0.1326541  11.39 0.0002346142    1.266    0.210
       480 -11.7948    122.9816    241.3501   1.1468253404e+02   1.1510343105e+01    0.3791446    0.1467337  47.96  0.002040914    1.954    0.488
       481 -10.6102    116.7503    238.7685   1.1543109073e+02   1.2829124830e+01    0.2392197    0.1372543  64.54 0.0008141952    1.601    0.375
       482  -9.8778     55.0391    241.0291   1.2516249538e+02   2.0876750506e+01    0.2482753    0.1049046 -89.91  0.001262729    2.633    0.620
       483 -11.3620    102.3684    240.3739   1.1786968291e+02   1.4706927752e+01    0.2353417    0.1496167  52.01 0.0002258588    1.226    0.184
       484 -10.7853    167.9920    238.6305   1.0706702264e+02   4.7296506373e+00    0.1965136    0.1684913 -60.27 0.0007762789    1.515    0.340
       485 -11.7171    141.9058    238.9177   1.1137053993e+02   8.9115298549e+00    0.3832958     0.190125  47.95 0.0009929995    1.538    0.350
       486 -10.9696     95.9004    238.7128   1.1874595304e+02   1.5881314269e+01    0.4187697    0.1750443  62.11  0.002226595    2.383    0.580
       487 -10.7636     92.6772    233.0854   1.1877507849e+02   1.7209205928e+01    0.5351375     0.137004  55.48  0.002087689    4.147    0.759
       488 -10.4946     87.3515    231.3557   1.1947999305e+02   1.8227316584e+01     0.228525    0.1129625  65.87  0.000515251    1.895    0.472
       489 -10.0004    162.6202    239.1851   1.0801435548e+02   5.5363503990e+00     0.125374    0.1088367 -25.41 0.0004738589    1.605    0.377
       490 -10.7890    109.9602    238.9310   1.1653434095e+02   1.3816671731e+01    0.1953654    0.1323443  58.40 0.0003644799    1.103    0.094
       491 -10.4697    106.1179    235.5640   1.1683873051e+02   1.4890840336e+01    0.2088593    0.1310179  87.62 0.0009688783    1.759    0.431
       492 -10.3079     83.6464    238.0449   1.2061067531e+02   1.7680887660e+01    0.2001165    0.1044201  59.23 0.0005515471    1.481    0.325
       493 -11.1047     44.3281    236.6659   1.2647893334e+02   2.2828377061e+01    0.3583191     0.135186  57.62  0.001753269    1.987    0.497
