#   1 NUMBER                 Running object number                                     
#   2 MAG_AUTO               Kron-like elliptical aperture magnitude                    [mag]
#   3 X_IMAGE                Object position along x                                    [pixel]
#   4 Y_IMAGE                Object position along y                                    [pixel]
#   5 X_WORLD                Barycenter position along world x axis                     [deg]
#   6 Y_WORLD                Barycenter position along world y axis                     [deg]
#   7 A_WORLD                Profile RMS along major axis (world units)                 [deg]
#   8 B_WORLD                Profile RMS along minor axis (world units)                 [deg]
#   9 THETA_WORLD            Position angle (CCW/world-x)                               [deg]
#  10 FWHM_WORLD             FWHM assuming a gaussian core                              [deg]
#  11 ELONGATION             A_IMAGE/B_IMAGE                                           
#  12 ELLIPTICITY            1 - B_IMAGE/A_IMAGE                                       
         1 -14.1098    230.3328     56.8857   3.5934352267e+02   2.3106000869e+01     1.147012     1.090991  41.05  0.006384526    1.391    0.281
         2 -13.7584    238.2789     51.4985   3.5749892206e+02   2.2381804435e+01     2.626379     1.128179  42.44  0.001514735    5.219    0.808
         3 -13.3091    249.4542     42.9853   3.5488945601e+02   2.1500650765e+01     1.394243    0.5741803 -25.37  0.005975255    2.820    0.645
         4 -12.8056      4.1642     23.7822   5.6955810391e+01   7.4736555176e+01    0.6802007    0.5760829  50.95  0.004315421    1.491    0.329
         5 -12.2344     16.1720      4.2563   3.5120987172e+01   7.7217156618e+01    0.4449568    0.3746471  38.81  0.002902669    1.376    0.273
         6 -13.0936      3.9180      8.2529   4.9412717381e+01   7.7922003969e+01    0.9023719    0.7939391 -42.16  0.006181331    1.221    0.181
         7  -9.6689    158.1022      8.8619   3.5377387626e+02   4.4246837258e+01     0.204958    0.1486489 -64.78 0.0003906956    1.237    0.191
         8  -9.3509     67.3199      1.6603   6.0787044187e+00   6.7393814588e+01    0.1328607   0.09724732 -66.16 0.0007049898    1.714    0.417
         9  -9.1711     54.4833    240.4995   6.8954328632e+01   1.6787628941e+01    0.2610177    0.1094211  18.38 0.0007494221    2.658    0.624
        10 -11.0214     74.2625    246.1846   6.4989825920e+01   1.3636756069e+01    0.3567479    0.3055426  89.90  0.002557965    1.405    0.288
        11  -9.7601     34.0361    249.2594   7.3914370862e+01   1.7193452993e+01    0.1919525    0.1788089  35.35 0.0008668572    1.235    0.191
        12 -13.6041     47.1234    144.3178   6.1920775505e+01   3.9783812337e+01     0.965429    0.6275335  -8.13  0.001475306    2.167    0.539
        13 -12.3053     76.0039    131.6658   5.0242417821e+01   3.9223938084e+01    0.5208718    0.3660784 -64.53  0.000396535    1.437    0.304
        14 -14.2097      8.0310    243.6801   7.9224970975e+01   2.0543609926e+01     1.400197    0.8900465 -88.57  0.003993654    1.670    0.401
        15 -12.4938     42.5388    160.6539   6.5355367518e+01   3.6009094954e+01     0.855415    0.5112582 -10.16  0.002185783    2.586    0.613
        16 -12.1772     49.5638    156.3302   6.2675960000e+01   3.6341178191e+01    0.6536024    0.4042576  72.88  0.000893609    1.847    0.459
        17 -15.6771     11.5240    206.9491   7.7175922456e+01   2.7763513942e+01     5.405202     2.097908  15.02   0.02297554    3.089    0.676
        18 -10.7359     73.1274    228.2819   6.3765750472e+01   1.7089936715e+01    0.2802969    0.2281734 -27.85  0.001032721    1.512    0.339
        19 -12.1420    126.5816    229.0995   5.1747860817e+01   1.0505653702e+01     0.391325    0.2529274  25.85  0.002305579    1.302    0.232
        20 -10.3933     76.9412    229.4240   6.2982112966e+01   1.6432725945e+01    0.2317966    0.1797473 -84.37 0.0005473901    1.548    0.354
        21 -11.6705     57.8759    231.1354   6.7532168696e+01   1.8222548297e+01     1.025488      0.27035 -73.33  0.003733443    4.905    0.796
        22 -10.2950    140.4019    207.2632   4.5774385355e+01   1.2572028834e+01    0.3855986      0.20758 -60.47 0.0008736077    2.641    0.621
        23 -14.3970     68.8239    144.8441   5.4925601050e+01   3.6861479703e+01       4.3805      2.19271  88.32  0.002532865    3.947    0.747
        24  -9.4962    171.1464    198.7081   3.7953459209e+01   9.9126377211e+00    0.1869994    0.1618109 -36.76 0.0005411072    1.303    0.233
        25 -10.2570     56.4816    235.5030   6.8164583756e+01   1.7525532340e+01    0.2299104    0.1616745  61.18 0.0008925023    1.409    0.290
        26 -10.9558    148.0475    229.7164   4.7275456950e+01   7.7687146098e+00    0.3302079    0.1638063 -47.22  0.001752093    2.257    0.557
        27  -9.2877     64.4681    183.4644   6.1502525309e+01   2.7794165461e+01    0.2164309    0.1315753 -88.71 0.0005077347    1.987    0.497
        28 -11.4252     99.0231    181.0340   5.1843118288e+01   2.3716128897e+01    0.3193638    0.2918056  23.48 0.0006652705    1.043    0.041
        29  -9.4108    115.6827    181.3029   4.7607339646e+01   2.1212000191e+01    0.1395357    0.1055331  60.98 0.0002670299    1.623    0.384
        30  -9.2536    158.9877    178.9189   3.7101539128e+01   1.5140235106e+01     0.197007    0.1652884  -9.11 0.0003988218    1.118    0.105
        31  -9.9689    157.6093    174.0287   3.6516804290e+01   1.6268011608e+01    0.3989747    0.1810316 -54.30  0.001594586    2.826    0.646
        32 -13.7285      8.0633    180.4995   7.6909213877e+01   3.4159439956e+01    0.7634048    0.6342627   5.18  0.001825219    1.441    0.306
        33 -13.1560    230.4819    171.0460   2.2620036276e+01   6.4648170714e+00     2.501728    0.7285062 -27.82  0.007075204    6.942    0.856
        34 -11.0472     98.8867    169.4384   5.0087849603e+01   2.6378584216e+01    0.7378809    0.1920598  39.81  0.002194075    3.486    0.713
        35  -9.8177    196.7772    165.1628   2.7096360997e+01   1.1938302865e+01    0.2628169     0.157719 -47.10  0.001284738    1.787    0.440
        36  -9.4695    154.7804    163.4123   3.5145798258e+01   1.8761055348e+01    0.2760771    0.1906957  24.33  0.001414004    1.498    0.332
        37 -12.0546     62.3418    149.3012   5.7687832911e+01   3.6585688081e+01    0.3344675     0.292361  40.63 0.0003436799    1.116    0.104
        38 -12.7184    110.4574    229.7191   5.5373740305e+01   1.2380504839e+01    0.7680599    0.2461589  31.88  0.003238734    2.484    0.597
        39 -11.7664    243.2656    150.4492   1.7013770409e+01   7.7973656048e+00    0.2689331    0.2519638  64.49 0.0007910379    1.630    0.386
        40 -10.5162    248.9244    140.8746   1.4481796429e+01   8.4181246826e+00    0.1738102     0.161279  20.80 0.0009381193    1.381    0.276
        41  -9.1751    133.2934    143.0733   3.6075481331e+01   2.6649443810e+01    0.2060486    0.1304358 -57.77 0.0004525404    1.770    0.435
        42  -9.3592    119.2936    239.6822   5.4560393328e+01   9.5989258931e+00    0.1163681   0.08281544  49.41 0.0002166133    1.605    0.377
        43 -10.0908     89.0200    134.6954   4.6686878686e+01   3.6369972495e+01    0.3153237    0.2787316  28.11 0.0007642589    1.155    0.134
        44  -9.5532     93.0625    132.1245   4.4909788519e+01   3.6334665123e+01    0.3502959    0.2527636   1.85  0.001531451    1.897    0.473
        45  -8.8643    206.9105    135.5076   1.9465974054e+01   1.5309888796e+01    0.1615509    0.1282346  38.48 0.0003912818    1.448    0.309
        46  -8.6439    211.7172    133.6917   1.8327533323e+01   1.4844201594e+01    0.1261721   0.08991797 -10.84 0.0003520533    1.564    0.361
        47  -9.7669    105.5446    130.2394   4.0767241664e+01   3.4607168304e+01    0.2977636    0.2554942 -51.10  0.001072383    1.159    0.138
        48  -9.8950    103.4611    126.5829   4.0562366325e+01   3.5863009260e+01    0.3877436    0.2954772  12.99  0.001397653    1.599    0.375
        49 -16.1202     18.6932    170.0625   7.3327509175e+01   3.5887325729e+01      8.24167      2.61228  89.02    0.0273913    3.867    0.741
        50  -8.7874    138.8009    122.4187   3.0060793294e+01   3.0078221410e+01    0.1493624    0.1096661 -66.09 0.0006771709    1.651    0.394
        51 -11.4767     89.8180    121.2206   4.3551743099e+01   3.9613787563e+01    0.3809254    0.2828816  25.43 0.0008212994    1.465    0.317
        52 -10.0550     35.9410    117.9488   6.2120264751e+01   4.8156772665e+01    0.2219237    0.2045232  89.16   0.00042555    1.035    0.034
        53  -9.6878     90.2268    237.9851   6.0751926246e+01   1.3307751360e+01    0.2199012     0.145888 -62.81 0.0007951487    1.833    0.454
        54  -9.6363    102.4744    115.9682   3.8366550661e+01   3.8598593329e+01    0.2103099    0.2060557  45.91 0.0001692361    1.032    0.031
        55 -11.2467     16.8247    114.5823   6.9103435433e+01   5.0779276700e+01    0.2820853    0.2395384  86.82 0.0009381215    1.104    0.094
        56 -10.1056     27.9042    231.9613   7.4443597324e+01   2.1067208140e+01    0.2270176    0.1368129  38.63 0.0003799158    1.302    0.232
        57 -10.4331    204.8878    110.5838   1.4430435512e+01   1.9750129440e+01    0.3146919    0.2374018  33.28  0.001068575    1.591    0.371
        58  -8.8084    187.5786    110.4727   1.7189753816e+01   2.2917067070e+01    0.1377855    0.1203274 -39.71 0.0001336897    1.028    0.027
        59 -10.1593     23.9814    105.2115   6.4969670919e+01   5.2780845921e+01    0.2525345    0.2006602 -72.33 0.0006131727    1.162    0.140
        60  -9.3696    167.6651     90.7072   1.5868613162e+01   3.0384945810e+01    0.1397917    0.1124959   8.58 0.0003340253    1.639    0.390
        61 -10.3010     76.8155     89.8184   4.0045490488e+01   4.9722076679e+01    0.2773223    0.2564415 -72.43 0.0004074538    1.109    0.098
        62  -9.3686     74.4405     86.5340   3.9984068912e+01   5.0946238361e+01    0.2369914    0.2229803  83.47  0.001254295    1.119    0.106
        63  -9.8480     54.3401    230.1582   6.8278976422e+01   1.8791475946e+01    0.3139453     0.192953 -62.02  0.001792472    1.886    0.470
        64  -8.8343    115.6967     81.3721   2.4934884344e+01   4.3636207669e+01    0.1611305     0.119624 -78.49 0.0007031505    1.755    0.430
        65  -9.2459    184.8627     77.5279   9.6063208484e+00   2.9001072472e+01     0.212162    0.1634267 -41.86 0.0005611699    1.152    0.132
        66  -8.7839     70.3228     78.3085   3.9086407236e+01   5.3651143891e+01      0.15531    0.1195402 -13.33 0.0004229577    1.647    0.393
        67 -11.4239     61.9135    225.7903   6.6182073255e+01   1.8839034640e+01    0.7590926    0.1880206 -63.10  0.002934549    4.039    0.752
        68 -10.5821     21.2311     70.9402   5.9920600412e+01   6.2184798718e+01    0.2880109    0.2276697  74.52 0.0008031474    1.457    0.313
        69 -11.1458    211.7867    248.5274   3.7934043860e+01  -1.8370705607e+00    0.2434344     0.141614  -8.49  0.001647169    1.514    0.339
        70 -11.2465    137.6472    248.6628   5.1748554878e+01   6.0398009609e+00     0.388382    0.1442056  40.55  0.001786915    2.777    0.640
        71  -8.9394     90.6796    248.6790   6.1627455339e+01   1.1385962233e+01    0.1153482   0.08349407  -6.65 0.0003019094    1.670    0.401
        72  -9.1603     65.6413     58.2930   3.4103584149e+01   5.9005665482e+01     0.149433    0.1174631  76.57 0.0004650143    1.695    0.410
        73  -9.4071     19.2422     52.6139   5.6232887106e+01   6.6944511070e+01    0.1845276    0.1271795   0.70 0.0009443739    1.575    0.365
        74 -11.0639     28.0149    237.4861   7.4677262976e+01   1.9973138530e+01    0.3130595    0.2266456 -71.96 0.0009367676    1.610    0.379
        75 -11.2827      3.0026     38.1246   6.2782561680e+01   7.1562442839e+01    0.3504932    0.2587658  50.14  0.001166789    1.662    0.398
        76  -9.9429     45.0143     69.7105   4.7493482886e+01   5.9801052011e+01    0.2029809    0.1897677  11.06 0.0004485643    1.092    0.084
        77  -8.7705     86.3120     27.7129   1.3514385303e+01   5.9905747461e+01    0.1396938    0.1082303 -76.78 0.0002471088    1.580    0.367
        78  -9.3096     57.0000    247.3997   6.8851060006e+01   1.5255778233e+01    0.2087491   0.06709711 -71.75  0.000916167    3.786    0.736
        79 -10.0992     50.8002    240.4194   6.9770384020e+01   1.7183086109e+01    0.2811389     0.150065 -73.65  0.001182509    2.194    0.544
        80 -10.3358    101.7023    242.0030   5.8610315572e+01   1.1271075585e+01    0.1633981    0.1467651  26.17  0.001163773    1.113    0.101
        81 -10.6707     22.1389     25.1242   4.3363009636e+01   7.2716784519e+01    0.2077998    0.1641956 -13.92  0.000542709    1.220    0.180
        82  -9.7247     60.3301     21.1693   1.9486144545e+01   6.6720184804e+01    0.2309262    0.1699734  38.77 0.0004992206    1.288    0.224
        83 -11.7066     14.5067     18.0683   4.5487022145e+01   7.4989178447e+01     0.336003    0.1961806  29.21   0.00109104    1.701    0.412
        84  -9.4143    189.3060     15.0009   3.5282663561e+02   3.6433677195e+01    0.1782499    0.1419563 -50.60  0.000624769    1.100    0.091
        85  -9.2002     80.0072     14.4839   9.1301364844e+00   6.3074216983e+01    0.1912821    0.1160978 -87.70 0.0008090821    2.470    0.595
        86 -10.5597     71.1801    241.4695   6.5301204033e+01   1.4823081486e+01    0.2096918    0.1837534  46.87 0.0005250805    1.121    0.108
