#   1 NUMBER                 Running object number                                     
#   2 MAG_AUTO               Kron-like elliptical aperture magnitude                    [mag]
#   3 X_IMAGE                Object position along x                                    [pixel]
#   4 Y_IMAGE                Object position along y                                    [pixel]
#   5 X_WORLD                Barycenter position along world x axis                     [deg]
#   6 Y_WORLD                Barycenter position along world y axis                     [deg]
#   7 A_WORLD                Profile RMS along major axis (world units)                 [deg]
#   8 B_WORLD                Profile RMS along minor axis (world units)                 [deg]
#   9 THETA_WORLD            Position angle (CCW/world-x)                               [deg]
#  10 FWHM_WORLD             FWHM assuming a gaussian core                              [deg]
#  11 ELONGATION             A_IMAGE/B_IMAGE                                           
#  12 ELLIPTICITY            1 - B_IMAGE/A_IMAGE                                       
         1 -14.7049    216.0901     55.4251   4.3666976624e+01   2.4621882592e+01     5.214884     2.948794 -17.07   0.01267319    2.917    0.657
         2 -13.0356    245.9384     26.4610   3.4341623943e+01   2.2131316426e+01    0.9054393    0.6813332 -18.93  0.002476929    1.845    0.458
         3 -14.3373    244.0211     55.8725   4.0596791560e+01   1.8669928474e+01     3.267926    0.7515475 -44.32  0.007297585    3.404    0.706
         4 -13.4796    247.8328     36.0424   3.6121589032e+01   2.0563134213e+01     1.136286    0.8590525  40.61  0.001469282    1.960    0.490
         5 -14.3298    233.9551     81.6768   4.7383523894e+01   1.6856010718e+01     4.159891     1.258182 -43.22   0.01202529    2.809    0.644
         6 -13.4463    239.6037     62.6494   4.2521017693e+01   1.8592272032e+01     2.684684     1.576252  23.61  0.009393739    5.514    0.819
         7 -10.5245    241.3935     15.7404   3.2538716427e+01   2.4305231693e+01    0.2841281     0.208325 -27.24  0.001742972    1.676    0.403
         8  -9.1578    247.8031     10.6730   3.1086735588e+01   2.3586167826e+01    0.1795372    0.1467256 -37.59 0.0008836726    1.410    0.291
         9  -9.7541    243.1115      8.5122   3.0983216721e+01   2.4759643470e+01    0.1711167    0.1689757 -74.60 0.0005673975    1.425    0.298
        10  -8.5928    215.5860      8.7887   3.3107348667e+01   3.0520087010e+01    0.1631837   0.09502255 -48.69 0.0003558042    1.555    0.357
        11  -9.2756    249.4512      5.3589   2.9959786612e+01   2.3839137385e+01    0.2202147    0.1507225  49.59  0.001402269    2.097    0.523
        12  -8.4128    245.2884      3.3089   2.9830224697e+01   2.4880110954e+01    0.0965683   0.08575804  53.10 0.0002199526    1.576    0.366
        13 -10.1591    163.2091    248.3912   9.4221978202e+01   1.2845620546e-01    0.3480659    0.1889416 -14.15   0.00137363    4.011    0.751
        14 -12.2635    236.8711    235.2505   7.8096975254e+01  -8.4364795409e+00    0.6352648    0.2369453 -28.01  0.002839679    2.931    0.659
        15 -10.6856    250.4105    221.4507   7.3366282172e+01  -8.3181404199e+00    0.5185129    0.1154873 -37.47  0.001913743    4.158    0.760
        16 -12.2514    247.9060    229.7151   7.5229478968e+01  -9.1094871709e+00     1.142353    0.2519428 -37.52  0.004274565    4.303    0.768
        17 -11.6109    243.1820    240.4304   7.7854486334e+01  -9.9139544294e+00     0.285807    0.2720073 -35.48  0.001843676    1.787    0.440
        18 -11.5921    231.2953    246.7973   8.0992609570e+01  -9.2340185759e+00    0.3137081     0.239296   0.99  0.001963845    1.039    0.037
        19 -10.2510    228.4839    242.4962   8.0799106429e+01  -8.3090769922e+00    0.2190775    0.1057938 -34.60  0.001012048    2.077    0.518
        20  -9.8487    186.5049    241.5119   8.8573240112e+01  -2.2889684120e+00    0.1275607    0.1029986  14.25 0.0008101533    1.044    0.042
        21  -9.7284    152.5079    240.9926   9.5342901080e+01   2.9600210777e+00    0.1680284     0.103554 -20.25 0.0007748586    2.416    0.586
        22 -10.3788    212.0047    244.7199   8.4185235008e+01  -6.3995983767e+00    0.1732594     0.134942  14.37 0.0008279585    1.049    0.047
        23  -9.3962    170.3032    245.3491   9.2365957212e+01  -4.6022341755e-01    0.1279017   0.08835281   1.26 0.0007040218    1.696    0.410
        24  -9.3616    140.5164    238.5082   9.7475175808e+01   5.2442507892e+00    0.1295286    0.1107955  33.75 0.0008104099    1.001    0.001
        25 -10.0586    224.3775    236.8292   8.0611045157e+01  -6.9974490208e+00     0.170004   0.09777502 -22.97  0.000603309    1.718    0.418
        26 -11.3852    231.2885    234.8759   7.9030734738e+01  -7.6547050211e+00    0.2926663    0.2160928 -24.08  0.001938977    1.305    0.234
        27  -9.5322    214.0000    234.9859   8.2228406265e+01  -5.3066728852e+00    0.3051493   0.06590868 -40.39   0.00104036    4.835    0.793
        28  -9.7482    229.6689    223.3186   7.7343255234e+01  -5.8176890015e+00    0.2556376    0.1262988 -17.93  0.001173241    2.533    0.605
        29 -12.0598    247.4976    247.8002   7.8318038604e+01  -1.1360150470e+01    0.7739725    0.4793693   3.47  0.005004568    1.419    0.295
        30 -12.5939    243.4657    227.0752   7.5543036675e+01  -8.1892829260e+00     0.727509    0.3393272 -26.96  0.003788446    2.050    0.512
        31  -8.7897    233.4683    213.5250   7.4919242815e+01  -4.9193906817e+00    0.2530232    0.1094056 -35.26  0.001205277    2.171    0.539
        32  -8.6184    241.4663    204.4925   7.1854548474e+01  -4.7031402009e+00    0.1279624    0.1004629  -7.21 3.045535e-05    1.044    0.043
        33  -9.8401    210.1934    249.2208   8.5233511167e+01  -6.7678939623e+00    0.1519736    0.1339711  25.92  0.001071666    1.362    0.266
        34 -11.4211    182.1068     85.8778   5.6504147636e+01   2.7524462656e+01    0.3859034    0.2702831 -39.87  0.001739699    1.387    0.279
        35 -11.1768    184.9382     81.9960   5.4975101395e+01   2.7542923912e+01    0.3830858    0.2727148 -27.89   0.00185275    1.533    0.348
        36 -10.7404    187.4435     77.2694   5.3306866316e+01   2.7761779101e+01    0.3432258    0.2473767 -15.47    0.0016284    1.804    0.446
        37 -11.2526    198.5876    100.3265   5.7169145453e+01   2.1220876024e+01    0.3594739    0.2358378 -54.82  0.001669213    1.616    0.381
        38 -10.6167    235.3360    113.2698   5.4197981645e+01   1.1391016747e+01    0.2898236    0.1776343 -57.43 0.0008960746    1.886    0.470
        39 -12.0198    174.6844     82.7689   5.7088292342e+01   2.9801114135e+01    0.5472122    0.3245389 -25.91  0.002295644    2.038    0.509
        40 -11.0644    150.9782     80.6235   6.1429906338e+01   3.5762965300e+01     0.502156    0.1579949 -44.95  0.001539867    3.380    0.704
        41 -11.4201    167.0715     78.7241   5.7485535638e+01   3.2301541412e+01     0.341376    0.2677336 -45.89  0.001724696    1.267    0.211
        42 -10.6929    182.0916     77.8651   5.4405737106e+01   2.8909917374e+01    0.3269722    0.2115347 -31.91  0.001171066    1.621    0.383
        43 -11.4019    176.6125     73.7711   5.4310754119e+01   3.0885809841e+01    0.6571608    0.2050735 -45.74   0.00207724    3.410    0.707
        44  -9.7223    151.9713     69.7093   5.8056333372e+01   3.7433119502e+01     0.210389    0.1957274  65.14 0.0005475538    1.060    0.056
        45 -10.9402    168.9033     67.1405   5.3928917044e+01   3.3807393944e+01     0.456834    0.2249472 -25.77  0.001730673    2.627    0.619
        46 -10.1453    160.3420     66.1454   5.5300452364e+01   3.6019885874e+01    0.2924806    0.1424641 -26.57  0.001095819    2.587    0.613
        47 -10.9864    188.0945     54.6265   4.7317457976e+01   3.1149874266e+01    0.4675965    0.2976908   7.76  0.001855785    3.245    0.692
        48  -9.9262    194.2502    246.9433   8.7903506647e+01  -4.2207480341e+00    0.3700384   0.09182391 -38.40   0.00133126    4.654    0.785
        49 -10.5835    210.9170    109.8086   5.7305814408e+01   1.6872209111e+01    0.2904579    0.1738018 -59.80  0.001242418    2.116    0.527
        50  -9.7637    185.9150    249.0569   8.9837090204e+01  -3.3272388174e+00    0.3686781    0.1566808  16.38  0.001039386    6.784    0.853
        51 -14.5245    247.0418     96.3308   4.8883340035e+01   1.1969221259e+01     3.321004     1.326248  57.77  0.003939155    2.962    0.662
        52 -10.2483    153.5058    248.1508   9.6137777053e+01   1.6285231963e+00    0.2834893    0.1608421  -8.09  0.001092177    4.168    0.760
        53 -10.4521    166.7304    103.6792   6.4273115907e+01   2.7752358307e+01    0.5017427    0.1371843 -34.72  0.001225824    5.126    0.805
        54 -10.3669    174.9642    248.4950   9.1900151049e+01  -1.6397771963e+00      0.20193    0.1039103  34.50  0.001047825    1.635    0.388
        55 -11.1278    227.5330     27.9409   3.6230268476e+01   2.5764196689e+01    0.4262277    0.2212492 -23.92  0.002052111    2.568    0.611
        56  -9.4111    215.5003    115.9957   5.7968482312e+01   1.4818628636e+01    0.2125044    0.1093829 -56.47 0.0008106153    2.578    0.612
        57 -11.6936    190.0189    100.3801   5.8739729330e+01   2.3110803606e+01    0.5359756    0.3129175 -60.09  0.002167446    2.230    0.552
        58 -10.6197    122.4531    247.2576   1.0233639104e+02   6.4688145099e+00    0.3853315    0.1984848  17.74  0.001537526    3.481    0.713
        59  -9.1209    216.2564     21.9463   3.5961869923e+01   2.8924133641e+01    0.1711299    0.1449858 -59.31  0.000415752    1.115    0.103
        60  -9.5705    230.0694     17.7470   3.3834418838e+01   2.6423324568e+01    0.3500771    0.1988023  44.05   0.00178193    2.718    0.632
        61  -9.9295    141.4841    243.4919   9.7952866789e+01   4.2334476929e+00    0.1279387    0.1081592  30.74 0.0001151637    1.029    0.029
        62 -12.2741    186.5030     90.8001   5.6963523805e+01   2.5640629555e+01    0.8182902    0.3132596 -37.39  0.002924108    2.551    0.608
        63  -9.8630    129.4755    250.0000   1.0124318300e+02   4.9443844000e+00    0.2855183   0.06039425  36.60 0.0009348172    3.935    0.746
        64 -10.5901    147.6834    245.9861   9.7022123099e+01   2.8664561356e+00    0.1738926    0.1575323  27.26  0.001169052    1.086    0.079
        65  -9.3094     52.3336    246.6641   1.1629115773e+02   1.6264405723e+01    0.1287801   0.06845494  62.50 0.0007052119    1.739    0.425
        66 -10.4255    216.4282    244.1764   8.3275459063e+01  -6.9288174383e+00    0.2429945    0.1101632 -46.72  0.001140158    3.133    0.681
