#   1 NUMBER                 Running object number                                     
#   2 MAG_AUTO               Kron-like elliptical aperture magnitude                    [mag]
#   3 X_IMAGE                Object position along x                                    [pixel]
#   4 Y_IMAGE                Object position along y                                    [pixel]
#   5 X_WORLD                Barycenter position along world x axis                     [deg]
#   6 Y_WORLD                Barycenter position along world y axis                     [deg]
#   7 A_WORLD                Profile RMS along major axis (world units)                 [deg]
#   8 B_WORLD                Profile RMS along minor axis (world units)                 [deg]
#   9 THETA_WORLD            Position angle (CCW/world-x)                               [deg]
#  10 FWHM_WORLD             FWHM assuming a gaussian core                              [deg]
#  11 ELONGATION             A_IMAGE/B_IMAGE                                           
#  12 ELLIPTICITY            1 - B_IMAGE/A_IMAGE                                       
         1 -13.6495    235.0103     64.9141   6.1869113583e+01   1.7944323975e+01     6.232316    0.6440299 -37.91   0.01492839    5.848    0.829
         2 -14.1117    223.3596     43.8386   5.7583832179e+01   2.3553880547e+01     13.85268          nan -34.34   0.02755344    8.187    0.878
         3 -12.4984    143.9665     28.4565   6.5214932565e+01   4.6244389189e+01     1.375988    0.8168909  32.13  0.005742284    2.017    0.504
         4 -12.6924    132.0881     38.4731   7.1597221908e+01   4.7771921116e+01     3.634837     1.315953  68.16  0.008608412    6.576    0.848
         5 -12.6216    211.8716     68.4700   6.6167932794e+01   2.2997916691e+01     5.749351    0.9785938 -43.04   0.01149823    8.094    0.876
         6 -11.6887    247.5794     23.2415   4.9392558221e+01   2.0151442471e+01    0.5083862    0.2929361 -37.15 0.0007551838    1.508    0.337
         7 -10.3043    243.0780     23.4452   4.9854171270e+01   2.1191428463e+01    0.6440718    0.1863738 -42.37  0.001566648    2.977    0.664
         8 -10.8317    178.9175     22.5079   5.7040314508e+01   3.7778412723e+01     1.110585    0.5777329 -54.95  0.004308103    2.342    0.573
         9 -10.0232    172.1662      2.6406   5.1191451040e+01   4.1667320865e+01    0.9755272     0.418447 -59.32  0.003280975    3.409    0.707
        10  -9.9419    223.4746     16.2472   4.9747874467e+01   2.6792038036e+01    0.7261742    0.2212976 -45.63  0.001726955    3.232    0.691
        11 -10.6984    180.3205     14.0140   5.4000070267e+01   3.8351225558e+01    0.7552968     0.448748  58.94  0.002749316    1.611    0.379
        12 -10.9317    201.8253     15.9873   5.1969512367e+01   3.2411877794e+01    0.7680935    0.4310037 -53.96  0.001904314    1.912    0.477
        13 -12.1148    193.5753     10.5862   5.1236216536e+01   3.5163988496e+01     1.735043    0.9617685  86.62  0.006727329    2.052    0.513
        14 -10.6684    247.7964      1.6759   4.3811742952e+01   2.2347423832e+01    0.7169015    0.2988827  70.61  0.003117472    2.412    0.585
        15  -9.8088    227.0100      8.5548   4.7264510236e+01   2.6706489091e+01    0.4336018    0.2855392 -49.02 0.0006783744    1.423    0.297
        16 -11.1785    215.9743      5.9015   4.7504675283e+01   2.9767388837e+01    0.6235982      0.38963 -55.24  0.002845152    1.594    0.373
        17 -12.4907    229.5393      2.4293   4.5367909347e+01   2.6681492503e+01     2.415061    0.2595331  67.82  0.006568613    5.613    0.822
        18 -12.5289    187.5857    108.3318   8.1236088931e+01   2.2383720576e+01     3.426812    0.6845796 -35.11  0.008502681    5.388    0.814
        19 -10.5458    130.8008     21.4839   6.5267508518e+01   5.0464326154e+01    0.4506615    0.2202468 -30.69  0.001856344    1.971    0.493
        20  -8.9564    115.9952     12.5239   6.4848017145e+01   5.5145304797e+01    0.2765031    0.2394554  83.37 0.0006857908    1.364    0.267
        21 -10.5510    120.3944      9.0345   6.2336617751e+01   5.4478494397e+01     0.464129    0.4160646  33.93  0.001659143    1.058    0.055
        22  -8.1408    243.2227     10.9412   4.6547223658e+01   2.2501073633e+01    0.1582837    0.1009528 -29.98 0.0002212864    1.432    0.301
        23  -8.4731    145.5908      7.5674   5.6889947523e+01   4.8259847359e+01    0.3713296    0.1089288 -28.85   0.00124805    3.057    0.673
        24  -7.9506    251.0000     12.0416   4.6218858796e+01   2.0557484389e+01    0.1998304   0.06956491 -24.44            0    2.653    0.623
        25  -8.5348    192.2907    144.0938   8.8642780494e+01   1.5370441427e+01    0.1829423    0.1750262 -17.05 0.0004472302    1.100    0.091
        26 -11.7207    232.0382    250.3943   9.9699368632e+01  -4.3881371688e+00    0.1905638    0.1062174  38.37  0.001337209    1.342    0.255
        27 -10.6888    189.1675    138.6704   8.8072188754e+01   1.6899312909e+01    0.4134682    0.2683597  34.27  0.001694416    1.583    0.368
        28  -7.8528    145.6519    135.3710   9.6309635983e+01   2.6460697129e+01    0.1511299     0.109736  87.01 0.0001884611    1.886    0.470
        29  -8.6689    249.9341    239.9436   9.5627751185e+01  -5.9786534825e+00    0.1559289    0.1123592  23.58 0.0004578792    1.045    0.043
        30 -10.3092    202.2469    126.0682   8.2774244275e+01   1.6182985907e+01    0.4981831    0.3379929 -73.68  0.001397498    2.733    0.634
        31 -11.8142    197.6391    120.9878   8.2432066703e+01   1.8006074188e+01     0.861205    0.5554013  72.69  0.003651821    2.394    0.582
        32  -8.2523    136.3195    128.3283   9.6904442313e+01   2.9708384141e+01    0.1410732    0.1152119  -0.01 0.0004921071    1.685    0.407
        33 -10.3681    232.3606    119.4932   7.6048670064e+01   1.0801749322e+01    0.2703799    0.1926102  39.99 0.0006955779    1.399    0.285
        34  -9.2259    224.5005    119.5280   7.7342926569e+01   1.2439607899e+01    0.2718187    0.1320933 -31.31 0.0003968966    1.989    0.497
        35 -10.2011    215.6141    116.0409   7.8016925569e+01   1.4865758381e+01     0.394181    0.2850705 -32.38  0.002021793    1.351    0.260
        36 -11.8878    233.6868     37.4112   5.4574326380e+01   2.1820449432e+01    0.5717916    0.4153146  37.23  0.001492867    1.602    0.376
        37  -9.9081    167.7514    113.6196   8.6573794683e+01   2.5919934357e+01    0.3994066    0.2899268 -62.16  0.001082195    1.680    0.405
        38  -9.1644    135.0000    109.4661   9.2895446140e+01   3.3808280358e+01    0.4186898   0.08264715 -45.39  0.001063478    5.045    0.802
        39 -10.8468    205.4838    110.5251   7.8448792875e+01   1.7965184166e+01    0.4920667    0.2979175  34.92  0.001994631    1.817    0.450
        40 -11.4351    203.4277     58.9068   6.4737176850e+01   2.6504282087e+01    0.8405542     0.542571  69.06  0.001492757    1.721    0.419
        41  -9.3771    150.2908     97.3236   8.6202750958e+01   3.2925298306e+01    0.3193677    0.2453964  27.95 0.0008262252    1.519    0.342
        42  -8.5454    136.0635     94.5067   8.8787194310e+01   3.6624043938e+01    0.2351223     0.200353 -82.20 0.0005333896    1.325    0.245
        43  -8.9748    168.9915     96.9751   8.2015686967e+01   2.8698273340e+01    0.2197906    0.2157386 -44.21 0.0003134694    1.026    0.025
        44 -10.1187    192.9680     93.5549   7.6348197839e+01   2.3634076764e+01    0.3466233    0.3191195 -65.48  0.001663886    1.194    0.162
        45 -10.0923    144.0429    227.1959   1.1087885402e+02   1.1352175089e+01    0.1732836    0.1488486  54.09 0.0002402377    1.125    0.111
        46  -9.0714    159.3355     90.2582   8.2237616248e+01   3.2194140871e+01     0.429525    0.2423231  42.52 0.0009624241    1.872    0.466
        47  -9.9288    163.3114     88.0388   8.0750417458e+01   3.1668101533e+01    0.3451606    0.2732174 -53.44  0.001048939    1.335    0.251
        48 -10.0616    144.6048     86.0944   8.4395210169e+01   3.6388913227e+01    0.3268678    0.2733868 -44.42  0.000773157    1.174    0.148
        49  -7.9705    206.5570     82.5203   7.0935092426e+01   2.2161293429e+01    0.1490238    0.1417878 -28.36 0.0002092537    1.029    0.029
        50 -11.3678    160.4907     78.0492   7.8452576455e+01   3.4156436153e+01    0.4979467    0.3721323 -37.36  0.002365337    1.313    0.238
        51  -8.2201    202.6987     80.1600   7.0938602149e+01   2.3463157676e+01    0.2461745    0.1507542 -66.82 0.0009292501    2.612    0.617
        52  -9.4436    191.3574     77.2835   7.2121415664e+01   2.6702273152e+01    0.2836466    0.2317479 -64.97  0.001392856    1.407    0.289
        53  -8.2712    112.1380     77.8470   9.0219611789e+01   4.5032980327e+01    0.1817413     0.165948  -9.28            0    1.221    0.181
        54  -8.3351    196.7249     75.3978   7.0628615583e+01   2.5677649354e+01    0.2078374    0.1397837  46.55   0.00065742    1.526    0.345
        55 -10.5807    186.7464     70.7706   7.1063496848e+01   2.8900950846e+01    0.3432299    0.2956807 -54.44 0.0004624235    1.216    0.178
        56 -10.5960    197.2191     63.0789   6.6966086873e+01   2.7458156123e+01    0.3902872    0.2671518  34.47  0.001399201    1.674    0.403
        57  -8.3436    151.6229     71.7840   7.8495606259e+01   3.7423458233e+01    0.2272316    0.1370758 -45.66 0.0009472597    1.679    0.405
        58 -12.4586    179.2063     59.9188   6.9154613150e+01   3.2536863412e+01    0.7403734    0.4874163  22.74  0.002059181    2.048    0.512
        59  -8.9738     16.5057    217.9896   1.3165177281e+02   2.9310958846e+01    0.1372821   0.07500072 -89.85  0.000467558    1.535    0.349
        60  -9.5033    250.1561     67.2787   6.0554122861e+01   1.4182755397e+01    0.2820935    0.1818858 -32.68  0.001413633    1.372    0.271
        61  -9.0515    149.2119     66.6941   7.7435283376e+01   3.8915811870e+01    0.2676563    0.2009555 -47.15 0.0007421172    1.349    0.259
        62  -8.3553     93.1125    151.9363   1.1106789439e+02   3.2463656522e+01    0.1503726    0.1437979 -81.57            0    1.216    0.177
        63  -8.6843    134.0000     63.0015   7.9819231248e+01   4.3186436855e+01     0.256755   0.08458465 -37.16 0.0007156804    2.944    0.660
        64  -9.7090    244.9449     60.5091   5.9442917541e+01   1.6236933155e+01    0.3416257     0.241163  77.92  0.001734469    1.712    0.416
        65  -9.5723    247.8591     55.4518   5.7778732619e+01   1.6225649345e+01    0.4692042     0.362403  10.40  0.002502816    1.512    0.339
        66  -9.8464    144.2030     59.2778   7.6154784079e+01   4.1428718785e+01     0.332534    0.2960117 -73.20 0.0007972649    1.248    0.199
        67  -7.9422     72.7597     58.0613   9.6044754258e+01   5.6172999362e+01    0.1770997    0.1043652 -50.04 0.0004266266    1.516    0.340
        68 -12.0557    165.5463     55.5857   7.0379728201e+01   3.6716746337e+01     1.700895    0.9537455 -76.14  0.005147541    4.125    0.758
        69 -10.3812    125.4374     55.8852   7.9557442689e+01   4.6437602080e+01    0.2527311    0.2385642  42.46 0.0002505018    1.095    0.086
        70 -11.2988    247.7949     45.3994   5.5164426033e+01   1.7500691751e+01    0.4104392     0.362894  85.85 0.0006989414    1.240    0.194
        71 -10.2387    186.9012     41.6803   6.2083443725e+01   3.3216442122e+01    0.8155851    0.3066561 -43.28  0.002755493    2.744    0.636
        72  -8.4724    186.2983     36.6278   6.0563009193e+01   3.4054002870e+01    0.3225589    0.1630057 -48.93 0.0009160297    2.195    0.544
        73  -9.1610    209.0301     45.0719   5.9832335355e+01   2.7006893028e+01    0.2488363    0.1986923 -46.97 0.0004278136    1.229    0.186
        74  -8.5724    197.1736     43.4875   6.1065160745e+01   3.0281359896e+01    0.2826086     0.158509 -56.71 0.0008242269    2.187    0.543
        75 -12.1070    179.8356     76.9149   7.4167997812e+01   2.9612967997e+01     1.249748     0.790718 -53.14  0.001065052    1.821    0.451
        76  -7.3418    239.9506     27.1122   5.1127649579e+01   2.1524256313e+01    0.5001673    0.2333133 -70.38   0.00162273    3.343    0.701
        77 -11.7912      2.7632    207.5678   1.3345962450e+02   3.2354976913e+01    0.5547025    0.2493802 -84.17  0.003414706    1.860    0.462
        78  -9.5470    193.8992    196.3775   9.8017518001e+01   7.3522463009e+00    0.3949275    0.1981396 -59.17  0.001450424    5.525    0.819
        79  -9.3563    150.6616     35.3363   6.6401378845e+01   4.3586408343e+01    0.2441568    0.1746701 -63.60  0.001099379    1.719    0.418
        80 -13.6885     30.6446    184.4269   1.2743244739e+02   3.3881552620e+01    0.9998231    0.8798354  20.28  0.007856884    1.807    0.447
        81 -13.0288     44.4242    174.0486   1.2399613962e+02   3.4408169710e+01    0.8964911    0.7143035  71.24  0.003427781    1.090    0.083
        82  -9.4159    239.0564    169.0267   8.5529361535e+01   2.9349724248e+00    0.1871575    0.1552282  13.60 0.0003008175    1.005    0.005
        83  -8.6604     94.0084    167.2763   1.1302020376e+02   2.9220980794e+01    0.1635303    0.1366572  64.37 0.0002423061    1.054    0.051
        84  -8.2457    230.3053    166.6722   8.6502691840e+01   4.7798448155e+00    0.1132582    0.1032215 -76.05 0.0007035842    1.651    0.394
        85 -10.4098    240.0515    164.2185   8.4433517087e+01   3.3479701716e+00    0.3471658    0.1963969  55.60  0.001246593    2.298    0.565
        86  -8.3398    160.4542    165.1438   9.8961006122e+01   1.8144246267e+01    0.1755073    0.1325464 -44.93 0.0005890375    1.472    0.321
        87  -9.4033    250.2116    178.6024   8.5576245920e+01  -6.9903563458e-02    0.2438274    0.1605514 -35.18  0.001471006    1.766    0.434
        88 -10.1570    207.3511    162.3620   8.9600885452e+01   9.6166295256e+00    0.2750871    0.2222619 -27.30 0.0005396762    1.308    0.235
        89 -10.3904    237.4105    174.4307   8.6823633091e+01   2.5685996802e+00    0.3891972    0.2419106  50.27  0.001141116    1.779    0.438
        90  -9.8691    244.4136     33.8773   5.2486892255e+01   1.9677784388e+01    0.3403649    0.2499909 -66.68 0.0007001471    1.454    0.312
        91 -11.4268    225.2688     89.4383   6.9751296319e+01   1.6721856432e+01     0.959132    0.5722517  -6.51  0.002793502    2.255    0.557
        92  -8.3098    167.3780     24.2919   5.9432600756e+01   4.0647410030e+01     0.163019     0.105986  34.50 0.0007020592    1.740    0.425
        93  -9.7590    160.0021    128.9922   9.1829988235e+01   2.4733311035e+01    0.3554629      0.27603 -10.58  0.001770217    1.676    0.404
        94  -9.2463    142.5986     17.5279   6.1301817120e+01   4.7959793222e+01    0.3839161    0.2432308  28.05   0.00114177    1.832    0.454
        95 -10.5033    200.6250    116.2920   8.0748563726e+01   1.8116283556e+01    0.3505791     0.295779  39.47  0.001440145    1.165    0.142
        96  -9.4851    156.4888    139.6021   9.4860832704e+01   2.3478262794e+01    0.4580342    0.2878501 -80.37  0.001763464    3.175    0.685
        97  -8.7497    136.5712    242.3800   1.1373004761e+02   1.0444270769e+01    0.2249627   0.06329512  50.95 0.0009533295    3.350    0.701
        98 -10.3058     68.0988    144.5205   1.1573597900e+02   3.7628570734e+01    0.5526982    0.2892558  61.96  0.002438754    2.057    0.514
        99  -9.0848    226.8982    144.7751   8.2612512649e+01   8.3347382135e+00    0.1992176    0.1603474  15.57   0.00051525    1.171    0.146
