#   1 NUMBER                 Running object number                                     
#   2 MAG_AUTO               Kron-like elliptical aperture magnitude                    [mag]
#   3 X_IMAGE                Object position along x                                    [pixel]
#   4 Y_IMAGE                Object position along y                                    [pixel]
#   5 X_WORLD                Barycenter position along world x axis                     [deg]
#   6 Y_WORLD                Barycenter position along world y axis                     [deg]
#   7 A_WORLD                Profile RMS along major axis (world units)                 [deg]
#   8 B_WORLD                Profile RMS along minor axis (world units)                 [deg]
#   9 THETA_WORLD            Position angle (CCW/world-x)                               [deg]
#  10 FWHM_WORLD             FWHM assuming a gaussian core                              [deg]
#  11 ELONGATION             A_IMAGE/B_IMAGE                                           
#  12 ELLIPTICITY            1 - B_IMAGE/A_IMAGE                                       
         1 -13.9459    214.8896      9.1734   3.8739248121e+01   3.0171464255e+01     1.821948     1.115912  46.48   0.00937825    2.005    0.501
         2 -12.7973    194.9148     34.4048   4.7584585431e+01   3.2134218989e+01    0.6038122    0.5832936  -6.86  0.001265232    1.189    0.159
         3 -13.1212    174.9793     54.2533   5.6428593681e+01   3.4412747590e+01     1.810315      1.14333  27.08  0.005312556    2.274    0.560
         4 -10.5193    189.7781     14.8597   4.2809485182e+01   3.5724731909e+01    0.2386663    0.2167816  88.67 0.0008753811    1.028    0.027
         5 -10.9294     45.1178      9.2524   7.4845349000e+01   6.8557264620e+01    0.3093016    0.1157251 -39.52  0.001365721    2.998    0.666
         6 -13.4983    189.9732     40.2450   4.9913885578e+01   3.2610833482e+01     1.111097    0.9856472 -24.81  0.003795238    1.228    0.185
         7  -9.7448     64.8778    223.7107   1.1788331473e+02   2.0211000522e+01    0.1455433    0.1002479  81.88 0.0005310926    1.324    0.245
         8 -12.3095    248.0924    245.9438   8.6345305838e+01  -1.1145391522e+01    0.7391967    0.4402748 -17.35  0.004800617    1.633    0.388
         9 -19.5230     22.7770    146.5451   1.1956100673e+02   4.1971162429e+01     19.31895     4.875782 -74.99   0.06722857    3.751    0.733
        10 -10.2913     67.2439    204.3075   1.1556524356e+02   2.3815032180e+01     0.345898    0.1860439 -48.03  0.001024333    2.570    0.611
        11  -8.7136     71.3169    201.0949   1.1437409413e+02   2.3934882924e+01    0.2595058    0.1454074  88.88  0.001286425    2.035    0.509
        12  -9.3263    160.3501    205.3022   9.6046561264e+01   8.5389205343e+00    0.1372331     0.101721   9.31 0.0007039416    1.696    0.410
        13  -8.8886     94.3125    205.3139   1.1000001854e+02   1.9693596918e+01    0.1939953    0.1838911  11.40 0.0008275523    1.382    0.276
        14 -10.1640     96.4440    201.8408   1.0910963417e+02   2.0080020144e+01    0.3590267    0.3272324  33.79  0.001699646    1.285    0.222
        15 -10.9933    193.0941    195.2993   8.7622163261e+01   4.3846715615e+00    0.9561665    0.4795991 -60.29  0.003049072    5.318    0.812
        16 -10.5093     57.3253    201.4599   1.1733551590e+02   2.5719350287e+01    0.2740969    0.2030367 -40.50  0.001039753    2.030    0.507
        17 -11.5269     59.5687    195.1289   1.1623204806e+02   2.6786671647e+01    0.3541039    0.2917939 -59.35  0.001636703    1.421    0.296
        18  -9.8724     82.0043    195.0127   1.1137876772e+02   2.3709745107e+01    0.1950969    0.1691298  75.27 0.0004277884    1.026    0.026
        19  -9.5975     61.4433    219.8526   1.1820621606e+02   2.1418497618e+01    0.1455137   0.09994071 -57.83 0.0007219765    1.751    0.429
        20 -11.8160    149.5437    188.2412   9.5430826424e+01   1.3712577970e+01    0.4807749    0.3614399 -87.38  0.001579526    1.847    0.459
        21 -10.7603     95.5864    189.0224   1.0758750716e+02   2.2935121908e+01    0.4357685    0.2922871  75.26  0.001474506    1.667    0.400
        22 -11.2489     98.9782    181.9978   1.0580386220e+02   2.3932043326e+01    0.6220067     0.293955 -55.78  0.001696973    2.144    0.534
        23 -11.8977    143.8532    178.4346   9.4926709916e+01   1.6756031776e+01    0.5273895    0.3370728 -54.89  0.001773674    1.700    0.412
        24 -11.0982    139.6246    171.8021   9.4653662753e+01   1.8947004726e+01    0.4076114    0.3290794  58.14  0.001232063    1.260    0.207
        25 -10.7069    149.8741    178.0079   9.3498145761e+01   1.5699903578e+01    0.3540139    0.2675821 -80.12 0.0009991326    1.765    0.433
        26 -10.3953    188.4241    176.6420   8.4951637332e+01   8.5176636440e+00    0.4055294    0.3636342 -46.94  0.001651851    1.245    0.197
        27 -10.0578     56.0891    217.4490   1.1903578291e+02   2.2584775378e+01    0.2989917    0.1346623  79.89  0.001333259    2.906    0.656
        28  -9.6564    233.6574    174.6759   7.5873367982e+01   5.0827529619e-01    0.1427275   0.09507427   4.04 7.455239e-05    1.732    0.423
        29 -10.0197    240.4891    169.4775   7.3602730612e+01   1.3577564564e-01    0.1344072    0.1157062  -7.91 -3.928928e-05    1.019    0.019
        30  -9.0101    194.3290    171.9956   8.2798956628e+01   8.2205169540e+00     0.200959    0.1802965 -21.04 0.0007127501    1.103    0.093
        31  -9.2090     43.8211    221.3025   1.2167982549e+02   2.3326535275e+01     0.145874   0.09703804  85.46 0.0005429795    1.292    0.226
        32  -9.2238    187.6502    163.1387   8.2306316470e+01   1.1174894666e+01    0.3205257     0.173821 -50.92  0.001318831    2.169    0.539
        33  -9.7226    184.3570    212.4998   9.2403219053e+01   3.0984257752e+00    0.2381802    0.1663185 -44.37  0.001330034    1.651    0.394
        34 -10.9746     90.8143    157.6439   1.0388940081e+02   3.0831746359e+01    0.2669687    0.2451866 -62.91 0.0004070663    1.127    0.113
        35 -11.6840     96.5311    151.2624   1.0130385424e+02   3.1407316362e+01    0.5989878    0.4947644 -21.30  0.003124543    1.590    0.371
        36 -10.0369    188.0411    152.1496   7.9817709254e+01   1.3192924132e+01    0.2679282    0.2306985 -53.45  0.001404944    1.279    0.218
        37 -10.9479    133.9125    145.6775   9.0710676579e+01   2.5799064801e+01     1.314318    0.3166269 -54.45  0.002943181    6.388    0.843
        38  -9.6827    113.2973    151.3891   9.7054058942e+01   2.8443730445e+01    0.3283924     0.210515  88.22  0.001152739    2.453    0.592
        39  -9.6460    174.6673    149.4921   8.2072223787e+01   1.6516066569e+01    0.2759028    0.2495916 -29.83  0.001039587    1.105    0.095
        40  -8.3916    139.2872    150.6726   9.0479830358e+01   2.3605112090e+01    0.1525562    0.1196642  87.15 0.0002919729    1.612    0.380
        41  -9.4839    108.4883    146.9814   9.7403672795e+01   3.0345095438e+01    0.2072667    0.1287921 -82.43 0.0008084384    2.399    0.583
        42 -10.2562     37.5074    211.4514   1.2214293675e+02   2.6033941835e+01    0.1477455   0.09621882 -86.44 0.0004863201    1.333    0.250
        43 -11.0539    108.1064    137.8345   9.5614510669e+01   3.2571974141e+01    0.5995434     0.427193 -51.46   0.00288234    1.366    0.268
        44 -10.9513    105.5647    131.1544   9.4843793604e+01   3.4617790471e+01    0.5162333    0.3957046 -36.38  0.002522743    1.439    0.305
        45 -11.7487     96.2722    137.1754   9.8639134247e+01   3.4815176748e+01    0.3403377    0.2873082 -80.14 0.0004093061    1.196    0.164
        46 -10.2308    114.9953    128.7655   9.1763480043e+01   3.3416280362e+01    0.3112799    0.2660488  12.86 0.0006879267    1.400    0.286
        47  -9.4478    160.9853    127.9825   8.0059730511e+01   2.3937399811e+01    0.2555378    0.1996289 -83.20  0.001144129    1.709    0.415
        48 -10.4345    102.5822    124.5217   9.4164834887e+01   3.6733168244e+01    0.2867723    0.2430081 -24.57 0.0007428262    1.365    0.268
        49 -10.2696    120.1520    123.1466   8.9050023875e+01   3.3711881467e+01    0.3865802     0.234579 -30.20  0.001344125    2.182    0.542
        50 -10.2089    135.1281    121.0580   8.4616023181e+01   3.1094503778e+01    0.5043705    0.1002474 -44.55  0.001192421    5.028    0.801
        51  99.0000     43.3795    209.7175   1.2087076252e+02   2.5708164719e+01    0.3302491    0.1322574  67.92  0.001433228    2.976    0.664
        52  -9.4441    110.0955    118.0416   9.0536396901e+01   3.6862125716e+01    0.2222934    0.2138263 -56.96 0.0003496992    1.009    0.009
        53 -10.0413    231.1466    113.6750   6.2693734066e+01   1.1144299827e+01    0.2734568    0.2659673  78.43 0.0006990564    1.162    0.139
        54  -9.4227    167.3948    112.3693   7.4596624492e+01   2.5728699749e+01    0.3363925    0.2618051 -79.96  0.001103569    1.689    0.408
        55  -8.5924    146.4150    113.1625   7.9736587324e+01   3.0358868375e+01    0.2183012    0.1470736 -55.55 0.0004439523    1.615    0.381
        56 -11.4970    118.5073    110.5708   8.6312739318e+01   3.6922880651e+01    0.6512022    0.4584915  71.21   0.00278483    1.952    0.488
        57  -9.5857    205.6492    110.1533   6.6233140102e+01   1.7322796769e+01    0.2747743    0.2202619  41.31 0.0006013139    1.325    0.245
        58 -10.0245    134.5252    105.0743   8.0553424243e+01   3.4748416302e+01    0.4318551    0.1527848 -44.11  0.001370346    2.765    0.638
        59 -10.7466     43.8930    205.4227   1.2041878575e+02   2.6536150387e+01    0.1808288    0.1564477  89.66 5.871272e-05    1.210    0.174
        60  -8.8529    154.3183     82.3020   6.9110563315e+01   3.4787853387e+01     0.159043    0.1236482  14.24 0.0004829555    1.623    0.384
        61  -8.3748    184.3185     77.3341   6.1427428723e+01   2.8298623094e+01    0.1572547    0.1208856  16.27  0.000704865    1.697    0.411
        62  -9.0430     69.8622     72.1403   9.0360971645e+01   5.4152687142e+01    0.1929235     0.179578 -54.17 0.0002669196    1.165    0.142
        63 -12.3849    248.5866    229.4779   8.3542458194e+01  -9.3459023101e+00    0.7935951    0.2608105 -28.61   0.00349939    3.290    0.696
        64 -10.2265     71.8926    245.0012   1.1837766676e+02   1.5326304270e+01    0.1948881    0.1410841 -64.18  0.001107132    1.651    0.394
        65  -9.8811     55.4378    223.0643   1.1962921842e+02   2.1557400405e+01    0.1487408    0.1105844  82.60 0.0003717913    1.157    0.136
        66  -9.9678     58.7236    229.2401   1.1951242233e+02   1.9947585490e+01    0.1611993    0.1177323  78.35 0.0003659124    1.164    0.141
        67 -11.1994     50.3832    224.6346   1.2070521048e+02   2.1881451537e+01    0.2437542    0.1409267  86.96 0.0008432696    1.637    0.389
