#   1 NUMBER                 Running object number                                     
#   2 MAG_AUTO               Kron-like elliptical aperture magnitude                    [mag]
#   3 X_IMAGE                Object position along x                                    [pixel]
#   4 Y_IMAGE                Object position along y                                    [pixel]
#   5 X_WORLD                Barycenter position along world x axis                     [deg]
#   6 Y_WORLD                Barycenter position along world y axis                     [deg]
#   7 A_WORLD                Profile RMS along major axis (world units)                 [deg]
#   8 B_WORLD                Profile RMS along minor axis (world units)                 [deg]
#   9 THETA_WORLD            Position angle (CCW/world-x)                               [deg]
#  10 FWHM_WORLD             FWHM assuming a gaussian core                              [deg]
#  11 ELONGATION             A_IMAGE/B_IMAGE                                           
#  12 ELLIPTICITY            1 - B_IMAGE/A_IMAGE                                       
         1 -13.1443      2.1203     88.8532   1.4138934546e+02   5.5724113270e+01     2.005724    0.1780935 -70.36  0.004856263    8.914    0.888
         2 -14.5847      6.9599    143.6518   1.4614373426e+02   4.3553260039e+01     4.233943     1.072155 -78.89   0.01653028    3.790    0.736
         3 -13.7851    195.5430     24.1110   7.0582672646e+01   3.2953396403e+01      1.67473     1.356578  28.83  0.007920334    1.378    0.274
         4 -13.5375    209.9341      6.8278   6.4089924051e+01   3.1161836315e+01     1.048767    0.8326885  58.30  0.006121394    1.249    0.199
         5 -12.7596      2.8652     19.9108   1.2572897097e+02   6.9720950028e+01    0.6205755    0.3314061 -39.79  0.003990009    1.373    0.272
         6 -12.4926      2.5677      7.0333   1.2092989099e+02   7.1961651459e+01     1.005588     0.278157 -47.30  0.004900389    2.523    0.604
         7  -9.8583     19.7003    247.4145   1.5035348224e+02   2.2905231111e+01    0.3052368    0.1011419  39.93  0.001829928    2.601    0.616
         8 -11.8375    174.4537    248.9789   1.2511207984e+02   1.9674631795e+00    0.3076922    0.2863611  47.84  0.002432708    1.269    0.212
         9 -12.4948    125.3861    249.5072   1.3356075342e+02   9.3443179893e+00    0.6864387    0.2558017  44.72  0.003565233    2.052    0.513
        10 -13.4769    140.7302    248.1200   1.3079426920e+02   7.2526045572e+00    0.8038454    0.5739289  52.78  0.005623014    1.197    0.165
        11 -10.9743    190.0018    245.9784   1.2205664923e+02  -7.1544888725e-02     0.190295    0.1539034  88.42  0.001069903    2.164    0.538
        12 -11.7009    184.9822    237.6973   1.2178509571e+02   1.7408380029e+00    0.2965561    0.2275178  54.26  0.001404988    1.457    0.314
        13  -9.5174     73.8123    250.3881   1.4218119857e+02   1.6298286848e+01    0.1409206   0.08442003  38.90 0.0005296256    1.649    0.393
        14 -12.9862     50.1067    217.7651   1.4370316801e+02   2.4638504601e+01     1.297478    0.7059689  60.82  0.008344436    1.551    0.355
        15 -13.9389     40.8786    229.2142   1.4606198889e+02   2.3680438981e+01    0.7793195     0.489515  63.56  0.002925319    1.224    0.183
        16 -12.9713     85.8341    225.7317   1.3808573638e+02   1.8724462050e+01     1.426736    0.2192147  49.60  0.004141389    6.853    0.854
        17 -13.3768    125.7410    231.8991   1.3158994456e+02   1.1921220032e+01     1.305336    0.1988324  41.40   0.00406286    5.278    0.811
        18 -13.1574    105.9453    230.5182   1.3497955895e+02   1.5093219020e+01     1.408019    0.1402364  42.76  0.004131332    6.242    0.840
        19 -10.9165    151.5263    229.4993   1.2664151430e+02   8.2385348741e+00    0.2621645   0.09768037  42.04  0.001214719    2.177    0.541
        20 -10.3756    173.2489    221.8422   1.2161682757e+02   5.7963990579e+00    0.2518369    0.1287518  33.43  0.001281799    1.827    0.453
        21 -10.0162     27.8636    221.9037   1.4774669289e+02   2.6337537131e+01     0.192004    0.1626453   4.99  0.001213695    2.195    0.544
        22 -10.2532     38.7988    197.4076   1.4416107071e+02   2.9682022362e+01    0.5343915    0.1750378  66.81  0.001774203    6.101    0.836
        23 -11.5071     57.1587    211.9349   1.4199101272e+02   2.4858971347e+01    0.6649633    0.1953106  57.32  0.002582531    4.230    0.764
        24 -11.2102     49.0407    206.1465   1.4298289464e+02   2.6885514895e+01     0.528731    0.1899095  63.77  0.002235207    3.691    0.729
        25  -8.3720     25.2959    215.3064   1.4777743583e+02   2.7768480463e+01   0.08760148   0.07436319 -65.00 0.0002780971    1.586    0.369
        26  -9.8308     20.0075    212.1727   1.4847787413e+02   2.8855827847e+01     0.223001     0.167792  15.74  0.001619243    2.321    0.569
        27 -12.2542     10.4815    206.7399   1.4976935145e+02   3.0737467924e+01    0.4796756    0.3401138  32.12  0.002963759    1.845    0.458
        28 -12.8840     35.8879    236.0737   1.4728795677e+02   2.3067939883e+01    0.2522617    0.2131653 -81.08 0.0007988359    1.438    0.305
        29 -11.6727     62.0003    201.3036   1.4015701455e+02   2.6248577331e+01    0.2244987    0.1983106 -77.51 0.0005095439    1.280    0.219
        30  -9.0514    195.2241    199.2249   1.1389929476e+02   5.3070428036e+00     0.182931    0.1019716 -49.96 0.0006156662    2.455    0.593
        31 -12.0321     68.2714    192.6359   1.3808755866e+02   2.7127121518e+01    0.2354214    0.2109322 -78.61 0.0004381226    1.231    0.188
        32  -9.2622    191.3326    191.9971   1.1335670824e+02   7.0887282845e+00    0.1966192    0.1064677 -60.84 0.0007052176    4.398    0.773
        33 -10.1986    249.1821    249.8380   1.1280198717e+02  -9.2338999289e+00    0.2817706   0.05756038  38.67  0.001127959    3.768    0.735
        34 -11.8619     85.7958    169.9627   1.3168679567e+02   2.9323304122e+01    0.5553784    0.5034346 -28.77  0.003597542    1.436    0.304
        35 -13.2558     65.1499    177.6206   1.3707950561e+02   3.0534655412e+01     0.450071      0.25372 -47.07  0.001666749    2.288    0.563
        36 -10.1681     98.0467    153.5705   1.2639106335e+02   3.0941735771e+01    0.2716658    0.2397348  55.10 0.0007914588    1.116    0.104
        37 -11.9965     86.8025    152.8702   1.2890726080e+02   3.2808590413e+01    0.2603095    0.2342531 -41.46 0.0005754275    1.288    0.223
        38  -9.9221    134.1407    146.0502   1.1655235940e+02   2.6239141090e+01    0.4962483    0.1511518 -51.33  0.001581739    3.605    0.723
        39  -9.2800    101.0303    149.1844   1.2493096501e+02   3.1407716200e+01    0.1911156     0.180011 -25.01 0.0003842329    1.239    0.193
        40 -12.2959     67.2921    143.5918   1.3210425859e+02   3.7541122329e+01    0.6259757    0.3947985  64.88  0.003271288    1.804    0.446
        41  -9.7846    109.4655    138.3050   1.2085686432e+02   3.2350908749e+01    0.4221736     0.259533 -22.86   0.00167091    2.990    0.666
        42  -9.4048     81.7869    133.1783   1.2677741494e+02   3.7876474467e+01    0.1973931    0.1649836  82.53  0.000554417    1.236    0.191
        43 -10.6194     96.9357    135.4753   1.2339730073e+02   3.5053585551e+01    0.2416906    0.2010199 -48.20 0.0003849252    1.214    0.176
        44 -11.7392      4.3807    170.4523   1.4869189068e+02   3.8216627709e+01    0.5668474     0.272269 -68.57  0.003550621    1.767    0.434
        45  -8.9531    106.9069    124.4634   1.1861787547e+02   3.5805713283e+01    0.1903763    0.1400625  40.30 0.0002791111    1.412    0.292
        46  -9.7609    168.1186    113.1938   1.0113714750e+02   2.5737775554e+01    0.2719827    0.2350875 -79.44 0.0009029093    1.431    0.301
        47 -10.8035     78.3830    179.3499   1.3451278807e+02   2.8434381045e+01     0.212123    0.1938354  81.94 0.0003761707    1.108    0.098
        48  -9.0604    102.3260    178.8143   1.2936747811e+02   2.5032235976e+01    0.1936749    0.1441473  83.67 0.0006081095    1.460    0.315
        49 -12.5091    132.0493    246.9159   1.3215121947e+02   8.7274793197e+00    0.6667504    0.3021966  55.28  0.003475049    2.264    0.558
        50 -11.3346      3.3358     39.3337   1.3141966896e+02   6.6029681162e+01    0.2274808    0.2109736 -32.88  0.001829437    1.270    0.213
        51 -11.4095     99.4115    248.7835   1.3786088158e+02   1.3155850899e+01    0.2999901    0.1633238  45.23  0.001432987    1.444    0.308
        52 -10.3818     81.4695    248.6310   1.4080725929e+02   1.5586904194e+01    0.2373599    0.1257426  68.92  0.001196261    1.951    0.487
        53 -10.5637    237.5001    247.9450   1.1439656342e+02  -7.4095196577e+00    0.1464778    0.1002028 -18.33  0.001004362    1.584    0.368
