#   1 NUMBER                 Running object number                                     
#   2 MAG_AUTO               Kron-like elliptical aperture magnitude                    [mag]
#   3 X_IMAGE                Object position along x                                    [pixel]
#   4 Y_IMAGE                Object position along y                                    [pixel]
#   5 X_WORLD                Barycenter position along world x axis                     [deg]
#   6 Y_WORLD                Barycenter position along world y axis                     [deg]
#   7 A_WORLD                Profile RMS along major axis (world units)                 [deg]
#   8 B_WORLD                Profile RMS along minor axis (world units)                 [deg]
#   9 THETA_WORLD            Position angle (CCW/world-x)                               [deg]
#  10 FWHM_WORLD             FWHM assuming a gaussian core                              [deg]
#  11 ELONGATION             A_IMAGE/B_IMAGE                                           
#  12 ELLIPTICITY            1 - B_IMAGE/A_IMAGE                                       
         1 -11.4573     88.9028     13.9572   7.6937717951e+01   6.0021776858e+01    0.5912167    0.3390062 -43.58  0.002788696    2.063    0.515
         2 -11.2154     92.2458      9.2528   7.3760556059e+01   5.9927135926e+01    0.3880034    0.3252213 -28.46  0.002291851    1.251    0.200
         3 -11.0118     13.8754     15.9579   1.0796251355e+02   7.0102844366e+01    0.3248944    0.2150865  14.21  0.001770913    1.819    0.450
         4 -10.3704    175.3568     20.8025   6.0759582784e+01   3.8349472648e+01    0.2046487     0.189665  76.22 0.0005461205    1.133    0.117
         5 -10.8626     22.2431      9.1829   1.0107300667e+02   7.0614173377e+01    0.3495791    0.2135439  -7.33  0.002077675    1.985    0.496
         6 -11.8921     30.2941      7.4508   9.6379751376e+01   7.0089832083e+01    0.3384605    0.2706071  -9.84  0.001194325    1.175    0.149
         7 -11.7747     39.9993      8.4314   9.2405547609e+01   6.8795243580e+01    0.5558016    0.3266377 -32.04  0.002358779    1.409    0.291
         8 -10.9689    100.1221     19.0616   7.5946753196e+01   5.7059090231e+01    0.3890293     0.269575 -52.13  0.001437557    1.924    0.480
         9 -11.5849    155.8629     13.6661   6.1400771204e+01   4.4243104576e+01    0.5424919    0.2920336  30.16   0.00220374    2.113    0.527
        10 -11.2318     39.5491     19.5577   9.7715834055e+01   6.7004341712e+01    0.5918918    0.4023482 -10.55  0.003550605    1.636    0.389
        11 -10.0350     68.7438     13.6249   8.3438466931e+01   6.3779136100e+01    0.2159482    0.1703587   6.82 0.0006467063    1.210    0.173
        12 -10.4028    119.1550     12.0593   6.8057109819e+01   5.3632938378e+01    0.2334976    0.1920964  42.94 0.0003056846    1.159    0.137
        13 -12.0556     56.2283      5.5689   8.4141528502e+01   6.6939482264e+01    0.5893498    0.3374499 -21.21  0.003157053    1.623    0.384
        14 -11.7127     10.9350      6.2711   1.0549036456e+02   7.2078732702e+01     0.536188     0.424634 -71.64  0.003774554    1.758    0.431
        15 -10.2440      2.0992      3.0000   1.0880804214e+02   7.3269346104e+01    0.1813947    0.1444921  -6.86  0.001410923    1.377    0.274
        16 -11.3930      4.4354      9.8674   1.1033415853e+02   7.1876823793e+01    0.2441889     0.182396  -7.69 0.0007348937    1.483    0.326
        17 -11.0249      2.3105      6.5165   1.1013843486e+02   7.2621709444e+01    0.2120657    0.1744067 -18.64 0.0005693617    1.269    0.212
        18 -11.2686    150.8912      7.4653   5.9930556295e+01   4.6139852935e+01     0.379348    0.2811608  13.61  0.001392895    1.399    0.285
        19 -10.7927    209.9505      7.3657   5.2029546514e+01   3.0441118964e+01    0.2460157    0.1885315 -37.18  0.001079662    1.308    0.235
        20  -9.2053    124.4584      8.5277   6.5386045458e+01   5.2732020162e+01    0.1464459    0.1271004  23.63 0.0001102431    1.048    0.046
        21  -9.4820     70.6824      7.3221   7.9676390865e+01   6.4303910044e+01    0.7955613    0.3452067  54.46  0.003377629    3.057    0.673
        22 -10.9780     73.5020      5.4633   7.7776205258e+01   6.4033233858e+01    0.4039946    0.2012506  50.33  0.001935801    2.201    0.546
        23 -11.7739    194.4781      5.7118   5.3224817822e+01   3.4670370062e+01    0.4341804    0.3493794  43.97  0.002324773    1.218    0.179
        24 -10.7977    119.8463      4.5131   6.4672332012e+01   5.4241033252e+01    0.4716882    0.1781303  47.26  0.001288537    2.346    0.574
        25 -10.3166    217.8063      3.8252   5.0207006133e+01   2.8709186450e+01     0.193431    0.1521295 -57.75 0.0003570624    1.316    0.240
        26 -10.8107    172.4431      2.9519   5.5054677999e+01   4.0807793782e+01    0.3310794    0.2061816  85.25 0.0004085663    1.833    0.454
        27  -9.6064    176.5187      2.4838   5.4358722103e+01   3.9752784453e+01     0.287478    0.2476143  83.45   0.00125778    1.201    0.168
        28 -11.1178    160.0315      2.2099   5.6536714645e+01   4.4186120805e+01    0.3318947    0.2667756 -72.78  0.001726737    1.452    0.311
        29 -10.9265    130.3998      3.3622   6.2016551837e+01   5.1760992994e+01    0.2775322    0.1734817  64.56  0.001311587    1.621    0.383
        30  -9.9131    235.5900      4.2839   4.8743653813e+01   2.4191316470e+01    0.1839301    0.1273997  -2.87 0.0009452627    1.596    0.374
        31 -10.9397     19.2067      2.6236   9.9494283193e+01   7.2005171808e+01    0.3096788    0.1902834  10.57   0.00194771    1.911    0.477
        32 -11.6094     80.2724      1.7695   7.3709818910e+01   6.3190203117e+01     0.394322    0.1822039  50.12 0.0009962016    2.173    0.540
        33  -9.8042     50.4818      2.0128   8.4585907303e+01   6.8300545316e+01    0.2983798    0.1492676  35.01  0.001546174    2.137    0.532
        34 -11.5534     35.0062     13.1425   9.6880992047e+01   6.8622641064e+01    0.4335788    0.2762604 -50.17  0.002012799    1.623    0.384
        35  -9.9496    100.0918      1.7492   6.8085994125e+01   5.9068137159e+01    0.1966458    0.1830274 -31.54 0.0004680331    1.259    0.206
        36 -10.6334    144.9702      5.8438   6.0324811783e+01   4.7828618991e+01    0.2471787    0.2027192  -5.19 0.0005470035    1.228    0.186
        37  -9.2768     67.4455      1.4926   7.7823418375e+01   6.5605390248e+01    0.1306334    0.1063972  -1.09 2.726583e-05    1.025    0.024
        38 -10.8416      9.0012    135.4689   1.3055260528e+02   4.5995010064e+01    0.1673031    0.1089229 -83.94 0.0005085104    1.209    0.173
        39 -11.6920     17.0283    249.4896   1.3506798239e+02   2.6253340053e+01    0.1853079    0.1156272  38.09  0.001433956    1.816    0.449
        40 -12.3327      5.2516    240.8839   1.3640118247e+02   2.8510125136e+01    0.3910227    0.1287431  51.38  0.002841235    1.923    0.480
        41 -12.2390      3.7102    248.2853   1.3683773073e+02   2.7620748144e+01    0.3277504    0.2536723  49.50  0.003366954    1.514    0.340
        42 -12.1106     10.8858    244.8139   1.3575140697e+02   2.7459805476e+01    0.2272278    0.1341509  39.57  0.001970969    1.768    0.434
        43 -10.9846     12.1676    129.8439   1.2940517845e+02   4.6866103264e+01    0.3902325    0.1537774  63.52  0.001991933    2.849    0.649
        44  -9.3886     35.4551    130.5076   1.2415760448e+02   4.4726056564e+01    0.1107136   0.09186538 -82.17 8.043178e-05    1.081    0.075
        45 -11.6157     23.5694    121.5928   1.2598536713e+02   4.7616112309e+01    0.3769068    0.1832881  86.57 0.0009884281    2.192    0.544
        46 -10.1813      3.5088    118.5263   1.3044229376e+02   4.9751423467e+01    0.1062663   0.07985211  89.35 7.309675e-05    1.028    0.028
        47 -10.6501      4.6425    113.4414   1.2973617285e+02   5.0703989905e+01    0.2024603    0.1391226  11.14   0.00143388    2.154    0.536
        48 -10.2926    249.2844    111.9699   7.5154123847e+01   9.1603206968e+00    0.1976128     0.163482  -3.00  0.001163337    1.074    0.069
        49  -9.1320     20.2495    112.3341   1.2578925981e+02   4.9793353157e+01    0.1074793   0.06909826 -55.10  0.000185848    1.557    0.358
        50 -10.1137     65.9850    110.7132   1.1382036777e+02   4.5437954140e+01    0.1734398    0.1547174  87.52  0.001038932    1.062    0.058
        51 -11.0367      3.8890    109.0541   1.2952297310e+02   5.1647055779e+01    0.3016652    0.1444785  29.98  0.001865087    2.441    0.590
        52 -10.3529     58.0502    107.9625   1.1541962570e+02   4.6990670852e+01    0.1881241    0.1405616 -33.73 0.0008140169    1.708    0.414
        53 -10.1358     13.5045    108.4632   1.2706125021e+02   5.1108451951e+01    0.1093499   0.08581466 -81.05 -1.641017e-05    1.028    0.027
        54  -9.7933     93.2093    104.7794   1.0556055664e+02   4.2770106647e+01    0.2160844    0.1546069 -16.40   0.00106535    2.167    0.539
        55 -10.0602     89.6452    105.2974   1.0659834275e+02   4.3225213725e+01     0.134772   0.09871624  77.94 0.0006481101    1.696    0.410
        56  -9.8025    113.5252    102.4932   9.9847685349e+01   3.9745554949e+01       0.1345    0.1327184 -61.18 8.201534e-05    1.016    0.016
        57 -11.3332     57.6419    101.6050   1.1441184384e+02   4.8381945421e+01    0.2999579     0.227257  36.32  0.001401521    1.492    0.330
        58 -11.8921     18.4437     94.6353   1.2410870363e+02   5.3632314962e+01    0.4010309    0.2474786 -73.37  0.002136097    1.299    0.230
        59  -9.3710    129.4933     97.5195   9.4671810222e+01   3.7633332440e+01    0.1397519     0.137905  13.22 9.917731e-05    1.006    0.006
        60  -8.8793    101.6393     96.6884   1.0150575216e+02   4.3016562949e+01    0.1376848    0.1076284  -6.90 0.0003078126    1.747    0.428
        61 -10.6533     78.9565     94.9660   1.0721940735e+02   4.6974937142e+01    0.1904543     0.175144 -60.90 0.0003133774    1.023    0.023
        62 -10.9791     58.6149     91.3181   1.1216666644e+02   5.0447068143e+01    0.2512168    0.2034796 -37.52 0.0002184895    1.360    0.264
        63 -11.0233     27.6056     91.1738   1.2103981097e+02   5.3637458001e+01    0.4517635    0.2140629  53.42  0.002293277    2.595    0.615
        64 -10.2883     17.5585     88.6839   1.2354494951e+02   5.4953895709e+01    0.2736049    0.1828171 -23.19    0.0017284    2.164    0.538
        65 -10.8958     76.4883     89.2879   1.0662370411e+02   4.8516209343e+01    0.2246573    0.2117913 -64.10 0.0005465599    1.035    0.034
        66 -10.2288     43.0753     89.1035   1.1622805317e+02   5.2644016107e+01    0.4054505    0.1667833  54.73  0.001653841    3.816    0.738
        67 -10.4694      1.8501     89.7733   1.2810644015e+02   5.5750972830e+01    0.1873951    0.1164638 -77.56  0.001280746    1.236    0.191
        68 -11.2693     98.6809     89.2334   1.0044988430e+02   4.5027844573e+01    0.2362531    0.2060921  36.00  0.001382195    1.218    0.179
        69 -10.5531     25.3582     84.8815   1.2070083365e+02   5.5160082184e+01    0.2360024    0.1624108 -83.66 0.0006801125    1.355    0.262
        70  -9.4253    124.0150     87.0105   9.3231174092e+01   4.0724653924e+01    0.1719842    0.1692199   5.11 0.0006469208    1.013    0.013
        71 -11.1230     54.5609     84.6616   1.1196931178e+02   5.2339411239e+01    0.2900702     0.194708 -71.31  0.001665156    1.464    0.317
        72  -9.6654     72.2272     84.1575   1.0664587518e+02   5.0189959769e+01    0.2713147    0.1327503 -41.92  0.001225387    2.159    0.537
        73  -9.2240    129.4021     83.6008   9.0934712408e+01   4.0255887221e+01    0.1409933      0.13626  -0.86 6.549404e-05    1.020    0.019
        74  -9.9578     78.1608     83.4800   1.0475624889e+02   4.9480576283e+01    0.2216441    0.1263577  44.24 0.0005775215    1.913    0.477
        75 -10.7239      3.7023     82.9648   1.2678245150e+02   5.7064941944e+01    0.1859824    0.1515693  55.20  0.001067352    1.405    0.288
        76 -10.3911     89.2741     80.3037   1.0074153658e+02   4.8406561010e+01    0.2633116    0.1771605 -59.60 0.0008105665    1.555    0.357
        77  -9.3654    250.3404     80.7163   6.7374349566e+01   1.2639525826e+01    0.1338351     0.105062 -57.46 0.0007014326    1.633    0.387
        78 -11.3494     11.1908     87.7808   1.2524197256e+02   5.5588154130e+01    0.5299603     0.193397 -70.68  0.002473995    2.122    0.529
        79 -10.3827    176.7919     77.2265   7.8510084328e+01   3.0492963785e+01    0.3496199    0.2371698  40.38  0.001611432    1.457    0.314
        80  -9.3172    124.2946     78.7230   9.0813453683e+01   4.2219024895e+01    0.1378496    0.1149947 -82.88 0.0002580359    1.528    0.346
        81 -11.5411     64.1077     80.0328   1.0807286398e+02   5.2144778401e+01     0.405182     0.291925 -60.59  0.002189842    1.267    0.211
        82 -11.7063     56.2733     75.3945   1.0937051367e+02   5.4095796104e+01    0.3996971     0.289773  17.80   0.00140187    1.764    0.433
        83  -9.5877    160.3218     75.0137   8.1253427300e+01   3.4806685684e+01    0.2068598    0.1953598 -16.71 0.0005829153    1.058    0.055
        84  -9.0564     74.7309     75.6797   1.0378374237e+02   5.1592203182e+01    0.1299324    0.0955934 -27.73  0.000190418    1.563    0.360
        85 -10.4710     15.3384     75.8832   1.2228829458e+02   5.7820405596e+01    0.1736908    0.1458443  62.82 0.0009851836    1.350    0.259
        86  -9.9493     32.3904     73.1662   1.1642679475e+02   5.7055727502e+01    0.1806478    0.1583279  66.71 0.0003695555    1.298    0.230
        87 -10.9094     35.9891     71.9873   1.1503181530e+02   5.6977712601e+01    0.4485991    0.2670389 -66.13  0.001612132    1.459    0.315
        88 -10.2031      6.7069     74.3360   1.2472531158e+02   5.8700329014e+01    0.1962294    0.1313568 -69.37 0.0009694367    1.142    0.125
        89 -10.0425      3.1625     73.6282   1.2572009895e+02   5.9052828333e+01    0.2182568    0.1541177 -14.21  0.001039054    1.966    0.491
        90  -9.0375    224.2785     74.3013   6.9428001438e+01   1.9369347417e+01    0.1482901    0.1046103  19.46 0.0002608321    1.543    0.352
        91  -9.7199    136.4894     74.1205   8.6419227933e+01   4.0442493813e+01    0.2191219    0.1435615 -35.80 0.0006118554    1.514    0.340
        92 -11.1816    105.9849     71.7611   9.3608191473e+01   4.7150189093e+01    0.2776268    0.2478364  39.70 0.0006326577    1.169    0.144
        93  -9.3708     92.4669     72.4805   9.7650223271e+01   4.9439010405e+01    0.1359281    0.1269513 -44.74 0.0001195943    1.028    0.027
        94  -9.9097     80.8439     72.0710   1.0096661493e+02   5.1411703426e+01    0.2159085    0.1505067 -76.37 0.0006657063    2.001    0.500
        95 -10.3337    114.3467     66.8388   8.9813234377e+01   4.6439286293e+01    0.2395632    0.1980179  69.13 0.0003699893    1.472    0.321
        96 -10.9701     34.4130     64.7947   1.1397982501e+02   5.8642845292e+01    0.2859865    0.2086806 -42.64 0.0006248805    1.307    0.235
        97 -10.6266     38.9982     62.5497   1.1190350249e+02   5.8677246613e+01     0.255078    0.2005174 -29.73  0.001014923    1.380    0.276
        98 -10.8086     40.6876     59.3320   1.1052258989e+02   5.9178674509e+01    0.3613928    0.2221308 -43.41  0.001665177    1.475    0.322
        99 -10.5199    131.6971     64.4726   8.4581436113e+01   4.3180556489e+01    0.3627303    0.3015614  49.52  0.001904192    1.235    0.190
       100 -10.3402     14.3234     64.1426   1.2060456336e+02   6.0369264057e+01    0.3041824    0.1455029  89.17   0.00138531    3.192    0.687
       101  -9.7669     72.5798     63.2978   1.0100452343e+02   5.4420905155e+01    0.2507157    0.1183879 -53.33 0.0009272782    2.037    0.509
       102 -11.2593      3.7853     61.4051   1.2367233469e+02   6.1581287695e+01    0.4365018    0.2062913  66.55  0.001826853    3.416    0.707
       103 -11.0180      9.7069     60.4735   1.2149841555e+02   6.1435143337e+01    0.3364703    0.1408431 -52.92 -9.475106e-05    1.875    0.467
       104 -10.7205     62.4950     62.1740   1.0393550746e+02   5.6051190697e+01    0.2819715    0.1896733 -44.13   0.00120116    1.320    0.242
       105 -10.1806     60.2014     57.9770   1.0348037806e+02   5.7200718603e+01    0.2322182    0.1714734 -57.61 0.0006022957    1.295    0.228
       106  -9.9819    101.1575     61.9510   9.1919940538e+01   4.9907236647e+01    0.2233632    0.1570289 -65.22 0.0008162089    1.931    0.482
       107 -12.7291     20.7929     57.8488   1.1712522419e+02   6.1235044872e+01    0.4507827    0.3023808 -69.40  0.001657953    1.292    0.226
       108 -12.1141      5.2393     51.5463   1.2140045895e+02   6.3558165437e+01    0.5172321    0.1919734 -40.11            0    2.903    0.656
       109 -10.1304     11.5389     48.0025   1.1833191364e+02   6.3920377515e+01    0.1742628    0.1604961  -5.62  0.000521591    1.346    0.257
       110 -10.3697     20.5107     51.0590   1.1569133926e+02   6.2670024199e+01    0.2607667    0.2143726 -35.07  0.001240593    1.253    0.202
       111 -11.5791     17.5173     45.1008   1.1537212913e+02   6.4116121038e+01    0.4983077    0.3479093 -49.35  0.002830991    1.158    0.137
       112  -9.6498     66.8021     60.7982   1.0212747596e+02   5.5745874909e+01    0.1631866    0.1477394 -85.97 0.0004007815    1.294    0.227
       113 -11.0818     54.0760     58.2546   1.0563273852e+02   5.7913230002e+01    0.5092525     0.366218 -63.01  0.003005929    1.390    0.281
       114 -11.9473     88.1663     53.6427   9.3042070534e+01   5.3796350275e+01    0.4606116    0.3808391   7.94  0.002464367    1.337    0.252
       115 -10.4015    225.1333     54.7719   6.3934495242e+01   2.1579594600e+01    0.4706595    0.2813894   4.09  0.001987198    2.126    0.530
       116 -10.0404     99.8012     56.2121   9.0422116339e+01   5.1217873018e+01    0.1898562    0.1539265 -13.39 0.0004099213    1.302    0.232
       117 -11.5884    114.4616     53.9709   8.5540052314e+01   4.8699836988e+01    0.3456514    0.3075997   1.83  0.000668172    1.121    0.108
       118  -9.1681    165.5358     54.4504   7.3762216470e+01   3.6694615034e+01    0.1509811    0.1449644  15.68 0.0001193904    1.023    0.023
       119 -10.2545     34.3229     53.5664   1.1127710647e+02   6.0991071329e+01    0.2568865    0.1510465 -42.54 0.0008194331    1.539    0.350
       120  -9.8875    106.0456     53.0108   8.7535235332e+01   5.0580619315e+01    0.2128398    0.1773612 -83.79  0.000663433    1.649    0.394
       121 -11.8765     66.6428     52.4987   9.9619606809e+01   5.7411138038e+01    0.5293472    0.2292018  33.29  0.002306113    2.756    0.637
       122  -9.6294     75.3179     50.2791   9.5994651458e+01   5.6544367464e+01    0.2129238    0.1607392  15.34 0.0002715464    1.560    0.359
       123 -10.6010     77.8381     46.4144   9.3825594986e+01   5.6863579523e+01    0.3811148    0.2815536 -11.58    0.0010959    1.554    0.357
       124  -9.3007    169.5745     52.5227   7.2346800838e+01   3.5948658297e+01    0.1509879    0.1443266   9.40 3.773426e-05    1.020    0.019
       125 -10.5358    102.2663     47.7617   8.6761949455e+01   5.2237345811e+01    0.3288669    0.1836467  33.75  0.000946785    2.059    0.514
       126  -9.5794     83.5094     56.9790   9.5595237421e+01   5.3956690057e+01    0.1993468    0.1232089 -42.78 0.0003326068    1.477    0.323
       127 -10.4210     31.0597     46.0691   1.1045033667e+02   6.2824269806e+01    0.2618452    0.1919432 -87.32  0.001022665    1.808    0.447
       128 -10.8636     25.9459     43.8776   1.1179662079e+02   6.3713448845e+01    0.2510844    0.2268267  86.29  0.001102385    1.347    0.257
       129  -9.4433     64.9835     46.2208   9.8100837317e+01   5.8855549175e+01    0.1675641    0.1534877 -16.97            0    1.093    0.085
       130  -9.3697     91.3377     44.7414   8.8924710009e+01   5.4834069559e+01    0.1906287    0.1188384 -30.23 0.0004612005    1.556    0.357
       131 -10.4557     70.3503     42.0937   9.4789224388e+01   5.8834344824e+01    0.2794382    0.2727175  12.53  0.001746762    1.185    0.156
       132 -11.6776    133.6808     34.9186   7.3803868172e+01   4.7331603009e+01    0.6559682    0.3764576  -0.20 0.0005434964    2.495    0.599
       133 -12.2591    121.7413     36.9416   7.7449352556e+01   4.9831262847e+01    0.6146498    0.5201936  66.83  0.001824636    1.386    0.279
       134 -10.4280    126.9194     30.9435   7.3880322842e+01   4.9481455077e+01    0.3256579    0.2375575  37.40  0.001240766    1.341    0.255
       135  -9.5626     95.0172     42.2895   8.6893913047e+01   5.4569689956e+01    0.1862467    0.1728019  -1.05 0.0004810786    1.050    0.048
       136  -9.5185      2.3235     42.3128   1.2062096216e+02   6.5619237828e+01    0.1559734    0.1037946  12.87  0.001049588    1.961    0.490
       137  -9.7028      5.7198     39.3949   1.1862443283e+02   6.6033199643e+01    0.2202814    0.0938635 -44.73  0.001215122    1.981    0.495
       138 -10.8473    139.0822     40.4192   7.4589023793e+01   4.5260272985e+01    0.3223861    0.2592482  75.77  0.001609551    1.512    0.339
       139  -9.2078     58.0417     41.1982   9.8817205501e+01   6.0765031399e+01    0.1459389    0.1009864  31.42            0    1.641    0.391
       140 -10.1974     36.0965     41.2408   1.0708701443e+02   6.3314748118e+01    0.1997961    0.1530322 -19.93  0.001057627    1.405    0.288
       141  -9.9907    182.0902     40.2857   6.6128792839e+01   3.4336456371e+01    0.2681536    0.1742682  40.76  0.001200905    1.541    0.351
       142 -10.0868     12.6279     38.2850   1.1556461987e+02   6.5838983296e+01     0.360543   0.09638654 -64.01  0.001452645    3.283    0.695
       143  -9.3989      8.9797     35.5467   1.1634470726e+02   6.6622758196e+01     0.194924    0.1121818  16.06  0.000893134    2.226    0.551
       144 -10.3486     22.7289     38.5803   1.1156523683e+02   6.5044413398e+01    0.2077876    0.1719519 -76.95 0.0006780662    1.368    0.269
       145 -11.2281     26.5214     35.3143   1.0903989541e+02   6.5377133745e+01    0.3841912    0.1812437 -42.82  0.001472262    1.778    0.438
       146 -10.6199      1.5127     35.5194   1.1942374143e+02   6.7044838112e+01    0.2561466    0.1241407 -59.98  0.001547652    1.485    0.327
       147 -10.7349      3.5807     33.3803   1.1804308026e+02   6.7368624348e+01    0.3004099    0.1736507 -82.62  0.001762352    2.073    0.518
       148  -9.0762     69.6501     36.7106   9.3022171029e+01   5.9911992075e+01    0.1339222   0.09539497  -6.20 0.0003197441    1.666    0.400
       149  -9.7795     91.3380     34.1799   8.4881547807e+01   5.6604720476e+01    0.2994415    0.1208021 -28.42  0.001107079    2.757    0.637
       150  -9.5234     38.8836     35.4819   1.0410413183e+02   6.4152904952e+01    0.1470587     0.119447  17.80 0.0002761252    1.429    0.300
       151 -11.4271    145.0899     32.9742   7.0570698679e+01   4.4795737624e+01    0.2375447    0.2160388  17.09  0.001286917    1.042    0.040
       152  -9.4443     54.7991     34.4064   9.7539794726e+01   6.2458844633e+01    0.1584108    0.1158918  11.48 0.0003825216    1.596    0.373
       153  -9.9210     50.4363     33.8682   9.9000390533e+01   6.3120101520e+01    0.1915452    0.1733271  60.15 0.0007314134    1.483    0.326
       154  -9.2012     71.6567     33.7029   9.1150672621e+01   6.0122111819e+01    0.1352257   0.09573791  -4.23  0.000174272    1.668    0.401
       155 -10.7637     38.8325     30.7907   1.0246004328e+02   6.5049664948e+01    0.3375489    0.1929926 -18.73 0.0004466638    2.381    0.580
       156 -11.1759     43.4998     30.5303   1.0047555426e+02   6.4574869929e+01    0.3422964    0.2368627  -1.56 0.0006715455    1.773    0.436
       157 -11.2521     43.3147     27.2950   9.9306980132e+01   6.5189143810e+01    0.4360257    0.2484856  14.71  0.002250317    2.422    0.587
       158 -11.1424     18.8535     31.9593   1.1118667453e+02   6.6662942739e+01    0.4619391    0.2515607   6.22  0.002590002    2.587    0.614
       159  -9.9879    205.1161     30.8271   5.9689669801e+01   2.9402403959e+01    0.2337921    0.1994114 -57.68 0.0008290718    1.277    0.217
       160  -9.5712    166.4654     31.1226   6.5772848152e+01   3.9543586704e+01    0.2210571    0.1469423 -21.48 0.0004995693    1.520    0.342
       161  -9.6225     96.4888     29.1764   8.1291228506e+01   5.6380441813e+01    0.2711754    0.1300529 -24.55  0.001112422    2.215    0.549
       162 -10.9998      7.8848     28.6226   1.1491691191e+02   6.8072495197e+01    0.3058059    0.2052444  63.91  0.001900243    2.348    0.574
       163 -10.1047    149.9876     29.5900   6.8332621294e+01   4.3988482045e+01    0.3739371    0.1560655  68.00  0.001247839    3.069    0.674
       164 -10.3665     69.8814     28.6308   8.9716262696e+01   6.1264700506e+01    0.2469119    0.1720277 -40.70 0.0007786602    1.356    0.262
       165 -10.0812    139.8226     27.0837   6.9494641257e+01   4.6856799980e+01    0.3303637    0.1968561  51.88   0.00143379    1.597    0.374
       166 -11.7546     76.7936     25.7367   8.6098902350e+01   6.0582335768e+01    0.3020495    0.2665046  19.06 0.0003546647    1.162    0.139
       167 -11.9022     76.2583     21.4393   8.4407958346e+01   6.1338204387e+01    0.5348274    0.3153617  39.67  0.002243881    1.782    0.439
       168  -9.9254    153.6073     25.6477   6.6194583774e+01   4.3533834755e+01    0.2370706    0.1795923 -89.84 0.0006435642    1.677    0.404
       169 -10.2968    100.7108     25.5368   7.8548202927e+01   5.6051666831e+01    0.2521838    0.2005708 -38.65 0.0007463071    1.332    0.249
       170  -9.3747     18.3595     26.3003   1.0958296700e+02   6.7804323653e+01    0.1216345   0.06918176 -32.18 0.0007036343    1.715    0.417
       171 -10.2277    114.2220     24.8198   7.4589315240e+01   5.3226345566e+01    0.2864452    0.2183056  30.58  0.001159823    1.284    0.221
       172 -10.2490     59.1506     24.3187   9.1834444311e+01   6.3624908712e+01    0.2507954    0.1525999 -25.65  0.001328341    1.595    0.373
       173 -10.5992    219.0376     23.4548   5.5765749154e+01   2.6574409921e+01    0.2866233    0.1979021   9.01  0.001376438    1.665    0.399
       174  -9.6232     89.2074     22.8016   8.0801743790e+01   5.8750421854e+01    0.2318965    0.1520303 -23.04 0.0006931167    1.435    0.303
       175 -10.3840     85.3719     20.8883   8.1166123953e+01   5.9759743937e+01    0.4142278    0.1725579  34.57  0.001591982    2.976    0.664
       176  -9.4191    229.5081    247.9628   1.0310400614e+02  -1.3555613800e+00    0.1242477   0.09424958  -7.34 0.0006801349    1.535    0.349
       177  -9.6464    224.7524    246.9445   1.0367514332e+02  -5.8342840266e-01    0.1102997   0.08225746  -8.22 0.0007476402    1.574    0.365
       178 -10.5336      2.0821     21.7010   1.1550222893e+02   6.9764465075e+01    0.2556955    0.1305288 -56.49  0.001106923    1.426    0.299
       179 -10.3509     20.1160     16.7674   1.0530899840e+02   6.9455301181e+01    0.1625686    0.1385056 -20.75 0.0003530123    1.179    0.152
       180 -11.0705     13.2474     20.4589   1.0990001420e+02   6.9303667194e+01    0.2537755    0.1922145 -62.19 0.0008273245    1.332    0.249
       181  -8.9039    170.6861    246.6869   1.1186560402e+02   7.4401812210e+00    0.1023645   0.06590728  26.26 0.0004265458    1.637    0.389
       182  -9.0882    136.3396    245.6754   1.1709864271e+02   1.2544682935e+01    0.1049564   0.06277468  61.77 0.0007051194    1.726    0.420
       183 -11.0782     37.6809    241.9298   1.3183942031e+02   2.5275625690e+01     0.254409   0.06997497  54.89  0.001495754    2.589    0.614
       184  -9.4838     60.7000    241.1586   1.2839373245e+02   2.2894258093e+01    0.1812249   0.04792877  42.26 0.0009816124    2.754    0.637
       185  -9.5492    202.5114    240.0892   1.0615946930e+02   3.3276257871e+00    0.1252169    0.1029348 -13.96 0.0006659616    1.533    0.348
       186 -10.7900     30.8013     20.4191   1.0188952460e+02   6.7799665297e+01    0.2797531    0.1748002 -54.58   0.00129466    1.591    0.372
       187 -10.1595     26.2229     16.4395   1.0233080258e+02   6.8964131529e+01    0.2356768    0.2168777  43.25 0.0008373142    1.506    0.336
       188  -9.9015    132.1091     20.1761   6.8480766805e+01   4.9593854129e+01    0.2402253    0.1825998  24.70  0.001215583    1.306    0.234
       189 -12.6275     25.8607    236.1425   1.3329819233e+02   2.7278073933e+01    0.3034542    0.2080108  52.21  0.002236025    1.265    0.209
       190  -9.7097     58.3498     18.8870   8.9754768627e+01   6.4630859769e+01    0.2529112    0.1016093 -44.83  0.001074901    2.541    0.606
       191  -9.9700    199.8611     17.1732   5.6173056786e+01   3.2190829548e+01    0.2151904      0.19262 -60.27  0.000460536    1.186    0.157
       192 -10.3891     49.1079     16.0493   9.2140543564e+01   6.6395315454e+01    0.1878321    0.1564883 -28.47 0.0006568517    1.103    0.094
       193 -13.6252     10.0853    229.8652   1.3534161489e+02   2.9661811638e+01    0.6357359    0.3071619  65.87   0.00508686    1.482    0.325
       194 -10.2760    190.6611     13.8964   5.6304957429e+01   3.4950205421e+01    0.2543533    0.1906589  51.35 0.0006953484    1.273    0.215
       195  -9.8529    249.2002    234.0987   9.8294711043e+01  -3.1157073948e+00    0.1608738    0.1018405  24.15  0.000436641    1.160    0.138
       196  -9.5238    140.6525    227.3291   1.1452981529e+02   1.4173134267e+01     0.110996   0.06963659  63.68 0.0007049551    1.759    0.431
       197 -10.4071     62.6141     14.0578   8.5891701631e+01   6.4720617636e+01    0.1926744     0.178518  29.60 0.0005250474    1.311    0.237
       198  -9.7267    162.3264     13.2815   6.0190014440e+01   4.2575838537e+01    0.1580401     0.100526  35.08 0.0004462327    1.598    0.374
       199  -9.4912    109.6886    226.6699   1.1956442800e+02   1.8735382117e+01   0.09350686   0.07715971  22.84 0.0007042711    1.670    0.401
       200 -10.3358     33.1660    225.1140   1.3169223891e+02   2.8171604314e+01    0.2301432   0.07158554  48.13  0.001426084    2.208    0.547
       201 -11.9010      4.0994    232.5390   1.3629344224e+02   2.9800157520e+01    0.3194531    0.1229465  69.24 0.0003462081    2.014    0.503
       202 -12.1706      7.7909    217.7062   1.3522567310e+02   3.1685421077e+01     0.284868    0.1689382  76.08  0.002437836    1.246    0.197
       203 -10.6133      4.3621    212.6433   1.3555345369e+02   3.2762423920e+01    0.1717241    0.0676599  55.40  0.001218472    1.796    0.443
       204 -11.0522     15.9970    212.3050   1.3374093966e+02   3.1787465937e+01    0.1799438    0.1510558 -70.58  0.001678424    1.648    0.393
       205  -9.3153    209.4869    211.5097   1.0109763274e+02   5.0856019555e+00    0.1174147   0.08810015  31.83 0.0008104696    1.002    0.002
       206 -10.2103     20.5936    209.7050   1.3289490106e+02   3.1771546627e+01     0.158683   0.07209703  57.44 0.0005366695    1.641    0.391
       207  -9.7109    246.6553    207.1707   9.4544124650e+01  -4.8359547713e-01    0.1503736   0.09155618  -5.52 0.0009494059    1.730    0.422
       208 -10.2686    123.9903    206.0043   1.1497274240e+02   1.9612319092e+01    0.1588152    0.1263231  51.08            0    1.025    0.024
       209  -9.5096    196.8702    203.8336   1.0201955827e+02   8.0287124211e+00     0.156155    0.1250583  51.36 0.0007650932    1.347    0.257
       210 -11.9158      9.2290    203.0309   1.3440213994e+02   3.3864840916e+01    0.2360634    0.1529541  83.38  0.001225117    1.211    0.174
       211  -9.6972    180.3096    199.3620   1.0417072785e+02   1.1377753810e+01    0.3301607   0.09358441  46.88  0.001320769    2.980    0.664
       212  -9.5960     23.2972    197.3259   1.3181590059e+02   3.3523060903e+01     0.081832    0.0695697 -65.11  0.000488819    1.629    0.386
       213 -10.4899      6.8802    191.7802   1.3428372124e+02   3.5912738492e+01    0.2169454   0.09696378  73.30  0.001396529    1.855    0.461
       214  -9.6224     15.3443    185.1322   1.3251044429e+02   3.6309347665e+01    0.1415237   0.06832571  85.74 0.0009407353    1.790    0.441
       215  -9.4616      1.3142    183.1454   1.3483116972e+02   3.7828581028e+01    0.1300514   0.06390921  85.62 0.0004397636    1.629    0.386
       216  -9.9599    100.9940    175.9910   1.1562672262e+02   2.7876300423e+01    0.1625005     0.137694  62.34  0.001140224    1.010    0.010
       217 -11.1014      4.5400    167.4301   1.3348818844e+02   4.0328144393e+01    0.2672579    0.1409458  52.56  0.001354908    1.603    0.376
       218  -9.3808     41.4740    158.2436   1.2564809837e+02   3.8673639314e+01     0.149698   0.08639146  88.94 0.0009334063    1.631    0.387
       219  -8.7709    247.3116    155.6731   8.5044367566e+01   4.5341666887e+00    0.1103079    0.1027003 -58.37 0.0003816733    1.663    0.399
       220 -10.1653      2.0081    153.4989   1.3319097225e+02   4.3071051126e+01    0.1334708   0.08739861  42.84  0.001030482    1.586    0.370
       221  -9.7568     21.9077    143.1421   1.2839709497e+02   4.3449649137e+01    0.1703776     0.115166  75.60 0.0007033229    1.254    0.203
       222 -11.3809      2.8108    138.3812   1.3208225578e+02   4.5881140462e+01    0.2332901    0.1450133  45.26  0.001730444    1.626    0.385
       223 -10.8147     11.1123    141.1288   1.3052753273e+02   4.4729892131e+01    0.2283924    0.1174086  25.01 0.0008197526    2.574    0.611
