#   1 NUMBER                 Running object number                                     
#   2 MAG_AUTO               Kron-like elliptical aperture magnitude                    [mag]
#   3 X_IMAGE                Object position along x                                    [pixel]
#   4 Y_IMAGE                Object position along y                                    [pixel]
#   5 X_WORLD                Barycenter position along world x axis                     [deg]
#   6 Y_WORLD                Barycenter position along world y axis                     [deg]
#   7 A_WORLD                Profile RMS along major axis (world units)                 [deg]
#   8 B_WORLD                Profile RMS along minor axis (world units)                 [deg]
#   9 THETA_WORLD            Position angle (CCW/world-x)                               [deg]
#  10 FWHM_WORLD             FWHM assuming a gaussian core                              [deg]
#  11 ELONGATION             A_IMAGE/B_IMAGE                                           
#  12 ELLIPTICITY            1 - B_IMAGE/A_IMAGE                                       
         1 -11.9605    201.7376     15.9162   3.5278794526e+01   3.2846818361e+01     2.620113     1.846493 -58.53   0.01280826    1.310    0.236
         2 -15.1684    244.8425     64.0905   4.1677113444e+01   1.7321560984e+01     5.960229       2.5972  46.90   0.02548396    3.298    0.697
         3 -14.2369    245.6551     31.0972   3.4693948294e+01   2.1595198480e+01     3.110339     1.395087 -64.00   0.01482325    2.394    0.582
         4  -8.3749    192.1959     36.0287   4.1277479678e+01   3.2725555800e+01    0.3389435    0.1738024  51.33  0.001383329    2.089    0.521
         5  -8.6456    169.2286     23.8124   4.1058732585e+01   3.9674061095e+01    0.3682697    0.2131565  -9.77  0.001676793    2.607    0.616
         6 -13.6845    235.3392     58.2281   4.1439328323e+01   2.0094239429e+01     2.529315    0.9570394 -43.42  0.009184965    2.219    0.549
         7 -10.2738      8.2295     13.0922   8.6892123102e+01   7.2292395561e+01    0.2550548    0.2024307 -51.30  0.001779986    1.813    0.448
         8  -8.5342    181.4747      4.4960   3.4494126570e+01   3.8694368351e+01    0.1252941    0.1067326  83.95 2.236825e-05    1.045    0.043
         9  -7.9991    177.9999      2.8017   3.4415515372e+01   3.9665897983e+01    0.1865907    0.1158067 -55.70 0.0009009732    1.618    0.382
        10  -9.3412    191.6068    191.6072   7.8503972172e+01   5.2726223679e+00    0.4920121     0.186801 -45.75   0.00185407    2.810    0.644
        11  -8.5759    179.9068    193.4884   8.1319651633e+01   6.9650584861e+00    0.2267493    0.1931893 -30.86 0.0001722181    1.178    0.151
        12  -8.6819     42.0345    193.9571   1.1372057737e+02   2.8748605959e+01    0.1887522    0.1594841  78.96 0.0003115521    1.008    0.008
        13  -9.2667    241.5255    174.4944   6.5676719548e+01  -3.9860247873e-02    0.2553107    0.1711007  44.68 0.0007763123    1.802    0.445
        14  -7.3436    194.3069    174.6632   7.4546623235e+01   7.9457955375e+00    0.1365579    0.1170949 -81.90  0.000227595    1.676    0.403
        15  -8.4575    176.7815    171.4052   7.7576787803e+01   1.1842692305e+01    0.2655484    0.1953234 -41.35 0.0004505365    1.351    0.260
        16  -7.5704    224.2964    171.2797   6.8047146378e+01   3.2876923487e+00    0.1356659   0.09721673  -3.38 0.0006953422    1.536    0.349
        17  -8.1626    195.0495    167.9863   7.2996049491e+01   9.0779045263e+00    0.1755399    0.1610825  -4.83 0.0004067379    1.018    0.018
        18  -8.4499    229.0949    166.8037   6.6263737406e+01   3.2521369848e+00    0.1937881    0.1742724 -39.75 0.0005343921    1.238    0.192
        19 -11.9614     13.2993    157.4095   1.1711876146e+02   4.0288902663e+01    0.8489283    0.5387055  61.53  0.004288618    1.600    0.375
        20 -11.6980     16.7925    152.2838   1.1568456658e+02   4.1254299232e+01    0.7330946    0.3935886  52.00  0.003714767    1.987    0.497
        21 -10.0384    239.7952    143.9313   5.9652256945e+01   5.3458621446e+00    0.2921964     0.246623  25.68   0.00103612    1.316    0.240
        22  -9.6303    189.3837    156.3451   7.1645254303e+01   1.2417953825e+01    0.5188056    0.3302558  65.00  0.002116417    2.543    0.607
        23  -9.1661    191.9257    152.8750   7.0350937687e+01   1.2603170158e+01    0.3124708    0.2274307 -59.28 0.0007180551    1.694    0.410
        24  -7.9637    134.5957    155.3796   8.4088065219e+01   2.3514079618e+01    0.3001661    0.1500463 -53.99  0.001129495    2.138    0.532
        25  -9.4154    232.5415    151.3285   6.2420358930e+01   5.3327959378e+00    0.2474728    0.2152648 -13.55 0.0004816187    1.078    0.072
        26  -7.2832    224.4353    152.5322   6.4079411446e+01   6.5507355973e+00    0.1398879    0.1220402 -24.10 0.0002062468    1.008    0.008
        27  -9.0344    133.4272    148.4658   8.2866223796e+01   2.5333438121e+01    0.4984909    0.2832175 -53.01  0.001365979    1.823    0.451
        28  -9.2810    130.4527    139.9084   8.1682619371e+01   2.7903168944e+01    0.5406971    0.3974015  83.67  0.001158589    2.005    0.501
        29 -11.6601    248.9417    147.9802   5.9058243954e+01   3.1299112985e+00     1.728192    0.3981667 -34.48  0.005082861    4.659    0.785
        30  -7.7684    143.5254    148.5375   8.0335791431e+01   2.3296503003e+01    0.2743963    0.1492508 -57.89  0.001026563    2.219    0.549
        31 -11.2740     67.1246    143.6761   1.0027769338e+02   3.7922128616e+01     1.814177    0.8299832 -54.96  0.007431488    1.979    0.495
        32 -11.0953     43.6287    144.8695   1.0729593326e+02   4.0535340617e+01    0.4710036    0.3812125  25.91 0.0009324754    1.419    0.295
        33 -12.5957     51.7342    141.9162   1.0447713949e+02   4.0349134618e+01     1.660822     1.139855 -22.34  0.008057599    1.988    0.497
        34  -7.6095    187.6331    147.2691   6.9974773253e+01   1.4564829658e+01    0.1454776    0.1203949  87.03 0.0006995368    1.661    0.398
        35  -7.5876    177.8576    147.1300   7.2019933129e+01   1.6575086614e+01    0.2052322    0.1728023  -9.55 0.0003885333    1.276    0.216
        36  -7.2883    198.6927    145.6889   6.7375940436e+01   1.2668343178e+01    0.1493341    0.1122128  -2.46 0.0004754007    1.619    0.382
        37  -8.7810    229.4960    143.3870   6.1231861830e+01   7.2564848154e+00    0.3962896    0.2227813  16.45  0.001478186    3.521    0.716
        38  -9.3195    234.5705    146.7520   6.1105612814e+01   5.7700425751e+00    0.2320049    0.1929806  36.74 0.0008924454    1.348    0.258
        39 -10.5254    186.4518    139.6860   6.8473637153e+01   1.6318900412e+01     0.536322    0.3958158  -4.91 0.0005699762    1.740    0.425
        40 -10.8681    189.6260    130.5065   6.5661299770e+01   1.7478722530e+01    0.5243304    0.4270351  43.14  0.002694339    1.292    0.226
        41  -9.1790    206.9925    139.1911   6.4306338163e+01   1.2267757016e+01    0.4020227    0.2057758 -55.90  0.001273842    2.780    0.640
        42  -8.9758    236.2083    138.8104   5.9135040404e+01   6.8505518996e+00    0.2140675    0.1852827  65.06 0.0008654653    1.469    0.319
        43  -7.0386    174.6651    139.6892   7.0987479925e+01   1.8767499435e+01    0.1579643    0.1199646   0.92  0.000704408    1.680    0.405
        44  -8.7815    143.4976    138.4460   7.8001757247e+01   2.5571140076e+01    0.2866552    0.1490703 -56.60  0.001035943    2.311    0.567
        45  -8.4417     30.3455    139.3018   1.1033126689e+02   4.3282281954e+01     0.137739   0.09051558 -40.22 0.0001267615    1.684    0.406
        46  -9.7684      7.6243    137.6019   1.1660617264e+02   4.5532832679e+01    0.3503976    0.1394709 -59.10  0.001634756    2.020    0.505
        47  -7.4087    178.3251    136.6616   6.9477795934e+01   1.8622049264e+01    0.1549617    0.1226401 -80.07 0.0007051344    1.724    0.420
        48  -8.7215    137.1746    136.0101   7.9020759566e+01   2.7429135604e+01    0.2640455    0.1880956 -75.19  0.001093917    1.980    0.495
        49 -11.4117     58.9293    139.7316   1.0198246939e+02   4.0008163469e+01    0.9685972    0.4896336 -62.37  0.002172349    1.807    0.447
        50  -7.5537    215.4676    135.4861   6.1918802536e+01   1.1298530334e+01    0.1439518    0.1293283 -29.22 4.261559e-05    1.003    0.003
        51  -7.6240    218.6412    133.2798   6.0862774521e+01   1.1086451469e+01    0.1382058    0.1108446 -75.39 0.0004673268    1.665    0.399
        52  -9.1416    211.6249    133.2297   6.2096561053e+01   1.2465810459e+01    0.2827697    0.1677738 -29.99 0.0006739167    1.707    0.414
        53  -9.3181    209.6728    127.3141   6.1089584706e+01   1.3950734037e+01    0.2459265    0.1817555  65.81 0.0006665132    1.708    0.414
        54  -7.4653    175.6569    133.7374   6.9356124098e+01   1.9784582514e+01    0.1533339     0.119185   8.28 0.0003396574    1.597    0.374
        55  -9.3547    160.0413    130.4511   7.2068113267e+01   2.3817601698e+01    0.4371632    0.3239181 -51.67  0.001707285    1.391    0.281
        56  -8.4428    224.9684    131.4841   5.9379166304e+01   1.0198043756e+01    0.2067836    0.1826259  77.30 0.0008015266    1.409    0.290
        57 -10.6850    219.8156    128.3260   5.9542325556e+01   1.1753674163e+01    0.7947045    0.4502143 -62.21  0.003089851    2.911    0.656
        58  -7.9445    173.5802    129.2523   6.8722594095e+01   2.1149704435e+01    0.2163247    0.1441107 -31.68 0.0009428511    1.566    0.361
        59  -7.7363    142.3286    129.2994   7.6076010161e+01   2.7860765321e+01    0.1602349    0.1252084  -0.67 0.0004515107    1.640    0.390
        60  -9.6877    181.9125    126.1635   6.6194516268e+01   1.9981084096e+01    0.4347943    0.2123363 -40.93  0.001695498    1.956    0.489
        61  -8.4308    166.3384    127.4567   6.9887134320e+01   2.3087819915e+01    0.2824603     0.141599 -43.25  0.001079264    1.939    0.484
        62  -9.0714    136.5650    126.9329   7.6956549078e+01   2.9607569376e+01    0.2816678    0.2476526 -79.62 0.0008646587    1.307    0.235
        63 -13.2054    244.0879    117.2537   5.3274717413e+01   9.0899978683e+00     5.413782     1.012208 -37.37   0.01532242    4.753    0.790
        64  -8.5899    201.4451    246.1710   8.6103445753e+01  -5.1442962796e+00    0.2001701    0.1418666  25.71 0.0003236514    1.192    0.161
        65 -13.4080    218.2605     79.6710   4.8475254956e+01   2.0463833765e+01     3.525188    0.7429011  60.09  0.006629225    5.642    0.823
        66  -7.4620    240.3006    241.2858   7.8175996245e+01  -9.6775746845e+00    0.1190368    0.0725393   0.72 0.0001567945    1.555    0.357
        67  -8.9819    170.2811    122.8304   6.7859797060e+01   2.3184798519e+01    0.2561139    0.2134584  62.53 0.0005518235    1.336    0.251
        68  -8.7278    140.5519    122.6473   7.4853240801e+01   2.9713951153e+01    0.2998821    0.1949449  47.45 0.0009509959    1.582    0.368
        69  -8.4513    157.0238    120.4024   7.0256582790e+01   2.6608259595e+01    0.2820934     0.217345 -69.58 0.0006818592    1.611    0.379
        70  -9.9236    134.9144    120.9891   7.5878020449e+01   3.1286184154e+01    0.5995724    0.2622367  45.40  0.002120385    2.335    0.572
        71  -9.2065    134.8245    117.6067   7.5025623622e+01   3.2055157203e+01    0.3008132    0.2341195 -63.72  0.001005096    1.470    0.320
        72  -8.9445    181.9958    120.2912   6.4736203829e+01   2.1130741096e+01    0.2122283    0.1988008  48.49 0.0006347555    1.120    0.107
        73  -8.8767    162.1259    118.5096   6.8593379505e+01   2.5875575005e+01    0.2499725    0.2186621 -70.05 0.0009053457    1.277    0.217
        74  -9.6564    216.6866    117.1611   5.7517244485e+01   1.4382872642e+01    0.3070205    0.2748961  34.05 0.0005007739    1.241    0.194
        75  -8.9733    231.8494    116.2132   5.4865153866e+01   1.1556358831e+01     0.366599     0.226089 -31.33  0.001804022    1.547    0.354
        76  -7.3842    109.7453    117.6375   8.1930084918e+01   3.7198599069e+01    0.1590987    0.1188835 -20.73 0.0004371232    1.623    0.384
        77 -10.3302    210.7487    112.5280   5.7441124371e+01   1.6436971039e+01    0.4346971    0.3453882  -2.75   0.00181248    1.572    0.364
        78 -11.2552    205.2475    109.5977   5.7695454289e+01   1.8128243501e+01    0.7114885    0.4739488 -31.14  0.003395152    1.505    0.336
        79  -9.5944    127.2884    114.0018   7.6074521565e+01   3.4457605877e+01    0.4480101    0.2248835  32.03  0.001577869    2.513    0.602
        80 -12.5794    250.2429     41.9259   3.6514489866e+01   1.9304716863e+01    0.5212737    0.3584007 -27.37  0.001031371    1.708    0.415
        81 -11.0245    134.3480    108.2479   7.2656254266e+01   3.4196123962e+01    0.9299521    0.3695108 -39.39  0.002877577    2.629    0.620
        82 -11.1704    112.0628     98.6170   7.6101751072e+01   4.1008847444e+01     0.725886    0.6365905 -60.49  0.003718378    1.235    0.190
        83 -10.5305    114.7029    108.6148   7.8123444633e+01   3.8270705480e+01    0.6824194    0.3820171 -63.22  0.002453948    2.611    0.617
        84 -10.1143    118.4412    105.2274   7.6135536713e+01   3.8251789705e+01    0.5225874    0.2805151 -43.99  0.002077546    1.832    0.454
        85 -11.2159    125.4446    105.6139   7.4304545761e+01   3.6689340910e+01    0.8249958    0.4776574 -59.11  0.002837923    2.215    0.549
        86 -10.6726    121.0264     99.6852   7.3859470282e+01   3.8905489323e+01    0.6043407    0.3311319 -39.42  0.001885112    1.843    0.457
        87  -7.5993    151.4622    110.4883   6.8989656988e+01   2.9924220920e+01    0.1553285    0.1517925 -26.31 0.0001573482    1.011    0.011
        88  -9.3520    183.1291    108.3411   6.1513624437e+01   2.3207820421e+01    0.3674308    0.2049112 -42.54  0.001412504    1.710    0.415
        89  -7.9839    181.1933    104.1923   6.0839988448e+01   2.4434767320e+01    0.2156764    0.1775545 -71.16  0.001068443    1.382    0.277
        90  -7.6660     77.1657    108.8610   8.9709368354e+01   4.5044720776e+01    0.2038439    0.1640787 -27.64 0.0004089821    1.300    0.231
        91 -10.5160    222.3497     99.9284   5.2614713710e+01   1.6241434382e+01    0.5285729    0.3806447  -8.77  0.001916201    1.934    0.483
        92  -9.2733    228.4662    106.5048   5.3195907881e+01   1.3881318349e+01    0.2572781    0.2356787 -58.09  0.000702955    1.094    0.086
        93 -10.1721    229.5130    101.8189   5.1977540240e+01   1.4466796877e+01    0.4178482    0.2630357 -54.58 0.0008820626    1.632    0.387
        94 -12.4382    130.9718     95.8126   7.0065559373e+01   3.7550175470e+01      1.58974    0.9486151  43.48  0.006702526    1.691    0.408
        95 -10.3509    157.1155    102.4381   6.5509370210e+01   3.0281355987e+01    0.5599372    0.3850406  41.65  0.002164513    1.513    0.339
        96  -9.1758    175.7767    113.0813   6.4219575060e+01   2.3931013768e+01     0.360804    0.1998497 -33.60  0.001448037    1.894    0.472
        97  -7.8154     10.3375    241.3322   1.2363018424e+02   2.1992232377e+01   0.09707572   0.08055545 -52.87 -0.0001936392    1.740    0.425
        98  -9.7011    146.7973    106.1764   6.8956301964e+01   3.1867926171e+01     0.336832    0.2981142  51.84 0.0007898284    1.157    0.135
        99 -10.4420    188.0896    123.3088   6.4238820223e+01   1.9217526039e+01    0.4663432    0.3420832 -83.46  0.002062301    2.046    0.511
       100  -9.1321    226.2102    122.5030   5.7164205976e+01   1.1549046572e+01    0.3577697    0.2743078 -23.24  0.001443232    1.324    0.245
       101 -10.2686    140.3116     96.5875   6.7897558870e+01   3.5295029714e+01     0.431515    0.2764931 -45.22   0.00166719    1.564    0.361
       102 -10.2249     94.7294     90.2956   7.8938907899e+01   4.6217833524e+01    0.2577632    0.2448229 -16.84 0.0002501181    1.004    0.004
       103  -8.1672    106.4467     89.9042   7.5212890979e+01   4.4005728883e+01     0.232357    0.1468342 -43.26 0.0005926408    1.560    0.359
       104  -8.2148    213.4111    107.7914   5.5874298521e+01   1.6729184358e+01    0.2294165    0.1637032  -8.88 0.0003373167    1.932    0.482
       105  -7.5920    147.6473     86.2772   6.3182019204e+01   3.5613421986e+01     0.154851    0.1213614 -86.12 0.0002475969    1.646    0.392
       106  -7.5341    137.5103     81.0469   6.4071686533e+01   3.8952477609e+01      0.22627    0.1493601 -40.02  0.001008104    1.523    0.344
       107  -8.7044    157.6868     75.4659   5.7844118201e+01   3.5186338854e+01    0.2972713    0.1808607 -34.12 0.0009491385    1.698    0.411
       108  -7.5340    127.3143     75.6937   6.5014750106e+01   4.2281804868e+01    0.1501327    0.1209202 -81.30 0.0005356921    1.624    0.384
       109  -8.1360    151.4703     71.4878   5.8010273372e+01   3.7356543858e+01    0.1474421    0.1440681  41.64 9.458567e-05    1.037    0.036
       110  -9.1619    167.9338     67.8789   5.3648292958e+01   3.3991997637e+01    0.2185888    0.1991913  29.51 0.0004569329    1.215    0.177
       111  -7.6014    163.5291     64.4865   5.3523590313e+01   3.5599569711e+01    0.1450583    0.1391113  89.82 -3.591715e-05    1.012    0.012
       112  -8.2479    158.0336     63.5526   5.4324501570e+01   3.7078311760e+01    0.2358201    0.1864307 -37.77 0.0006105569    1.291    0.226
       113  -9.4816    136.5224     63.4618   5.8929120244e+01   4.2258625304e+01    0.2645776    0.1978818  17.85  0.001253117    1.671    0.401
       114  -7.8372    185.9937     60.9946   4.8643951721e+01   3.0739351480e+01    0.2016096    0.1697173  17.53 0.0003654112    1.524    0.344
       115 -10.2483    216.3170     56.0914   4.3168415910e+01   2.4479917341e+01    0.5145307    0.2057054 -38.47  0.001461367    2.247    0.555
       116  -7.9134    181.6972     58.9632   4.8791693664e+01   3.2069916367e+01     0.193434    0.1730632 -48.38 0.0004601697    1.111    0.100
       117  -8.1520    192.1129     57.6887   4.6841396530e+01   2.9786053079e+01    0.2505656    0.1703496 -48.05 0.0006320583    1.415    0.293
       118  -9.2437    226.7000    115.4787   5.5501589386e+01   1.2683258588e+01    0.4553817    0.2115189 -39.19  0.001146694    1.895    0.472
       119  -8.5997    128.2669     57.4113   5.8964953706e+01   4.5170669443e+01    0.1949407    0.1384014  63.62 0.0003927495    1.504    0.335
       120  -8.4929    212.0620    123.0667   5.9680589783e+01   1.4249669792e+01    0.2158494     0.197892 -42.42 0.0003456915    1.046    0.044
       121  -9.0099    148.4983     51.0605   5.2498522012e+01   4.1287035737e+01    0.2238916    0.1815209  59.76 0.0004877335    1.171    0.146
       122  -9.4004    205.7589     47.5657   4.2439932854e+01   2.8054186629e+01    0.4194478    0.2599885 -42.80 0.0004346135    1.510    0.338
       123  -7.7792    204.6914     42.3241   4.1296681484e+01   2.9004074387e+01    0.2251952    0.1668899 -48.29 0.0009052918    1.265    0.210
       124  -8.6049    132.1150     44.8977   5.3993387869e+01   4.6105123498e+01    0.2072742    0.1893878 -67.93  0.000431814    1.205    0.170
       125  -9.6450    182.1234     40.1325   4.3690944299e+01   3.4599689996e+01    0.2927039    0.2257605 -37.67 0.0006016052    1.340    0.254
       126  -9.3155    154.2744     40.4913   4.8213087692e+01   4.1325903618e+01    0.3730207    0.1923644 -18.13  0.001509809    2.704    0.630
       127  -7.8476    164.2318     40.7155   4.6577607850e+01   3.8862839823e+01    0.1780525    0.1555904  34.23 0.0005542121    1.286    0.222
       128  -9.0341    132.8053     38.9150   5.1887359817e+01   4.6737793922e+01    0.3686738    0.1823898 -28.57 0.0009929864    2.212    0.548
       129  -8.7943    200.4770    228.6827   8.3441604917e+01  -2.4158785084e+00    0.2319586    0.2214001 -52.43  0.001109789    1.500    0.333
       130  -8.0800    220.8090    222.3580   7.8463805850e+01  -4.4416719838e+00    0.1842563    0.1582727 -20.66 0.0005923547    1.254    0.203
       131  -8.6475    124.8293     32.9068   5.1597404780e+01   4.9385711292e+01    0.2064225    0.1732075  32.42  0.001176594    1.190    0.160
       132  -7.5504    118.1710     18.1854   4.7922203250e+01   5.2568519841e+01      0.16464    0.1494133 -76.73 0.0003262629    1.263    0.208
       133  -7.8932    216.4784     14.5069   3.3612927860e+01   2.9690418975e+01    0.1225011    0.1028163 -78.00 -7.030134e-05    1.035    0.034
       134  -8.4583    189.8661    218.4691   8.3802999342e+01   8.5966218804e-01    0.2073889    0.1735625 -25.89  0.001264061    1.223    0.182
       135  -7.1904    124.0744    205.9574   9.6025446269e+01   1.4185091063e+01    0.1624098    0.1429002  41.04 0.0009270745    1.049    0.047
       136  -8.8278    194.3194    199.0263   7.9370192546e+01   3.4765000799e+00    0.2002386    0.1981044 -61.37   0.00124676    1.313    0.238
