#   1 NUMBER                 Running object number                                     
#   2 MAG_AUTO               Kron-like elliptical aperture magnitude                    [mag]
#   3 X_IMAGE                Object position along x                                    [pixel]
#   4 Y_IMAGE                Object position along y                                    [pixel]
#   5 X_WORLD                Barycenter position along world x axis                     [deg]
#   6 Y_WORLD                Barycenter position along world y axis                     [deg]
#   7 A_WORLD                Profile RMS along major axis (world units)                 [deg]
#   8 B_WORLD                Profile RMS along minor axis (world units)                 [deg]
#   9 THETA_WORLD            Position angle (CCW/world-x)                               [deg]
#  10 FWHM_WORLD             FWHM assuming a gaussian core                              [deg]
#  11 ELONGATION             A_IMAGE/B_IMAGE                                           
#  12 ELLIPTICITY            1 - B_IMAGE/A_IMAGE                                       
         1 -13.4623    201.5808     29.0689   6.0286220004e+01   3.0904194415e+01     1.498372     1.272194  19.65  0.006871413    1.238    0.192
         2 -12.0446      2.3708     22.0285   1.1715482024e+02   6.9704403373e+01    0.9657105          nan -61.27   0.00289803    6.065    0.835
         3 -12.5329      3.2830      5.8819   1.1143542208e+02   7.2798662530e+01    0.6958644    0.4290906 -35.76  0.004782848    1.373    0.272
         4 -13.4210    217.1936     12.2505   5.3259750496e+01   2.8609708007e+01     1.062181    0.8818447  28.74  0.003610334    1.295    0.228
         5 -11.0410     63.2497    246.3046   1.2826028411e+02   2.1242246027e+01    0.2160425     0.120912  65.19 0.0007043975    1.386    0.279
         6 -12.6524    240.5117    247.3839   1.0157202650e+02  -3.3583953831e+00     0.405622    0.3168652  40.99  0.003386604    1.443    0.307
         7 -12.6612    140.1056    249.7352   1.1691785930e+02   1.0894710588e+01    0.8803651    0.1382706  41.57  0.003093118    5.395    0.815
         8 -13.9335     33.2474    222.3689   1.3152916442e+02   2.7968976435e+01     0.595323    0.3786371  62.71  0.002405059    1.087    0.080
         9 -12.1626    124.7653    249.7572   1.1925835224e+02   1.3018830427e+01    0.4209201    0.1604627  40.50  0.002449912    2.102    0.524
        10 -12.7667     10.1960    207.1085   1.3444498491e+02   3.2564263243e+01    0.5982399    0.3640941  36.81  0.003485139    1.857    0.462
        11 -15.4316      9.4602    138.0272   1.3097448784e+02   4.5048139289e+01     10.91321     2.636562 -87.10    0.0367875    5.996    0.833
        12 -12.2467    117.5389    231.4159   1.1877600238e+02   1.6354933514e+01    0.4279537    0.1482726  40.90  0.002244372    2.374    0.579
        13 -11.8033    106.5378    230.1434   1.2043480409e+02   1.8047421424e+01    0.2948958    0.1246348  41.76  0.001742693    1.915    0.478
        14 -11.8863     92.1939    227.4177   1.2252103621e+02   2.0345359193e+01    0.3470852     0.121208  48.84   0.00194743    2.107    0.525
        15 -10.1875    144.4997    243.5006   1.1565009334e+02   1.0997784306e+01    0.1053244   0.07508376  48.49 0.0008106158    1.020    0.020
        16 -10.5905     69.1303    218.6594   1.2560659381e+02   2.4548720864e+01    0.3577605   0.08311591  52.75  0.001593044    3.603    0.722
        17 -11.7557     99.6111    249.0591   1.2301470926e+02   1.6446767710e+01      0.36144   0.09675296  42.38  0.001859932    2.771    0.639
        18  -8.8750    152.5473    213.0019   1.1101001960e+02   1.3605388096e+01    0.1283021    0.1132717 -57.18 0.0001126212    1.448    0.309
        19 -10.3430     53.0629    202.6224   1.2717019960e+02   2.8981255144e+01    0.2874813     0.127097  63.61  0.001725896    2.042    0.510
        20 -11.6039     56.2398    196.3158   1.2617102617e+02   2.9670309641e+01    0.2085609    0.1763307 -89.01 0.0005452053    1.291    0.226
        21  -9.4205    192.0066    193.0280   1.0145700997e+02   9.6529353045e+00       0.2628    0.1493343 -62.02   0.00113588    4.285    0.767
        22 -11.8654     62.9714    188.0953   1.2431790677e+02   3.0286111128e+01    0.2058057    0.1776353  75.11 0.0004096155    1.201    0.167
        23 -11.7568      4.2210    184.7503   1.3450457690e+02   3.6803406943e+01    0.3474088    0.1965604  68.80  0.001956758    1.287    0.223
        24 -12.7086     43.3426    211.7200   1.2936525808e+02   2.8577063022e+01    0.5649734    0.4702956  84.84  0.003417717    1.317    0.241
        25 -10.7370     73.9796    175.5566   1.2108971083e+02   3.1142043184e+01    0.1970474    0.1623993  70.54  0.000389055    1.049    0.047
        26 -13.1594     60.3034    173.4122   1.2353224351e+02   3.3227796505e+01    0.3928173    0.2360868 -49.98  0.001961424    2.307    0.566
        27 -11.7987     82.2502    166.5686   1.1848082013e+02   3.1695756907e+01    0.5163119    0.4654801  51.36  0.003795367    1.262    0.208
        28 -14.1086      8.5629    241.4541   1.3587836473e+02   2.7524509626e+01     1.670267    0.8719018  68.19   0.01443472    1.298    0.230
        29 -10.0253     95.3549    151.3695   1.1379586035e+02   3.2704554944e+01    0.2340375    0.2133739  75.85 0.0007967026    1.088    0.081
        30 -11.9943     83.8199    150.1199   1.1610850644e+02   3.4615428235e+01    0.2395882    0.2100772 -65.21 0.0006066196    1.259    0.205
        31  -9.0835     98.7442    147.2155   1.1245545691e+02   3.2994633265e+01    0.1485827    0.1462682 -10.39  0.000354042    1.301    0.231
        32 -12.0625     67.4810    143.5385   1.1883233642e+02   3.8095844671e+01    0.5975914    0.3229877  62.33  0.003221272    1.944    0.486
        33  -9.5083    108.7200    136.2449   1.0847248201e+02   3.3552704052e+01    0.2448192    0.1833726 -11.09  0.001110328    2.319    0.569
        34 -10.4725     95.0185    133.7589   1.1117658906e+02   3.6228051074e+01    0.2066162    0.1724552 -58.66 0.0003837044    1.242    0.195
        35  -9.1507    105.8677    123.3431   1.0679696056e+02   3.6600991788e+01    0.1707704    0.1538144  54.91 0.0002968163    1.107    0.097
        36  -9.6300    167.3676    112.3790   9.0512645015e+01   2.6723213395e+01    0.2767049    0.2284525 -84.35 0.0007846043    1.563    0.360
        37 -11.9684    242.5814     94.4423   7.2534084197e+01   1.2623156298e+01    0.4032866    0.2139829 -20.29   0.00179961    1.874    0.466
        38 -12.8024     27.8277    229.1370   1.3265972060e+02   2.7491848657e+01    0.2290937    0.1841332  70.04 0.0007659429    1.299    0.230
        39 -11.8801    217.9874    249.3699   1.0511117498e+02  -3.2100025860e-01     0.427042    0.1074419  44.71   0.00201532    2.958    0.662
        40 -11.1744     81.0742    248.8803   1.2577730603e+02   1.8790770980e+01    0.2197194    0.1316988  55.97  0.001758122    1.158    0.136
        41 -10.8015    190.7253    249.1380   1.0915247047e+02   3.6556347792e+00    0.2135731    0.1029356  29.29  0.001266173    2.171    0.539
