#   1 NUMBER                 Running object number                                     
#   2 MAG_AUTO               Kron-like elliptical aperture magnitude                    [mag]
#   3 X_IMAGE                Object position along x                                    [pixel]
#   4 Y_IMAGE                Object position along y                                    [pixel]
#   5 X_WORLD                Barycenter position along world x axis                     [deg]
#   6 Y_WORLD                Barycenter position along world y axis                     [deg]
#   7 A_WORLD                Profile RMS along major axis (world units)                 [deg]
#   8 B_WORLD                Profile RMS along minor axis (world units)                 [deg]
#   9 THETA_WORLD            Position angle (CCW/world-x)                               [deg]
#  10 FWHM_WORLD             FWHM assuming a gaussian core                              [deg]
#  11 ELONGATION             A_IMAGE/B_IMAGE                                           
#  12 ELLIPTICITY            1 - B_IMAGE/A_IMAGE                                       
         1 -10.7441     60.0396     24.1218   5.0982594522e+01   6.3336668035e+01    0.3067841    0.1780128 -40.12  0.001109155    1.814    0.449
         2 -11.5236      2.7585     20.7301   7.5040481400e+01   6.9870622091e+01    0.2656768    0.2374649 -86.82  0.001650271    1.765    0.433
         3 -12.1266     16.9736     20.4603   6.8102810357e+01   6.8937370212e+01    0.3897578     0.324591 -28.12   0.00131333    1.189    0.159
         4 -12.2815    125.3103     17.3930   2.8717044822e+01   5.1042792018e+01    0.3812261    0.2660604  -5.96 0.0002740299    1.629    0.386
         5 -11.6649     35.3861     12.5898   5.6145916943e+01   6.8317719547e+01    0.3122232    0.2944134  25.78  0.001893097    1.599    0.375
         6 -11.6101     30.7368      7.2176   5.5766166423e+01   6.9601597742e+01    0.5684634    0.3313493   8.07  0.003159489    1.780    0.438
         7 -12.0146    203.3095     11.8033   1.4548713154e+01   3.1728964943e+01    0.2429211    0.2352328 -67.49 0.0001801699    1.159    0.138
         8 -10.4891    153.2394     12.6808   2.1692164699e+01   4.4566080943e+01    0.2210644    0.1971951 -79.90 0.0002800874    1.200    0.166
         9  -9.7616     90.1147     11.4129   3.5319668768e+01   5.9525358803e+01    0.3431073    0.1627806   0.06  0.001277843    3.585    0.721
        10  -9.5451    185.2341     11.9932   1.6771433764e+01   3.6349099895e+01    0.1671686    0.1174913 -28.43 0.0004256204    1.580    0.367
        11 -10.2774    165.1226     11.2877   1.9364593592e+01   4.1640939486e+01    0.2680278    0.1849917 -71.89 0.0009628033    1.685    0.407
        12 -12.3074    125.7712     10.3663   2.6055922800e+01   5.1648268795e+01    0.4197934    0.2692519 -39.28  0.002132974    1.798    0.444
        13 -12.3718     55.4713      9.8333   4.6381256920e+01   6.5938078894e+01     0.376087    0.2328334  21.01  0.002180553    1.537    0.349
        14  -9.6646    134.9792     10.9926   2.4423070479e+01   4.9339124409e+01    0.1680482     0.146394  50.82 0.0003410351    1.009    0.008
        15 -10.0406     45.4963      9.5646   5.0312895138e+01   6.7429440116e+01    0.2209878    0.1621605  11.03 0.0006674736    1.181    0.153
        16 -10.5544     42.1624      9.1677   5.1550229286e+01   6.7931688260e+01    0.2146892    0.1442648 -30.95 0.0002439168    1.432    0.302
        17 -10.1487     24.0618      9.8606   6.0184303511e+01   6.9947385082e+01    0.2753808    0.2448102  80.14  0.001345462    2.458    0.593
        18 -10.7579      9.8209      9.8503   6.7282138720e+01   7.1200282546e+01    0.3339547    0.1992972  46.38  0.001825607    3.609    0.723
        19  -9.9373    176.8409      9.8235   1.7259289627e+01   3.8747791194e+01    0.1890409    0.1502883 -69.84 0.0003067564    1.305    0.234
        20  -9.7628     97.2678     10.1100   3.2764301862e+01   5.8168947772e+01    0.2017609     0.145561 -52.16  0.001072902    1.965    0.491
        21  -9.5128     86.1240     10.1518   3.5962617568e+01   6.0462590582e+01    0.1540417    0.1467094  34.18 0.0003668737    1.257    0.204
        22 -10.1889      3.3516      7.4269   6.9614522358e+01   7.2035014373e+01    0.2559064    0.1528706 -49.13  0.001714115    1.629    0.386
        23 -10.0262     16.3739      7.8572   6.3065783882e+01   7.0966826862e+01    0.2298772    0.1237369 -18.73 0.0008431833    1.746    0.427
        24 -12.5280     20.1868      2.3945   5.8550898680e+01   7.1384462553e+01    0.2753951     0.200171   1.71 0.0009940435    1.182    0.154
        25  -9.9452     88.7012      6.8631   3.3791623253e+01   6.0278247346e+01    0.2031696    0.1395655   7.63 0.0009857411    1.468    0.319
        26  -9.6718     69.9866      6.2623   3.9400091161e+01   6.3924288946e+01    0.2284628    0.1391305  -3.39  0.001241524    1.705    0.413
        27 -10.3353    247.1096      5.9541   9.0670298311e+00   2.1803342065e+01    0.1879101    0.1495764 -72.37 0.0003693315    1.038    0.037
        28 -10.7797    151.5097      5.9441   1.9801371641e+01   4.5654652586e+01    0.2487105    0.2132751  64.82 0.0003289203    1.032    0.031
        29 -11.2748    148.4676      2.4363   1.9150007951e+01   4.6739505559e+01    0.3114263    0.2315025  58.22  0.001440832    1.155    0.135
        30  -9.9248    111.7886      6.1723   2.7549983371e+01   5.5330891502e+01    0.1847415    0.1733465  53.10 0.0006260324    1.156    0.135
        31  -9.4011    234.4942      5.4390   9.9720229599e+00   2.4771216686e+01    0.1309152    0.1071782 -76.69 0.0001480216    1.024    0.023
        32 -11.3543    194.0612      4.6876   1.3712644260e+01   3.4820383509e+01    0.2359114    0.2083447  77.98 0.0002407499    1.056    0.053
        33 -10.4859    104.5156      4.1763   2.8482822692e+01   5.7154071958e+01    0.2275666     0.168264  58.85 0.0004174603    1.326    0.246
        34 -10.1294     48.5168      4.0668   4.6405867236e+01   6.7670612114e+01    0.2166629    0.1478391  21.65 0.0008149282    1.291    0.225
        35  -9.9858     44.1775      4.1301   4.8248475308e+01   6.8285605166e+01    0.1983576    0.1328737  19.96 0.0004720349    1.330    0.248
        36 -10.0168    223.7820      3.6327   1.0481265562e+01   2.7518796194e+01    0.1833986    0.1078247  89.23 0.0002599383    1.607    0.378
        37  -9.2593     39.3072      3.6629   5.0127515526e+01   6.9004049271e+01    0.1000323   0.09073867 -35.89 0.0007041871    1.677    0.404
        38 -10.4555     13.3930      2.8754   6.2271347842e+01   7.1951348508e+01    0.2265211    0.1624739  31.87  0.001611923    1.872    0.466
        39  -9.2710    161.6618      2.6857   1.7237549076e+01   4.3347874736e+01    0.1470288   0.08962509  41.82  0.000704714    1.696    0.411
        40 -10.0545    138.5343      1.9567   2.0643245957e+01   4.9276332786e+01    0.2354735    0.1579639  53.39 0.0005556347    1.271    0.213
        41  -9.9467     64.5738     11.1240   4.3541360852e+01   6.4317408084e+01    0.2912268    0.1127148 -25.67  0.001278038    2.621    0.619
        42  -9.2421     84.8868      1.1797   3.2418058160e+01   6.1585127668e+01    0.1573404   0.08758907  53.49 0.0004361843    1.701    0.412
        43 -10.6029     29.9583      1.3504   5.3246740749e+01   7.0458666416e+01    0.1705542    0.0956953  31.81  0.000416689    1.819    0.450
        44 -10.1274     11.0701    128.1668   9.3435166122e+01   4.6891876458e+01    0.1814098    0.1336371 -60.39  0.001219402    1.263    0.208
        45 -10.3480    109.9504    250.5730   8.5621267503e+01   9.2550509685e+00    0.1777858   0.09130575  44.27 0.0003915803    1.531    0.347
        46 -13.0782     19.9949    248.3398   1.0051998266e+02   2.1621346415e+01      1.12405    0.3014524  40.75   0.00584519    3.038    0.671
        47 -11.5126      2.5205    233.0721   1.0251155917e+02   2.6081663452e+01    0.2774964    0.1999473  46.89  0.001307761    1.534    0.348
        48 -11.3755      2.1642    248.3810   1.0320766818e+02   2.3464925775e+01    0.3239542     0.216872  77.98  0.001570176    1.110    0.099
        49 -12.8630      4.7695    241.6917   1.0254119539e+02   2.4348992105e+01     0.618003    0.3208199  84.98  0.004436953    1.498    0.332
        50 -10.3022    247.6679    127.3485   3.6970691893e+01   4.1244612553e+00    0.1415436    0.1070834 -63.85 0.0007048631    1.769    0.435
        51  -9.8683     65.0181    125.2476   7.8645078916e+01   4.2048383858e+01      0.17622    0.1647986  89.96 0.0002012382    1.073    0.068
        52  -9.8277    208.5092    123.4867   4.2962716262e+01   1.3191258277e+01    0.1499571     0.145884 -10.63 0.0004233425    1.017    0.017
        53 -11.6354     11.2523    120.9833   9.2568397650e+01   4.8495581421e+01     0.392374    0.2481259 -34.63 0.0008462409    2.042    0.510
        54  -9.2452     82.5133    118.4386   7.2387652839e+01   4.1100483772e+01    0.1412677    0.1318996 -67.80 0.0001151959    1.008    0.008
        55 -11.1756     69.5231    115.8164   7.5541580714e+01   4.3643038841e+01    0.3196695    0.2858749  85.33  0.001514052    1.151    0.131
        56  -9.2486     60.2773    114.6843   7.7980057028e+01   4.5144799318e+01    0.1335187   0.09916222  83.23 0.0001978678    1.569    0.362
        57 -11.2475      2.7889    111.7934   9.3726928747e+01   5.1112414697e+01      0.21355    0.1542496 -88.00 0.0002699701    1.217    0.178
        58 -12.2858     13.8431    107.7163   9.0165685007e+01   5.1304346628e+01     0.575574    0.2033866 -69.18  0.002655079    2.229    0.551
        59 -10.8826      7.7594    110.4041   9.2212128711e+01   5.1111170278e+01    0.1838951    0.1383896 -85.20   0.00106945    1.167    0.143
        60 -10.8988      5.9844    103.9574   9.1877822375e+01   5.2663229870e+01    0.2048466    0.1325362 -70.55 0.0003376975    1.192    0.161
        61 -12.8629     23.4401    113.3978   8.8279085138e+01   4.9283242391e+01    0.2852198    0.2418871  84.34  0.000249264    1.186    0.157
        62 -10.7661     26.8832    107.7744   8.6444014738e+01   5.0281127614e+01     0.372503    0.1876953  84.90  0.001583934    3.094    0.677
        63  -9.7216      1.2260    103.4314   9.3148964833e+01   5.3059400761e+01    0.2299439   0.06578637 -67.54  0.001030265    2.428    0.588
        64 -10.9074    247.5064    101.9325   3.1131662765e+01   8.2557952586e+00    0.2225604    0.1283865 -35.09  0.001029639    1.580    0.367
        65  -9.6446    112.7734    102.3606   5.9924463631e+01   3.9352737260e+01    0.2020848    0.1431548  33.14 0.0003020126    1.532    0.347
        66 -12.0285     17.7546     95.3908   8.7155411310e+01   5.3798658118e+01    0.6714663    0.3180529 -81.81  0.003138578    2.474    0.596
        67 -11.2392     20.8498     92.4492   8.5701471666e+01   5.4229894118e+01    0.2294034     0.173558 -59.86  0.000256038    1.060    0.057
        68  -9.9270    217.8905     98.3779   3.5020603246e+01   1.5476556328e+01    0.2071474    0.1857586  48.68 0.0005671041    1.152    0.132
        69 -10.1443     56.0997     96.9812   7.5539597754e+01   4.9753932302e+01    0.1992296    0.1719498 -53.39 0.0002796033    1.020    0.019
        70  -9.2614     74.8322     95.1742   6.9267443411e+01   4.7620518692e+01    0.1844749    0.1531422 -27.51 0.0002851816    1.273    0.214
        71  -9.2930     81.6751     94.3809   6.6952812683e+01   4.6739563839e+01    0.1477585    0.1116036  87.49 4.538379e-05    1.843    0.457
        72 -10.7190     43.8412     94.0420   7.8762176795e+01   5.1811463270e+01    0.2381559     0.154026 -22.55  0.000841068    2.031    0.508
        73 -10.1664     10.7906     93.9155   8.9039019799e+01   5.4598876736e+01    0.1837291    0.1237732 -54.37 0.0004973297    1.238    0.192
        74 -10.8857    125.2034     92.9922   5.3915118008e+01   3.8759275569e+01    0.2408176     0.216813  41.72 0.0002828608    1.114    0.103
        75 -10.2079     91.9960     92.9120   6.3419115013e+01   4.5335470236e+01    0.2175401     0.205416 -41.29 0.0003572009    1.006    0.006
        76 -12.3898     66.6826     91.6154   7.0937159864e+01   4.9589708258e+01    0.2640285    0.2300206 -56.26  0.000276929    1.076    0.071
        77 -13.6753     65.6236     81.8115   6.8746554673e+01   5.1894172720e+01    0.4524321    0.4223538 -84.25  0.000747658    1.233    0.189
        78 -11.3409     57.8785     91.5354   7.3725050040e+01   5.0765164281e+01    0.2704364    0.1842201 -36.15 0.0007932813    1.503    0.335
        79  -9.4870     28.9396     92.1984   8.3113806282e+01   5.3639838377e+01    0.1398325   0.09931548  25.11 0.0005994544    1.698    0.411
        80 -12.3633    159.7495     89.3164   4.4203985568e+01   3.1414828706e+01    0.5249172     0.320604  34.64 0.0001815066    1.923    0.480
        81  -8.9748    142.3056     91.7321   4.9093180539e+01   3.5141659786e+01    0.1533102    0.1253986 -88.87 0.0002222974    1.533    0.348
        82 -10.2098      7.7380     90.0570   8.9374604111e+01   5.5640166924e+01    0.3046286    0.1234867 -69.44  0.001520643    1.972    0.493
        83 -10.7355    105.7807     91.9651   5.9073416159e+01   4.2990539655e+01    0.2571089    0.2180031  52.82 0.0002421015    1.260    0.207
        84  -9.7783     31.1906     87.2164   8.1411862552e+01   5.4559816970e+01    0.1507049    0.1294026 -82.77 0.0002743794    1.240    0.194
        85 -10.2317     17.6485     84.8793   8.5363638104e+01   5.6141999614e+01    0.2319839    0.1399622 -59.01   0.00077921    1.290    0.225
        86 -10.8720     11.7699     76.8647   8.5816910850e+01   5.8278067211e+01    0.2387966    0.1244658 -44.89 0.0005899263    1.653    0.395
        87 -12.2156      5.3922     75.3215   8.7679274722e+01   5.8979742392e+01     0.410459     0.205011 -52.82  0.001772047    1.518    0.341
        88 -10.3198      7.4067     83.8161   8.8477771964e+01   5.7028408361e+01    0.2480834    0.1635491 -47.15 0.0008463418    1.334    0.251
        89 -11.0982      8.8076     80.4051   8.7443693477e+01   5.7689549943e+01    0.2296968    0.2091022  40.55  0.001012875    1.387    0.279
        90 -10.3949     47.9939     79.1538   7.3970315160e+01   5.4670194675e+01    0.2227427    0.1626292 -50.41 0.0004735968    1.170    0.146
        91  -9.5119     87.0806     78.5064   6.0854498099e+01   4.9269368875e+01    0.2139024     0.141688  37.73  0.001032817    1.589    0.371
        92 -10.3697    176.9874     76.9912   3.6939568956e+01   2.9345644320e+01    0.2964016    0.2281786  58.52  0.001382952    1.285    0.222
        93  -9.5756     74.8545     76.5884   6.4237451674e+01   5.1661676717e+01    0.2072678    0.1565311 -52.86 0.0005607381    1.306    0.234
        94  -9.8630     35.1065     77.1780   7.7907884976e+01   5.6415243893e+01    0.2013222    0.1358299 -43.00  0.001178149    1.294    0.227
        95 -10.3090     54.3064     75.7209   7.0919367764e+01   5.4674158873e+01     0.378433     0.239192  24.50  0.002000096    1.818    0.450
        96  -9.7113    141.9046     71.8280   4.3248326383e+01   3.9049984257e+01     0.345851    0.1670225  34.94  0.001167205    2.747    0.636
        97  -9.0676    116.2526     72.4410   5.0213386379e+01   4.4815743502e+01    0.1581896    0.1143532  -6.45 0.0002537111    1.801    0.445
        98  -9.6220    105.8359     71.8373   5.3036465401e+01   4.7103272844e+01      0.19456    0.1670422  61.95 0.0007664536    1.351    0.260
        99 -10.4805     45.6873     70.7598   7.2594688520e+01   5.6722613537e+01    0.4635842    0.1671647 -59.38  0.001792272    2.931    0.659
       100 -13.0437     80.9138     67.2941   5.9405390940e+01   5.2587327188e+01    0.4437781    0.3762741  -4.72 0.0007012098    1.205    0.170
       101  -9.1295    157.6894     70.2761   3.9072564882e+01   3.5424838384e+01    0.1541735    0.1227882 -80.44 0.0002360239    1.557    0.358
       102  -9.2600     39.3050     70.6141   7.4824660617e+01   5.7419673379e+01    0.1237973   0.09583486  87.28 0.0007018417    1.797    0.444
       103  -9.9475      1.4850     70.4752   8.8139026504e+01   6.0214149430e+01    0.1156754   0.08764377 -58.73 0.0001227827    1.007    0.007
       104 -11.8764    211.9892     67.4034   2.8021126183e+01   2.2056474114e+01    0.2567255    0.2436305 -59.58 0.0003214532    1.025    0.024
       105  -9.3803     37.1963     67.2134   7.4696807014e+01   5.8342982039e+01     0.224877    0.1037034 -30.17 0.0009532109    2.820    0.645
       106 -10.9966     14.8933     49.0666   7.8374950068e+01   6.3857477627e+01    0.4424602    0.2817184  65.39    0.0023162    3.142    0.682
       107 -11.9040     17.2963     63.8300   8.1142457327e+01   6.0692137499e+01    0.3802848    0.2808065 -57.71  0.001866134    1.137    0.120
       108 -13.5822     20.9603     58.5860   7.8496283312e+01   6.1515516538e+01    0.3911336    0.2269337 -47.46 0.0008142519    1.345    0.257
       109 -11.5162    128.3166     63.4933   4.4047795153e+01   4.3758134537e+01    0.2637574    0.2543866   6.89 0.0002016835    1.019    0.019
       110 -11.3578     51.1789     62.5580   6.8291507408e+01   5.7789010123e+01    0.4552214    0.2504462 -63.79  0.001708413    2.417    0.586
       111 -10.4250      4.6029     61.7809   8.5355162027e+01   6.1881528773e+01    0.1823747    0.1457671 -85.28  0.001287937    1.432    0.302
       112 -11.5705      7.5507     63.4439   8.4625987245e+01   6.1376936877e+01    0.3325841    0.1130947 -49.73 0.0009629534    2.103    0.524
       113 -11.6735     11.6422     59.7091   8.2292636030e+01   6.1913330227e+01    0.2257521    0.1912469 -14.50 0.0002548417    1.304    0.233
       114  -9.7583    119.9380     62.5838   4.5996127070e+01   4.5824776464e+01    0.1984587    0.1771997  37.21  0.001052887    1.093    0.085
       115 -10.0388     98.2346     60.9334   5.1769248713e+01   5.0668224494e+01    0.2052582    0.1900498 -49.26 0.0004225035    1.204    0.170
       116  -9.8864     38.8779     59.8770   7.2057517209e+01   5.9688172484e+01    0.1984295    0.1496659 -30.00  0.001229518    1.200    0.167
       117 -11.2604     58.5388     58.9637   6.4500912303e+01   5.7574162306e+01    0.2534667    0.1828566  26.86 0.0006023305    1.496    0.331
       118 -10.3503     71.5871     57.0819   5.9232687374e+01   5.6057053130e+01    0.2309507    0.2102816 -84.03 0.0007732572    1.491    0.329
       119  -9.9476    229.1550     56.5074   2.2753500040e+01   1.9514907632e+01    0.2066364    0.1801861 -47.51 0.0006541332    1.094    0.086
       120  -9.4600    130.7095     57.2929   4.1392386097e+01   4.4258994048e+01    0.1451858    0.1200087 -76.42 0.0002803446    1.550    0.355
       121 -13.1637    114.8097     53.5466   4.4364028296e+01   4.8514264052e+01    0.3460098    0.3253787  10.65 0.0005764264    1.009    0.009
       122 -10.6142     98.4399     52.8237   4.8910359130e+01   5.2065707539e+01    0.4201119    0.2847995 -51.58  0.002014695    1.786    0.440
       123 -12.1291     86.0289     54.1058   5.3308996032e+01   5.4187334036e+01    0.3393566    0.2489394  25.59 0.0003229395    1.404    0.288
       124 -10.7453     81.2825     52.0764   5.4173799095e+01   5.5383997080e+01    0.3650069    0.2430877  61.03 0.0003620674    2.343    0.573
       125 -11.4659     65.9763     52.5346   5.9672682513e+01   5.7754503202e+01    0.4972693    0.2681564  28.42  0.001780522    2.050    0.512
       126  -9.8621     34.1331     55.2898   7.2534079404e+01   6.1073070617e+01    0.2159386    0.1095264  13.67  0.001061101    2.545    0.607
       127 -10.3098    224.8798     52.7689   2.2387661093e+01   2.1094104477e+01    0.4050092    0.2301387 -69.12  0.001672725    2.319    0.569
       128  -9.4893    148.9138     52.0188   3.5332227061e+01   4.0651674085e+01    0.1827402    0.1652522  52.24 0.0003862176    1.055    0.052
       129 -10.3571    138.1836     50.2343   3.7210191230e+01   4.3594242189e+01    0.2289518    0.1912196  32.86 0.0005970872    1.191    0.161
       130 -12.1951    105.6905     49.4415   4.5534244869e+01   5.1151770684e+01    0.5574718    0.4032981 -57.83 0.0006539764    1.858    0.462
       131  -9.8619    120.2745     48.2789   4.1046167418e+01   4.8140879612e+01    0.3780917    0.2027876  16.54  0.001171585    4.110    0.757
       132  -9.4980     54.7233     49.3216   6.2720533582e+01   5.9912773012e+01    0.1816884    0.1165255 -66.46 0.0001477626    2.657    0.624
       133  -9.5100     53.7209     46.6337   6.2168793418e+01   6.0536678803e+01    0.2191106    0.1214902 -16.94 0.0007095225    2.471    0.595
       134  -9.8630    156.1274     46.7185   3.2096271391e+01   3.9614836438e+01    0.3823385    0.1589892  53.12  0.001409335    2.184    0.542
       135 -11.2389     61.9939     49.7578   6.0158673441e+01   5.8841786974e+01    0.2263192    0.1821028 -17.84 0.0002458547    1.130    0.115
       136 -10.5515     67.1779     45.1535   5.6614769228e+01   5.8897437183e+01    0.2336056    0.1828619  -3.34  0.000841234    1.252    0.201
       137 -11.2151     37.0150     41.5471   6.7014963550e+01   6.3416920391e+01     0.514452     0.249999  26.90  0.002304483    2.272    0.560
       138  -9.5694     29.5359     45.5756   7.1404748112e+01   6.3390204058e+01    0.1907206     0.139904  10.31 0.0006425874    1.487    0.328
       139 -10.8893     25.9399     43.1426   7.2113522906e+01   6.4167121237e+01    0.3411228    0.2359829  -7.32  0.001473807    1.525    0.344
       140 -10.2405     16.8388     43.5768   7.6031308227e+01   6.4794229891e+01    0.2637647    0.1983924  69.07 0.0009847172    2.278    0.561
       141 -10.3124     17.7673     39.9887   7.4558377559e+01   6.5410156936e+01    0.2716412    0.1048755 -38.22 0.0007260397    2.214    0.548
       142  -9.4483      1.8305     45.4024   8.2722045918e+01   6.5334141825e+01    0.1458106   0.09110589 -17.59 0.0009497678    1.706    0.414
       143  -9.7082    117.5962     44.5144   4.0438203324e+01   4.9330445124e+01    0.2228043    0.2093902   1.77 2.120899e-05    1.051    0.049
       144 -10.0723    116.9754     41.2570   3.9441982161e+01   4.9957974038e+01    0.2014424    0.1954837  84.83 0.0002277122    1.199    0.166
       145 -10.2279     89.7235     43.0533   4.8107202387e+01   5.5377812916e+01    0.1916924    0.1710809   1.56 0.0005538712    1.004    0.004
       146  -9.4670    170.1979     41.9784   2.7901921907e+01   3.6642904250e+01    0.1933129    0.1186606 -30.85 0.0008509358    1.727    0.421
       147 -12.6575    141.7144     40.7889   3.3247382004e+01   4.4116328246e+01     0.300078    0.2839087  67.56 0.0005319102    1.091    0.083
       148 -11.3974    183.4704     40.0084   2.5036679138e+01   3.3440887727e+01    0.5557292     0.320655  81.58  0.002278695    2.111    0.526
       149  -9.7487    110.4943     40.9010   4.1079962247e+01   5.1454703869e+01    0.2261112    0.1993027  82.37 0.0008825029    1.450    0.310
       150 -10.0219     57.8528     40.7378   5.8454394221e+01   6.1024291588e+01    0.2083949    0.1618848 -61.73 0.0005876299    1.869    0.465
       151  -9.4379      4.0000     51.9760   8.3431124645e+01   6.3917582495e+01     0.185518   0.05099265 -62.44 0.0005229767    2.843    0.648
       152 -11.0906     81.7165     37.9545   4.8803062009e+01   5.7662458253e+01    0.4279858    0.2611354 -27.35 0.0009850607    1.608    0.378
       153 -10.7839     51.6125     38.8851   6.0181755608e+01   6.2183742251e+01    0.2309961    0.1872001  22.70     0.000501    1.306    0.234
       154  -9.8117    191.8615     38.1686   2.3195636101e+01   3.1499431870e+01    0.2061512    0.1806201 -86.65 0.0002561999    1.107    0.097
       155 -11.7667    121.5967     36.7929   3.6637900682e+01   4.9534326722e+01    0.4074842    0.3136165 -29.74  0.002022826    1.357    0.263
       156  -9.3753    102.4254     35.7449   4.1462873887e+01   5.3940113105e+01    0.1970684    0.1640463 -76.01 -5.119154e-05    1.751    0.429
       157 -10.5144     14.7766     35.2085   7.4344521099e+01   6.6515873718e+01    0.2292183    0.1792574 -34.49  0.001649707    1.036    0.035
       158 -10.4473      2.9998     35.9540   7.9726981203e+01   6.7096582453e+01    0.1446712    0.1270985 -89.50 0.0004610879    1.592    0.372
       159  -9.6159     49.6367     33.7403   5.9006084982e+01   6.3309569882e+01    0.1677516    0.1067304 -45.68 0.0004863064    1.639    0.390
       160  -9.8224     28.1106     33.6402   6.7987587493e+01   6.5714413425e+01     0.161142    0.1151922 -25.65 0.0005180105    1.160    0.138
       161 -12.4042    144.4437     31.0308   2.9391974569e+01   4.4732759660e+01    0.3123445    0.2795801 -52.14 0.0003948705    1.238    0.193
       162  -9.4408    128.0345     32.9941   3.3703618661e+01   4.8525506425e+01    0.1753012    0.1542511  43.78 0.0007705901    1.049    0.046
       163 -10.8304     45.2357     32.3854   6.0267341887e+01   6.4088452732e+01     0.249799    0.1738978 -35.78 0.0008598263    1.272    0.214
       164 -11.1145    213.0423     31.9240   1.8606403457e+01   2.6885800034e+01    0.2177412    0.1968801 -81.75            0    1.007    0.007
       165 -10.2645    177.3304     35.9721   2.4863761101e+01   3.5588211094e+01    0.1921402     0.182443 -45.10 0.0004106678    1.119    0.106
       166 -12.7465     11.1293     29.8260   7.4214298211e+01   6.7745959126e+01     0.247934    0.2143616 -32.10 0.0005848764    1.197    0.164
       167 -11.8577     91.0434     27.1806   4.1540102551e+01   5.7452201588e+01    0.4383187    0.2284086 -26.06 0.0004539621    1.964    0.491
       168 -11.0292    135.7224     29.1195   3.0593211652e+01   4.7149218692e+01    0.2389024    0.2017822  48.36  0.000293024    1.079    0.073
       169  -9.7894     39.1501     29.9157   6.1845079144e+01   6.5216568368e+01    0.1700623    0.1184227 -14.62 0.0005027417    1.317    0.241
       170  -9.6585    227.0000     27.9689   1.5988908504e+01   2.3933877032e+01    0.2189195   0.07501566 -30.48 0.0008056791    2.965    0.663
       171 -10.4752     68.0389     27.3544   4.9349113963e+01   6.1604686629e+01     0.284455     0.239031  50.61  0.001749597    1.560    0.359
       172  -9.7832    110.4957     26.0143   3.5525306126e+01   5.3486842908e+01    0.2005169    0.1146131   5.30 0.0006252879    2.583    0.613
       173 -10.0232     80.2872     26.3148   4.4643066310e+01   5.9624175704e+01    0.2564625    0.1614379  55.27  0.001127807    2.005    0.501
       174  -9.5148    230.2181    247.3905   6.3487737029e+01  -9.7416761534e+00    0.1533614   0.09085403  40.44 0.0003863018    1.508    0.337
       175 -10.3060    131.3669    247.0685   8.1375524716e+01   6.3977900717e+00    0.1624538    0.1363493  57.84 0.0005938936    1.111    0.100
       176 -10.9673     33.0562     24.2524   6.2230148311e+01   6.6812738360e+01    0.2124551    0.1684425 -19.11 0.0003684575    1.029    0.029
       177 -10.7031     31.4248     20.7922   6.1533706656e+01   6.7536533024e+01    0.2397487    0.1681289 -18.98  0.000807367    1.176    0.150
       178  -9.8336     25.7609     23.5058   6.5211894275e+01   6.7665497137e+01    0.3023126    0.1123715 -43.81  0.001485087    2.211    0.548
       179  -9.5682     21.6730     21.6888   6.6376166177e+01   6.8337268101e+01    0.2350793    0.1289046 -16.74  0.001245662    1.917    0.478
       180 -10.4530    116.0826    246.6473   8.4114391048e+01   8.9222599326e+00    0.1854029    0.1461808  80.35 0.0005577729    1.331    0.249
       181 -10.3418     14.2481     16.0037   6.7636896803e+01   6.9883726326e+01    0.1812305    0.1305592 -33.93 0.0003848249    1.132    0.117
       182  -9.7246    100.8334     22.8371   3.6921797727e+01   5.5988885229e+01    0.1757847    0.1664254 -62.82 0.0008139813    1.351    0.260
       183  -9.5779     84.0108     22.3190   4.1771415707e+01   5.9456009389e+01    0.1871513    0.1570876  17.19 0.0007254357    1.036    0.035
       184 -10.2519    189.2099    245.1875   7.0489271123e+01  -2.9553298464e+00    0.2835137   0.07224616  37.63  0.001013127    3.508    0.715
       185 -11.6068    205.0519     18.6857   1.6140787215e+01   3.0519290305e+01    0.3894036     0.280162  71.01  0.002093008    1.269    0.212
       186 -10.1048    163.3703     19.9657   2.2315277982e+01   4.1179306690e+01    0.1853922    0.1788418  -7.95 0.0003728475    1.157    0.136
       187  -9.4677    113.6656     20.3229   3.2546236845e+01   5.3448368277e+01    0.1343841    0.1085975 -71.12 0.0004601591    1.708    0.415
       188  -9.9450     51.7452     24.5070   5.4410107200e+01   6.4486340262e+01    0.2594752    0.1441344 -47.54  0.001311526    2.271    0.560
       189 -10.4839     70.9264     18.7816   4.4673543506e+01   6.2290745069e+01    0.2082323    0.1607302  -8.99 0.0003929835    1.171    0.146
       190 -11.2355    140.0117     17.9263   2.5841861200e+01   4.7377588600e+01    0.2723936    0.1945141  49.20 0.0003200766    1.251    0.200
       191  -9.8973    134.9064     18.1650   2.6948002076e+01   4.8622002440e+01    0.1983236    0.1806232  75.33 0.0003261878    1.162    0.139
       192  -9.9841     25.5258     17.3399   6.2789275640e+01   6.8676329693e+01    0.1845981   0.09783306 -44.88   0.00065716    1.799    0.444
       193  -9.2976    215.4588     16.4539   1.4402202783e+01   2.8156934112e+01    0.1388926    0.1167914 -78.04 6.708781e-05    1.065    0.061
       194  -9.9224    159.7910     15.8902   2.1628228080e+01   4.2548296299e+01    0.2096489     0.174827  40.62 0.0003752658    1.211    0.175
       195 -12.3956     10.2565    245.0618   1.0185573097e+02   2.3212922752e+01    0.6020681     0.213656 -69.48  0.003075951    2.754    0.637
       196  -9.9249    147.4645    243.4994   7.7976519572e+01   4.2826715142e+00    0.1246961   0.09786946  45.32 0.0001778488    1.013    0.013
       197 -10.2573    207.7460     12.9545   1.4353920166e+01   3.0481466959e+01    0.1894163     0.164745 -56.92 0.0006126613    1.147    0.128
       198 -10.7105     52.1129    244.6562   9.5145730717e+01   1.8471529420e+01    0.2259643     0.156982  49.00  0.001013156    1.334    0.250
       199 -11.1959     26.8211    237.1933   9.8850379953e+01   2.2811667322e+01    0.1302381     0.107248  81.34 0.0003662805    1.304    0.233
       200  -9.4985     59.0264    235.9867   9.3333601276e+01   1.9108871562e+01    0.1354938    0.1000094  68.42 0.0003329672    1.016    0.015
       201  -9.5071    204.4188    235.5008   6.6241963405e+01  -4.2139127027e+00    0.1241989   0.09869418  27.51  -0.00020818    1.014    0.014
       202  -9.7817    174.2183    234.9913   7.1799474660e+01   9.8768520312e-01    0.1392833    0.1054034 -41.93 0.0004174233    1.643    0.391
       203  -9.4931    152.6524    233.6817   7.5715546736e+01   4.9122145980e+00    0.1253149   0.09144061  18.04 0.0006074372    1.730    0.422
       204 -10.8230     31.4088    232.9246   9.7842741756e+01   2.3060504040e+01    0.3354496     0.103327  44.02  0.001279657    2.506    0.601
       205 -10.6186     56.9819    229.2512   9.3168629572e+01   2.0603946224e+01    0.2350882    0.1600161 -74.63  0.001112371    1.500    0.333
       206 -10.1139    246.0327    230.4700   5.7978801964e+01  -1.0215082161e+01    0.2388447    0.1219873  36.70 0.0006288054    1.669    0.401
       207  -9.6666    209.6852    229.6919   6.4345319668e+01  -4.3309938170e+00    0.1279374   0.08326434  15.06 0.0003315864    1.628    0.386
       208  -9.9128    140.0585    227.8475   7.7357394151e+01   8.0312210005e+00    0.2230211    0.1270512  61.84  0.001092426    2.054    0.513
       209 -10.5572      1.3699    227.2525   1.0243244957e+02   2.7236211362e+01    0.1655447   0.07433067 -79.48 0.0004044223    1.874    0.466
       210  -9.8380    230.9586     10.5159   1.1444388167e+01   2.5049781886e+01    0.1883349    0.1167134  76.99 0.0003464874    1.484    0.326
       211  -9.7532    223.4576    226.4726   6.1295191289e+01  -6.1916082898e+00    0.1256074   0.09916207  21.02 8.809954e-05    1.003    0.003
       212 -11.6950      3.3325    221.4734   1.0184808921e+02   2.8106181318e+01    0.4910005    0.1531414  81.92  0.002215464    3.612    0.723
       213 -10.0132     18.7386    220.7247   9.9248285118e+01   2.6705074263e+01    0.3125751     0.108467  71.70  0.001437531    3.207    0.688
       214  -9.3363     72.6166     10.3969   4.0384314803e+01   6.3000925776e+01    0.2222121    0.1189848  62.18 0.0009457342    3.285    0.696
       215 -10.6561      7.5949    221.2649   1.0114025839e+02   2.7733301552e+01    0.2292261   0.07791258 -76.46  0.001255937    2.485    0.598
       216  -9.4983    210.2132    215.9766   6.1945647589e+01  -2.5532940399e+00    0.1525882    0.1029048 -32.86 0.0006110129    1.664    0.399
       217  -9.4659     85.6452    215.1354   8.6485214576e+01   1.9248056188e+01    0.1470662     0.108814 -61.48  0.000334376    1.549    0.354
       218  -9.7379    111.3155    214.6677   8.1329142241e+01   1.5264241706e+01    0.1356853   0.08668687  69.10 0.0002698954    1.685    0.407
       219  -9.6913    230.0045    209.4924   5.7130656495e+01  -5.0519603427e+00    0.1596931    0.1087612  59.34 0.0008075188    2.360    0.576
       220 -10.3761     39.2422    207.2874   9.4678253364e+01   2.7033058304e+01    0.1746311     0.145777  80.50 0.0004137352    1.174    0.148
       221 -10.7502      5.5480    207.0686   1.0073837592e+02   3.0621154174e+01    0.1568946   0.08096048 -85.34  0.000526231    1.547    0.354
       222  -9.5029     21.4439    179.8259   9.5955494691e+01   3.4621511800e+01    0.1958499   0.07262135  37.31 0.0009855856    2.659    0.624
       223  -9.8792      5.2051    168.3379   9.8364571067e+01   3.8528942478e+01    0.1485627   0.08280982  49.40 0.0003734223    1.732    0.423
       224  -9.3868    229.4799    165.5019   4.8561136512e+01   1.5462829550e+00     0.140834    0.1237932   5.28 3.586114e-06    1.022    0.021
       225 -10.0483     13.6647    164.3227   9.6297085835e+01   3.8670819734e+01    0.1237028   0.06778348  69.87 0.0004648043    1.710    0.415
       226 -10.3016     22.5912    149.8150   9.2970693104e+01   4.1071854448e+01    0.1913313   0.09611133  25.18  0.001002545    2.608    0.617
       227 -10.5085      6.9678    147.6508   9.6332513908e+01   4.2863241340e+01    0.2276831    0.1345228 -85.73 0.0008125078    1.358    0.264
       228 -10.4700     28.7889    139.9235   9.0384231907e+01   4.2735439494e+01    0.3476939    0.1284602 -67.05 0.0009104289    2.170    0.539
       229  -9.4079      1.7219    140.3114   9.6879324415e+01   4.4860374016e+01     0.114954   0.06880011  75.15 0.0001654337    1.562    0.360
       230  -9.1829    235.6917    138.3207   4.1472977948e+01   4.7475837090e+00    0.1378386    0.1123954 -66.73 0.0007033954    1.642    0.391
       231  -9.7486     21.5302    135.7589   9.1685829556e+01   4.4339868312e+01    0.1652742   0.09672274 -85.61 0.0004022073    1.539    0.350
       232 -10.0814     95.8788    133.8759   7.1955107321e+01   3.5298380559e+01    0.2891248    0.1818178 -52.93 0.0008743753    1.539    0.350
       233 -10.0458      1.5798    132.6834   9.6219426234e+01   4.6550862030e+01    0.1586999   0.08708911 -85.06 0.0009361582    1.494    0.331
       234  -9.6320     22.3041    131.2961   9.0962492559e+01   4.5288695616e+01    0.1181149   0.07943149 -48.71 0.0002280158    1.582    0.368
       235  -9.8567     52.9786    129.9844   8.2745780658e+01   4.2461279495e+01    0.1971945    0.1698812 -71.02 0.0004327204    1.037    0.035
