#   1 NUMBER                 Running object number                                     
#   2 MAG_AUTO               Kron-like elliptical aperture magnitude                    [mag]
#   3 X_IMAGE                Object position along x                                    [pixel]
#   4 Y_IMAGE                Object position along y                                    [pixel]
#   5 X_WORLD                Barycenter position along world x axis                     [deg]
#   6 Y_WORLD                Barycenter position along world y axis                     [deg]
#   7 A_WORLD                Profile RMS along major axis (world units)                 [deg]
#   8 B_WORLD                Profile RMS along minor axis (world units)                 [deg]
#   9 THETA_WORLD            Position angle (CCW/world-x)                               [deg]
#  10 FWHM_WORLD             FWHM assuming a gaussian core                              [deg]
#  11 ELONGATION             A_IMAGE/B_IMAGE                                           
#  12 ELLIPTICITY            1 - B_IMAGE/A_IMAGE                                       
         1 -17.9788    233.0960     75.9085   4.8988186837e+01   1.8608326770e+01     6.680086     4.539323 -30.12   0.02288011    1.257    0.204
         2 -12.4787    164.3622     52.9960   5.2377991372e+01   3.7260145420e+01     1.453562    0.7628222 -49.63  0.005968886    1.987    0.497
         3 -13.3013    137.9592     44.1149   5.4334657971e+01   4.5236280440e+01     2.342889     1.019728 -27.88  0.008567321    2.474    0.596
         4 -10.9683    148.7040     32.8164   4.8328280886e+01   4.4090302312e+01    0.8439848    0.4381272  -2.42  0.002757177    3.888    0.743
         5 -10.9589    126.9451     28.3745   5.0684618823e+01   5.0282872644e+01    0.4549299    0.2659296 -35.85  0.002037845    1.676    0.403
         6 -10.8430    141.6204     17.3387   4.3875806807e+01   4.7800717620e+01    0.7016084    0.3364049  -6.63  0.002517207    3.261    0.693
         7 -10.0356    143.6033      7.2089   3.9850788175e+01   4.8316091650e+01    0.6651782    0.2134716 -18.45  0.002238089    3.603    0.722
         8 -12.3364    135.4252     33.0074   5.0783431138e+01   4.7482995767e+01    0.9903048    0.6319916  41.87  0.003204876    1.743    0.426
         9 -10.8759    126.3796     12.4789   4.4432643115e+01   5.2296398764e+01    0.5446982    0.3427751  11.85  0.001843399    2.154    0.536
        10 -11.6944    119.2206     10.2513   4.4755684170e+01   5.4384864727e+01    0.7369962    0.5472617  53.64  0.003424522    1.297    0.229
        11  -9.6319    114.3830      3.8009   4.2819747951e+01   5.6249380230e+01    0.2700732    0.2333399  12.73  0.001066869    1.261    0.207
        12  -8.6064    217.4643      1.7464   3.1821491786e+01   3.0749405575e+01    0.2197057     0.176446  75.01 0.0008311719    1.359    0.264
        13  -8.6130    214.3440      2.3327   3.2152600606e+01   3.1386424935e+01    0.1992056    0.1659744 -22.41 0.0006261228    1.303    0.233
        14  -9.0803    209.1999      1.9338   3.2357320369e+01   3.2581838697e+01    0.2449779    0.1726845  85.80 0.0006531731    1.414    0.293
        15  -8.4915    205.5218    165.3924   7.2968168389e+01   1.0150783892e+01    0.2423126    0.1448078 -22.39   0.00127202    1.692    0.409
        16  -8.8344    222.0589    163.4681   6.9783736759e+01   7.8728710526e+00    0.2506675    0.1769306 -22.84  0.001294191    1.245    0.197
        17  -8.1771    161.0160    195.5308   8.6788562682e+01   1.2351139013e+01    0.1666288   0.09939639  54.04 0.0003925681    2.317    0.568
        18 -13.1950     20.4278    142.9078   1.1512953042e+02   4.2908917728e+01     1.930226     1.361008  36.62   0.00838546    1.433    0.302
        19  -8.8314    149.7821    157.8714   8.2618633096e+01   2.0869615845e+01    0.2562175    0.1732741  61.90 0.0007853513    2.038    0.509
        20 -10.1548    192.1427    152.5226   7.2851249829e+01   1.4381542307e+01    0.5285089    0.2618856 -53.77  0.002058087    3.330    0.700
        21  -9.8830    203.6336    151.5981   7.0570972757e+01   1.2577088538e+01    0.3431935    0.2516154 -50.16  0.001820346    1.686    0.407
        22  -9.6597    203.8979    147.0209   6.9581852875e+01   1.3251938171e+01    0.3803511    0.2727955  76.44  0.001794249    2.869    0.651
        23  -9.3320     47.7150    191.3545   1.1182491476e+02   2.8978463999e+01    0.1964596    0.1831867  62.07 0.0002883603    1.173    0.147
        24 -10.1007    217.9369    149.0880   6.7614606864e+01   1.0600029561e+01    0.3835414    0.1955896  35.68  0.001898116    2.080    0.519
        25 -11.5147     51.2646    135.7701   1.0510934083e+02   4.1546762704e+01     0.502313    0.4144679  46.13  0.000766568    1.200    0.167
        26 -13.5757     63.5655    132.4735   1.0085038707e+02   4.0806106996e+01     2.154647     1.702958  24.84  0.006074684    1.419    0.295
        27  -9.6374    202.8404    189.7989   7.7885567724e+01   6.9967134655e+00     0.290747    0.2089905  27.14  0.001242134    1.272    0.214
        28  -9.0879    195.8910    143.2572   7.0228467229e+01   1.5248777844e+01    0.2200888    0.1984534 -14.07 0.0005712647    1.046    0.044
        29 -11.0514    160.4382    129.0334   7.4153554158e+01   2.4452949472e+01    0.4713221    0.3718117 -27.86  0.002456155    1.287    0.223
        30 -10.6004    143.4128    137.0921   7.9823460619e+01   2.6160550487e+01    0.6332973    0.3882942 -75.32  0.002273813    3.431    0.709
        31  -8.6420    185.0561    188.4333   8.0913687429e+01   9.8257400409e+00    0.1721809    0.1471741   2.29 0.0001706868    1.038    0.037
        32 -11.2388    173.5607    126.2716   7.0753378039e+01   2.2381610779e+01    0.6965406    0.3571759 -56.10  0.002605386    2.913    0.657
        33  -9.6536     97.5998    122.4247   8.8666106388e+01   3.7963988227e+01    0.3992025    0.2339287  56.08   0.00117377    2.007    0.502
        34  -9.8744    143.6425    121.4776   7.6200225113e+01   2.9324325166e+01    0.3349459    0.2552622  65.74  0.001105767    1.597    0.374
        35  -8.0312     96.4816    126.9150   8.9945576658e+01   3.7088700119e+01    0.2115845    0.1439626 -57.30 0.0003064864    1.461    0.315
        36 -10.1135    197.8196    112.0514   6.2825818480e+01   2.0062087753e+01    0.3162484    0.2822032 -83.03  0.001098703    1.411    0.291
        37  -8.3938     88.4465    111.7077   8.9041664453e+01   4.2147551552e+01    0.2774572    0.1463601 -61.76 0.0007398971    1.995    0.499
        38 -10.9970    197.2239    179.3335   7.7054735044e+01   9.3488060930e+00    0.8246755    0.5275205   1.12   0.00375688    1.836    0.455
        39  -8.4734     81.0086    105.9615   9.0090969489e+01   4.4822133328e+01    0.2133992    0.2041725 -71.71            0    1.019    0.019
        40 -10.4723    125.9846     89.7664   7.2234380926e+01   3.9716794725e+01    0.5285273    0.3538991 -56.67  0.002314768    1.629    0.386
        41 -10.1185     98.1898     86.8063   7.9422176323e+01   4.6241053994e+01    0.2503529    0.2431405 -74.19 0.0002433127    1.024    0.023
        42 -10.1263    133.8961     84.8169   6.8735669608e+01   3.8958589074e+01    0.4259903    0.1920681 -44.59  0.001561214    2.165    0.538
        43  -9.1430    158.2570     76.0232   6.0599590302e+01   3.4943640018e+01    0.2696447    0.1951361 -41.56 0.0007795138    1.313    0.238
        44 -11.2451    131.1457     69.1183   6.4490307870e+01   4.2651609722e+01    0.6165344    0.4141647 -30.17  0.002691609    1.577    0.366
        45  -9.3829    194.2988    174.1666   7.6650406599e+01   1.0584330211e+01    0.3120786     0.200204 -22.83   0.00136635    1.580    0.367
        46  -9.7559    105.9769     65.4284   7.0088145803e+01   4.9194617689e+01    0.8048625    0.2198885 -40.25  0.002297944    3.674    0.728
        47 -10.2162    162.0239     63.4166   5.6041885551e+01   3.6189200758e+01    0.6883365    0.2796764 -40.12  0.002536783    2.270    0.559
        48 -10.8968    145.4495     43.4385   5.2619587311e+01   4.3437766379e+01     0.520292    0.3881008 -24.56   0.00246221    1.406    0.289
        49  -8.4722    207.1673    240.9502   8.4969152361e+01  -1.4218502765e-02    0.1450926    0.1163316  15.60  0.001144897    1.207    0.172
        50 -12.2798    152.1235     48.8197   5.3199754707e+01   4.0944773854e+01    0.8484979    0.8167241 -88.99  0.004666424    1.042    0.040
        51 -10.4009    141.2899     51.6839   5.6299119892e+01   4.3214812233e+01    0.3515452    0.2883172  45.70 0.0008889563    1.282    0.220
        52  -9.1082    205.9262    223.7264   8.2745941683e+01   2.1373221275e+00    0.2106739    0.1963271  53.21  0.001141516    1.809    0.447
        53  -8.9987    124.1201     60.2982   6.3259902782e+01   4.5960375773e+01    0.2738853    0.2054054 -27.74  0.001068859    1.409    0.290
        54 -10.9668    132.5013     27.9649   4.9437967462e+01   4.8904281197e+01    0.4751254    0.3268167   3.03  0.001452155    1.937    0.484
        55  -9.3673    110.3189     51.1894   6.3612413218e+01   5.0893048596e+01    0.5015757    0.2036557 -30.48  0.001667511    2.910    0.656
        56  -9.3318    125.4813     48.4634   5.8674093064e+01   4.7678377276e+01    0.2202462    0.1479409  70.12 0.0007205601    1.677    0.404
        57 -11.0335    167.9386     42.2677   4.8410259009e+01   3.7929178962e+01    0.4995493    0.3753979  17.26  0.002436242    1.761    0.432
        58 -10.2283    127.2997     41.0770   5.5501027842e+01   4.8392452765e+01     0.367553    0.2187685  56.38  0.001611736    1.657    0.396
        59  -7.6790    165.6447    180.2870   8.3329462947e+01   1.4155453108e+01    0.1245518    0.1011867  63.10   0.00040789    1.673    0.402
        60  -9.7703    159.0883     34.5655   4.7259483525e+01   4.1201492459e+01    0.3836772    0.2016098 -43.74   0.00164316    1.820    0.451
        61 -10.2464    170.4771     33.7968   4.5356664450e+01   3.8422777712e+01    0.6087405     0.273971 -52.71  0.002336551    2.467    0.595
        62 -10.2002    225.8285    217.2785   7.8466700433e+01   4.3472417915e-01    0.1860285    0.1454763   3.15 0.0002832862    1.093    0.085
        63 -10.3864    145.1283     62.6016   5.9145601519e+01   4.0447633711e+01    0.3657217    0.2384009 -47.85  0.001490932    1.535    0.349
        64  -7.7970    112.7732    177.3414   9.4562261977e+01   2.3169630782e+01    0.1275593   0.09954386  76.39 0.0002865294    1.539    0.350
        65  -8.9710    194.1881    218.0153   8.3945659073e+01   4.3670968590e+00    0.2138305    0.1339387  29.86            0    1.363    0.266
        66  -8.9654    195.3801    213.2612   8.3018462488e+01   4.8312048966e+00    0.1921051    0.1541144  26.50 0.0003860124    1.220    0.180
        67  -8.7084    196.0286    208.6722   8.2195242275e+01   5.3547015389e+00     0.164094    0.1221961  18.66 0.0003257529    1.117    0.105
        68  -8.5757    123.9988    205.9982   9.6022504533e+01   1.6068142580e+01    0.1743399    0.1492614  35.64            0    1.016    0.016
        69 -10.4152    130.5032     18.5027   4.6129845691e+01   5.0568747422e+01    0.2371085    0.2229296  82.62  0.001362608    1.025    0.025
        70  -8.7764     49.1119    176.0107   1.1019153199e+02   3.2174644682e+01    0.1867839    0.1588904  65.02 0.0003396799    1.005    0.005
        71  -8.8091    248.2359    195.4386   7.1441468712e+01   2.2214829372e-01    0.1951745    0.0919554  29.91  0.001129255    2.045    0.511
        72  -9.0093    222.9666    205.2794   7.7035351588e+01   2.2183234775e+00    0.1576192     0.119163  10.32 0.0003881088    1.072    0.067
        73 -10.1732    163.2405    203.3714   8.7552193892e+01   1.0773912044e+01    0.2114103    0.1871894  17.32 0.0002433995    1.073    0.068
        74  -9.5437    186.0374    169.4827   7.7333051241e+01   1.2642086193e+01    0.2921234    0.2231876  64.05  0.001473912    2.024    0.506
        75 -10.2096    192.5055    194.2981   8.0514321159e+01   7.8531878555e+00    0.7858456    0.4331591 -60.40  0.002808335    5.999    0.833
        76  -8.3183    115.2495    200.9513   9.7269985273e+01   1.8232662110e+01    0.1644342    0.1514381  33.31 0.0003440723    1.070    0.065
        77  -9.3213    233.0802    196.8543   7.4012251769e+01   1.9486842996e+00     0.159678    0.1377127   3.68  0.000457893    1.278    0.218
        78  -7.5796     95.4723    245.4705   1.0602250238e+02   1.3300623317e+01    0.1126708   0.08638624  39.88 0.0001126437    1.004    0.004
        79  -9.8891    201.6716    166.2763   7.3823286024e+01   1.0627287559e+01     0.349823    0.2433389 -58.57  0.001814204    2.342    0.573
