#   1 NUMBER                 Running object number                                     
#   2 MAG_AUTO               Kron-like elliptical aperture magnitude                    [mag]
#   3 X_IMAGE                Object position along x                                    [pixel]
#   4 Y_IMAGE                Object position along y                                    [pixel]
#   5 X_WORLD                Barycenter position along world x axis                     [deg]
#   6 Y_WORLD                Barycenter position along world y axis                     [deg]
#   7 A_WORLD                Profile RMS along major axis (world units)                 [deg]
#   8 B_WORLD                Profile RMS along minor axis (world units)                 [deg]
#   9 THETA_WORLD            Position angle (CCW/world-x)                               [deg]
#  10 FWHM_WORLD             FWHM assuming a gaussian core                              [deg]
#  11 ELONGATION             A_IMAGE/B_IMAGE                                           
#  12 ELLIPTICITY            1 - B_IMAGE/A_IMAGE                                       
         1  -9.3483     12.8423     30.1632   9.6356556588e+01   6.8779134249e+01    0.3116904    0.1541575 -57.05  0.001494368    2.186    0.543
         2  -8.3525    235.9613     10.8424   3.5144297321e+01   2.5538268893e+01     0.169663    0.1537146  69.58 0.0004066387    1.309    0.236
         3  -8.5322     55.9011     10.3907   6.7581989127e+01   6.6446896312e+01    0.2087187    0.1580657 -35.45 0.0008099045    1.586    0.369
         4  -7.8415     47.5214     10.0491   7.0774342251e+01   6.7827608806e+01    0.1556472   0.09673359 -46.98 0.0008094147    2.543    0.607
         5  -7.8094     27.7841     10.0145   7.9786261290e+01   7.0534604767e+01    0.1493519   0.08003285 -32.60 0.0006107601    1.644    0.392
         6  -8.1742     90.9158      8.9821   5.5648274900e+01   5.9926038480e+01    0.1890972    0.1548548 -61.74  0.000663562    1.702    0.412
         7  -7.7549     12.9925      8.9510   8.7015442084e+01   7.2256474392e+01     0.138833    0.1013836 -18.18 0.0004686323    1.018    0.017
         8  -7.5662    101.6256      8.2961   5.2679167481e+01   5.7669769570e+01    0.1262683     0.099947 -73.42 0.0007026047    1.742    0.426
         9  -8.7054      5.4457      8.2096   9.0911664099e+01   7.3014494818e+01    0.1423546   0.09286212 -46.30 0.0006045924    1.630    0.387
        10  -8.7984     33.4069      5.2034   7.4536436022e+01   7.0438004432e+01    0.2846189    0.1741965 -44.32  0.001613533    2.370    0.578
        11  -8.4854     79.1957      4.2574   5.6816072179e+01   6.2768280355e+01    0.2256938    0.1547296 -29.85 0.0007768897    1.620    0.383
        12  -8.0652     15.6365      2.8094   8.2348911997e+01   7.2859182408e+01    0.1468769   0.09007213 -37.96 0.0005099289    1.654    0.396
        13  -8.3792     62.3555      1.6494   6.0893756919e+01   6.6218499023e+01    0.1869614    0.1417928  55.47 0.0005894266    1.571    0.363
        14  -7.7908     39.4557      1.4998   6.9772019189e+01   7.0009438562e+01    0.1179834   0.09235899   4.29 0.0001311263    1.036    0.035
        15  -8.5683    146.4758    240.1006   1.0133211370e+02   4.4407689860e+00    0.3352191    0.2202157  80.04  0.001652043    2.775    0.640
        16  -8.5984    249.1362    249.1271   8.3828201207e+01  -1.1831051196e+01     0.275261    0.1498006  -9.08  0.001619474    1.920    0.479
        17  -9.6694    248.6725    242.0910   8.2760642725e+01  -1.0968084037e+01    0.4322351    0.1861864 -29.01  0.001826218    2.276    0.561
        18  -9.2211    247.7022    234.6699   8.1685699227e+01  -9.9597328595e+00    0.2268604    0.1697805  -5.58  0.001180872    1.108    0.097
        19  -9.4692    246.3275    229.0207   8.0955335986e+01  -9.0801605788e+00    0.3551701    0.1713791 -33.94  0.001405925    2.061    0.515
        20  -8.1223    191.5580    249.7085   9.4102816909e+01  -3.9462603238e+00    0.1962216     0.126957  48.50  0.000675707    1.761    0.432
        21  -8.3460    183.9318    250.4875   9.5627885734e+01  -2.9155010904e+00    0.1858456   0.09804969  37.02 0.0005292344    1.560    0.359
        22  -8.4915     93.8326    249.6314   1.1253211644e+02   1.0770474781e+01    0.2209056    0.1272569  72.70  0.001205276    2.091    0.522
        23  -7.7680     25.4918    250.5044   1.2472213459e+02   1.9221160040e+01    0.1095398   0.07671066  67.62 -4.371973e-05    1.022    0.021
        24  -9.0845    120.1618    245.5501   1.0711348389e+02   7.6071288150e+00    0.3254917    0.2007115  76.97  0.001689926    2.412    0.585
        25  -8.4998     67.7398    245.4644   1.1698625430e+02   1.5076680125e+01    0.2270868    0.1234604  89.44  0.001267352    2.086    0.521
        26  -8.5947    202.0016    243.5027   9.1243487739e+01  -4.6556879317e+00    0.1918549    0.1663614 -48.25 0.0007036731    1.623    0.384
        27  -8.8179    168.9827    243.4261   9.7439114866e+01   3.8763698288e-01    0.1906731    0.1729517 -80.62 0.0005812895    1.503    0.335
        28  -8.7341    139.0547    244.0266   1.0328499678e+02   4.9610902041e+00    0.1947805    0.1351395  64.39 0.0008958591    1.722    0.419
        29  -9.3426     77.9515    242.8045   1.1486583181e+02   1.4197618348e+01    0.3433768     0.186367 -76.43  0.001940254    2.058    0.514
        30  -8.6384      9.5388    243.6017   1.2701880897e+02   2.2135567645e+01    0.1903761    0.0741377  84.71  0.001028598    2.412    0.585
        31  -8.9745    213.2952    242.4968   8.9023328705e+01  -6.1747510719e+00    0.2000195    0.1674659  -0.15 0.0006594056    1.140    0.123
        32  -9.2653    183.2995    240.4447   9.4275343883e+01  -1.3924740168e+00    0.3892258    0.2566843  64.36  0.001949915    2.778    0.640
        33  -9.2689    160.1422    240.5965   9.8741541257e+01   2.2064392083e+00    0.2942964    0.2209361 -81.13  0.001045199    2.124    0.529
        34  -7.9063    153.4180    242.2110   1.0026616354e+02   3.0094103131e+00    0.1497182    0.1202989 -71.89 0.0009393028    1.675    0.403
        35  -8.1666     88.0228    242.0600   1.1289515074e+02   1.2936157419e+01    0.1870108     0.117062  67.71 0.0005718172    1.602    0.376
        36  -9.2506    241.6456    238.0358   8.3285807369e+01  -9.5637421594e+00    0.4604068     0.190728 -16.56  0.001816452    4.166    0.760
        37  -9.1307    135.6295    239.0525   1.0331833198e+02   6.3208241284e+00    0.2151343    0.1469386  50.58 0.0009068141    1.338    0.253
        38  -8.5580    129.0336    238.9811   1.0460412183e+02   7.3638641644e+00    0.2021557    0.1344691  64.71  0.001126476    1.758    0.431
        39  -8.9217    230.9757    237.0695   8.4982914020e+01  -7.9872826107e+00    0.2329035    0.1891328 -51.38  0.001295596    2.044    0.511
        40  -9.3204    194.6847    241.1846   9.2243681900e+01  -3.2410552052e+00    0.3401986    0.2146556 -50.35  0.001199751    2.207    0.547
        41  -9.7196    175.8194    233.6020   9.4676665925e+01   8.1035651966e-01      0.44154    0.2293842 -55.35  0.002089023    2.871    0.652
        42  -8.4257     25.4129    236.6983   1.2396695096e+02   2.1782514941e+01    0.2568847   0.09855267  68.84  0.001259605    2.646    0.622
        43  -8.9188    216.9881    235.5195   8.7230258938e+01  -5.7888727033e+00    0.2350009    0.1884773  40.08 0.0007469038    1.458    0.314
        44  -9.4171    213.9302    231.9716   8.7204083888e+01  -4.8564519127e+00      0.26709    0.2394188  84.15  0.001451939    1.962    0.490
        45  -8.8542    203.1764    234.9059   8.9671925247e+01  -3.6471242126e+00     0.249486    0.1907823 -60.98  0.001206462    2.195    0.544
        46  -8.5243    170.3849    236.1409   9.6112960425e+01   1.2811010852e+00    0.1528476    0.1209627 -61.09 0.0006462891    1.710    0.415
        47  -9.3787    108.9466    234.4896   1.0802738138e+02   1.1250606898e+01    0.4715779    0.2329658  55.85  0.001319332    2.108    0.526
        48  -7.9799     57.9508    237.0000   1.1810940412e+02   1.7912487413e+01    0.1851038   0.05700999  37.10 0.0008012808    2.934    0.659
        49  -8.3387    153.3209    235.6553   9.9381022820e+01   4.0809902592e+00    0.1255643   0.09218137  65.22 0.0007049805    1.729    0.422
        50  -8.5933     99.6506    234.6119   1.0987709740e+02   1.2620540432e+01    0.2509657    0.1461581  68.55  0.001298803    2.035    0.508
        51  -9.0073     78.5973    234.3990   1.1396505397e+02   1.5674304648e+01    0.2601056    0.1459485  70.45 0.0009689702    1.951    0.487
        52  -8.3433      7.7618    235.0423   1.2691401785e+02   2.3905782927e+01    0.1366275   0.07137689 -86.41 0.0008785853    1.608    0.378
        53  -8.2414    122.7891    234.0966   1.0523028434e+02   9.1905893590e+00    0.1922124    0.1508577  63.60 0.0006957341    1.276    0.216
        54  -9.5531     68.0886    231.7512   1.1574689790e+02   1.7604837956e+01    0.5716183    0.2703246  74.61  0.002522656    2.859    0.650
        55  -8.6242    194.5085    232.9458   9.0987040989e+01  -2.0351969301e+00    0.2216979    0.1569999  47.13  0.000870393    1.576    0.365
        56  -9.1294    141.5622    231.1618   1.0109204535e+02   6.7251927640e+00    0.5764698    0.2372191  56.01  0.001994098    4.213    0.763
        57  -8.4397    132.7813    232.9575   1.0309101605e+02   7.8176678474e+00    0.1997724    0.1386316  77.78  0.001075289    2.001    0.500
        58  -9.0852    236.0752    230.9041   8.3052053308e+01  -7.9120285256e+00    0.2193757    0.1747338 -27.75  0.000689157    1.419    0.295
        59  -9.2869    186.4882    230.7038   9.2162763031e+01  -4.4204330904e-01    0.3154299    0.2420379 -73.76  0.001370234    2.296    0.565
        60  -7.9827    157.9767    232.4764   9.8007972395e+01   3.8544967845e+00    0.1723442   0.09623752  55.96 0.0004528896    2.289    0.563
        61  -8.3331     92.4949    231.9816   1.1100470676e+02   1.4162029195e+01    0.2627363    0.1127658  62.25  0.001034918    3.365    0.703
        62  -8.6927      1.5966    230.9412   1.2776472165e+02   2.5272615912e+01    0.2019852   0.09378231  80.37 0.0007347381    1.769    0.435
        63  -9.1451    151.5031    229.0353   9.8798608683e+01   5.4792728788e+00    0.2603119    0.2050496  89.37  0.001069848    1.780    0.438
        64  -9.4126    148.8089    224.7054   9.8711055961e+01   6.6671552304e+00    0.3319964    0.2402279  76.98  0.001370976    2.023    0.506
        65  -8.3010    229.7435    228.8938   8.3827196859e+01  -6.7546709161e+00    0.2083204    0.1355457 -32.97 0.0007930691    1.613    0.380
        66  -8.3865    223.1438    227.4999   8.4773495218e+01  -5.6088318101e+00    0.2394987    0.1404876 -16.53  0.001302668    1.857    0.462
        67  -8.7141    162.1334    227.7274   9.6478896741e+01   3.9633754338e+00    0.2503218    0.1946224  74.71  0.001079839    1.834    0.455
        68  -8.8748    127.8763    227.3697   1.0334132764e+02   9.5961537734e+00     0.305128     0.184218  60.20  0.001036075    1.908    0.476
        69  -8.1688    119.9916    227.7377   1.0499094246e+02   1.0781143001e+01    0.2116985    0.1587216  86.35 0.0008772375    1.604    0.376
        70  -8.9483      8.2444    228.2431   1.2649918529e+02   2.5161726097e+01     0.173113   0.06670912  85.79  0.000838524    2.442    0.591
        71  -8.6993    206.0470    225.9203   8.7657703108e+01  -2.8021297125e+00    0.2355813    0.1704451 -56.10  0.000858238    2.153    0.535
        72  -8.0232    110.8800    227.6456   1.0682774201e+02   1.2220482992e+01    0.1963946   0.09611777  47.42 0.0009517951    1.790    0.441
        73  -8.1957     49.6514    227.0732   1.1888168159e+02   2.0872118051e+01    0.2145232   0.08798841  65.76 0.0009543651    2.803    0.643
        74  -8.4256    200.0534    226.2766   8.8848675672e+01  -1.9196521048e+00    0.1751018    0.1434873  22.69 0.0004935651    1.060    0.057
        75  -9.0395     94.2155    224.2863   1.0981576387e+02   1.5387583546e+01    0.4266095    0.1990453  64.60    0.0017411    3.111    0.679
        76  -8.6278    180.4875    224.3222   9.2309336545e+01   1.5160700229e+00    0.2222492    0.1798631  49.08 0.0007285915    1.363    0.267
        77  -8.8957    104.7454    223.8422   1.0761586021e+02   1.3887457657e+01    0.3181576    0.1999999  76.36  0.001633971    2.020    0.505
        78  -8.0200     38.4739    224.9954   1.2083768707e+02   2.2609883324e+01    0.1672783   0.07528668  76.45  0.000559619    2.435    0.589
        79  -9.0089    216.3695    223.5102   8.5326982527e+01  -4.0405229175e+00    0.2175184    0.2134463  78.50 0.0007961053    1.551    0.355
        80  -8.6000    172.9781    223.3989   9.3646343628e+01   2.8967650260e+00    0.2158576     0.183309 -70.69 0.0006951792    1.615    0.381
        81  -8.1589    113.9605    224.0275   1.0574987501e+02   1.2423412059e+01    0.2029219     0.138059  68.77 0.0005712668    1.660    0.397
        82  -8.1603     59.5770    223.7602   1.1668814367e+02   2.0290991142e+01     0.163211   0.09913827  87.77 0.0009326544    1.638    0.389
        83  -9.3256    225.5595    222.0945   8.3404106308e+01  -5.2229017496e+00     0.231456     0.219885  25.49 0.0009874034    1.441    0.306
        84  -8.8040    158.8844    220.6245   9.6045750153e+01   5.7054659407e+00    0.2248704    0.1850276 -70.67 0.0006590019    1.577    0.366
        85  -8.2661    140.5436    222.7997   1.0012107160e+02   8.3666372730e+00    0.1651301    0.1260226 -75.53 0.0009318962    1.681    0.405
        86  -8.3124     27.2154    221.8037   1.2272078158e+02   2.4501470219e+01    0.2418245    0.1050537 -64.69  0.001307589    2.288    0.563
        87  -8.9893    239.0056    221.5890   8.0925055482e+01  -7.1078233770e+00     0.239734      0.18135 -33.65 0.0008543715    1.505    0.336
        88  -9.3696    192.3300    221.2868   8.9496784972e+01   6.9377785968e-02    0.2693612    0.2374811 -79.64 0.0008732803    1.724    0.420
        89  -8.7349      7.9615    222.4913   1.2625508904e+02   2.6315599097e+01    0.1627016    0.0521464  54.62 0.0008091753    2.491    0.599
        90  -8.6740     83.0057    220.8270   1.1171538104e+02   1.7702954501e+01    0.2815931    0.1466897  66.33  0.001330243    2.265    0.559
        91  -8.1021     73.2140    220.9939   1.1371739833e+02   1.9039080055e+01    0.2069669    0.1167886  75.82  0.000937633    2.021    0.505
        92  -8.4119    202.5575    220.0161   8.7315028462e+01  -1.3778751168e+00    0.1771809    0.1209385 -35.04 0.0006248123    1.556    0.357
        93  -9.1560    120.0092    219.0326   1.0384551916e+02   1.2415351732e+01    0.3923595      0.22115  65.34  0.001764872    2.453    0.592
        94  -8.2429    210.0834    219.2993   8.5767905337e+01  -2.4595108579e+00    0.1751922    0.1460618  20.38 0.0003748442    1.089    0.082
        95  -8.6203    248.3272    217.8660   7.8653174165e+01  -7.9243779470e+00    0.3222255    0.1888026  54.35  0.001479903    3.732    0.732
        96  -8.0179    179.3761    218.1345   9.1516402167e+01   2.7022885674e+00     0.169259    0.1245506 -55.51 0.0007929605    1.760    0.432
        97  -9.4035    132.9868    216.1978   1.0073355850e+02   1.0834132498e+01    0.4707503    0.2944245  79.67  0.002068171    2.822    0.646
        98  -8.4097     61.9474    217.2929   1.1562767595e+02   2.1298622822e+01    0.2350376    0.1387388  73.51  0.001287695    1.703    0.413
        99  -9.1189     51.4734    217.4742   1.1773566960e+02   2.2588107383e+01    0.2673656     0.166507  82.81  0.001128441    1.508    0.337
       100  -8.7230    169.3819    216.1611   9.3200081379e+01   4.7106843837e+00    0.2632653    0.2085728 -82.46   0.00084223    1.922    0.480
       101  -8.6316    142.8393    216.4942   9.8717768720e+01   9.1343114734e+00    0.2470043    0.1770892 -80.84 0.0009247039    1.998    0.500
       102  -8.2885    111.7590    217.1748   1.0532414536e+02   1.4092269588e+01    0.2239747    0.1231047  69.14 0.0009456301    2.761    0.638
       103  -7.6556     55.8455    217.3463   1.1685557461e+02   2.2069467585e+01    0.1454654    0.1084041  32.24 0.0009033159    1.583    0.368
       104  -9.7638    214.2009    212.8493   8.3857100449e+01  -2.1458910672e+00    0.4555946    0.3310897 -59.91  0.001994488    2.346    0.574
       105  -8.6816     18.5581    215.7968   1.2394808453e+02   2.6621466685e+01    0.2138989   0.08842919 -73.04  0.001148604    2.122    0.529
       106  -8.8039    232.3047    214.8639   8.0909865335e+01  -5.2170934984e+00    0.1996365    0.1892454 -38.09 0.0008268023    1.534    0.348
       107  -8.4155    185.8006    214.4965   8.9626069713e+01   2.2285919622e+00    0.2229529    0.1750941 -63.63 0.0007197818    1.833    0.454
       108  -8.1118    154.5917    215.2993   9.6092668848e+01   7.3678949097e+00    0.1964217    0.1524919  72.13 0.0009201835    1.691    0.409
       109  -8.8528     93.4444    214.2900   1.0880966895e+02   1.7496414541e+01    0.3712378    0.1758143  58.37  0.001456092    2.408    0.585
       110  -9.4650     73.4518    212.2002   1.1275982020e+02   2.0811695212e+01     0.663949    0.2407546  58.36  0.002392604    3.770    0.735
       111  -8.6533    161.6096    212.5289   9.4196590820e+01   6.6676395254e+00    0.2319789    0.2009277 -81.51 0.0007111861    1.492    0.330
       112  -8.2419    106.4790    212.9990   1.0589220684e+02   1.5755199063e+01    0.1842671    0.1275679 -68.81 0.0008854087    1.571    0.363
       113  -8.0443    224.6775    212.2016   8.1804783057e+01  -3.6845290519e+00     0.174643    0.1042397 -25.15 0.0005336599    1.656    0.396
       114  -9.3821    204.0079    210.8175   8.5425415931e+01  -1.9398713819e-01    0.2752506     0.248561 -56.16 0.0008352288    1.512    0.339
       115  -8.2997    192.0420    210.4793   8.7693848420e+01   1.8419628571e+00    0.2256345    0.1847077 -56.93 0.0006553372    1.626    0.385
       116  -9.3606    175.2387    209.9762   9.0973378430e+01   4.7790817392e+00    0.3375405    0.2537617  68.88  0.001448208    1.965    0.491
       117  -8.9734    147.8785    210.5360   9.6740544395e+01   9.3851920933e+00    0.3074582    0.2108855  67.95  0.001230355    2.004    0.501
       118  -8.9215    116.3112    210.5034   1.0345720820e+02   1.4684663491e+01    0.3312826    0.2078962  68.39  0.001040865    2.016    0.504
       119  -8.5151     32.6020    210.7430   1.2091404988e+02   2.6188480507e+01    0.2640401    0.1084183  78.02  0.001143005    2.989    0.665
       120  -9.4490      6.5083    209.3163   1.2580809758e+02   2.9113298923e+01    0.4588401    0.1434254  78.15  0.001745039    4.264    0.765
       121 -10.4219    235.2766    209.0070   7.9314456794e+01  -4.8336164892e+00    0.2928519    0.2226428   8.78 0.0004564399    1.139    0.122
       122  -7.8940     46.8021    210.1642   1.1803821152e+02   2.4680437551e+01    0.2280483   0.09312937  65.48 0.0009555952    2.962    0.662
       123  -8.4552     85.5219    209.5256   1.0991762511e+02   1.9654588213e+01    0.2898131    0.1550801  81.10  0.001235815    2.786    0.641
       124  -9.2709    246.3155    207.3149   7.7075128742e+01  -6.2201851788e+00    0.2500108     0.177656 -31.69 0.0005536186    1.415    0.293
       125  -7.8923    156.4771    207.9686   9.4515748419e+01   8.3789894371e+00    0.1830283    0.1355713 -50.64 0.0006226903    1.510    0.338
       126  -8.4508    139.0467    208.0258   9.8219496386e+01   1.1373899111e+01    0.2129615    0.1578646  71.47 0.0007826795    1.688    0.408
       127  -9.7932    124.3318    206.2847   1.0112076276e+02   1.4207739583e+01    0.3169955    0.2106415  69.36   0.00155499    1.908    0.476
       128  -9.2323     99.3493    206.2048   1.0653177838e+02   1.8263654415e+01    0.3450099    0.2211098  79.60  0.001262287    1.949    0.487
       129  -8.5787     56.5309    205.6209   1.1561910396e+02   2.4450067391e+01    0.3355113    0.1508834  59.92  0.001540268    2.336    0.572
       130  -9.2517    194.8208    203.3984   8.5873776774e+01   2.5420748336e+00    0.3894101    0.3127875 -32.98  0.001428977    1.294    0.227
       131  -9.2101    192.3985    197.3844   8.5243379175e+01   3.9803132857e+00    0.3534427     0.276821 -64.74  0.001315621    1.849    0.459
       132  -9.0734    183.9258    204.0408   8.8169331948e+01   4.3070511522e+00    0.3047125    0.2459756  68.33  0.001019626    1.746    0.427
       133  -9.7186    163.9966    203.1877   9.2128124118e+01   7.9457781552e+00    0.4687222    0.2882984  58.73  0.001415563    2.183    0.542
       134  -8.7306    131.3477    204.0086   9.9252697545e+01   1.3477540705e+01     0.316112    0.2168325  86.17 0.0009506689    2.149    0.535
       135  -8.2457    109.0930    205.3282   1.0429475346e+02   1.6905210185e+01    0.1901623    0.1571157  58.94  0.000551882    1.112    0.101
       136  -7.9662     25.2438    205.2342   1.2195606980e+02   2.8137865656e+01    0.1880726   0.07847319  89.50 0.0007918535    2.455    0.593
       137  -9.5940    250.1327    202.1825   7.5465563066e+01  -6.0598298229e+00    0.3626528    0.1595232 -34.51  0.001194743    2.100    0.524
       138  -8.7161    210.9766    202.2052   8.2518109345e+01   2.0626211984e-02    0.2118598    0.1871066 -61.05 0.0007300223    1.616    0.381
       139  -9.1958    243.0473    200.8769   7.6433564628e+01  -4.8348472219e+00    0.2758307    0.1669462 -35.48 0.0008131923    1.621    0.383
       140  -8.8911    140.4641    201.0921   9.6806588393e+01   1.2482902472e+01    0.3566623    0.2416463  82.86  0.001177636    2.390    0.582
       141  -8.5671     80.1048    201.4924   1.1012689885e+02   2.2151415573e+01    0.3129989    0.1681156  65.19  0.001438997    2.170    0.539
       142  -8.1984     48.3657    202.2229   1.1700183562e+02   2.6193893651e+01    0.1803553    0.1002994 -87.59 0.0009464664    1.764    0.433
       143  -9.0385    203.3397    199.0272   8.3391978170e+01   1.8158563514e+00    0.4543685    0.3239824 -80.95  0.001920984    3.551    0.718
       144  -9.3181    237.0563    198.9653   7.7118760470e+01  -3.6498336775e+00    0.2886715    0.1686217 -40.80  0.001133839    1.847    0.459
       145  -9.3901    149.5320    198.6583   9.4433176324e+01   1.1364167916e+01     0.389605    0.2761718 -89.02   0.00132898    2.258    0.557
       146  -8.9899    124.0081    199.1138   1.0010143906e+02   1.5721431131e+01    0.3146457    0.2185262 -78.39     0.001134    1.820    0.451
       147  -9.4019    112.9068    198.6284   1.0249176157e+02   1.7683145241e+01    0.4632737    0.2702764  68.51  0.001586295    2.418    0.586
       148  -9.1363     88.8444    198.7449   1.0786035368e+02   2.1460847170e+01    0.3735787    0.2193799  79.06  0.001704895    2.259    0.557
       149  -8.5551    176.9119    198.8556   8.8667465028e+01   6.4507026961e+00    0.2331229    0.1831889 -79.80 0.0007533547    1.966    0.491
       150  -8.6864    133.1672    196.8256   9.7709600851e+01   1.4613552055e+01    0.3337187    0.1872281 -64.11  0.001468872    2.249    0.555
       151  -9.2204     61.5378    197.1815   1.1368222650e+02   2.5646365943e+01     0.393034    0.2072939  74.32  0.001478958    2.275    0.560
       152  -8.0776     29.3896    197.7932   1.2055444854e+02   2.9306006562e+01    0.1609081    0.0948627 -69.57 0.0006448272    1.556    0.357
       153  -8.8688     12.7041    197.3988   1.2389369400e+02   3.1050161669e+01    0.2885463    0.1184538  81.68  0.001371672    2.472    0.596
       154  -9.7560    245.8064    193.7713   7.4599431461e+01  -4.2219164141e+00     0.336689    0.2328123 -59.52  0.001661792    2.886    0.653
       155  -8.6843    172.5707    191.8311   8.8280423703e+01   8.5205079862e+00    0.2975731     0.227498 -54.83 0.0008342228    1.527    0.345
       156  -7.9996     53.3219    196.6286   1.1540429743e+02   2.6814656626e+01    0.1402398   0.07958746  69.81 0.0007033214    1.805    0.446
       157  -7.8080     36.2867    196.6525   1.1902867701e+02   2.8809586591e+01    0.1309101   0.07459147  70.85 0.0003604314    1.655    0.396
       158  -8.5984    224.2834    193.9416   7.8455003954e+01  -8.6230029585e-01    0.2553554    0.1629366 -43.79  0.001207282    1.772    0.436
       159  -8.8259    185.1737    194.9353   8.6245448882e+01   5.6839350777e+00    0.2251685    0.2180574 -67.49 0.0006326327    1.268    0.211
       160  -9.2888    161.0235    194.4933   9.1225805520e+01   1.0110635896e+01    0.3216189    0.2306743  67.08  0.001116152    1.918    0.479
       161  -8.3661    230.9837    194.2737   7.7300690723e+01  -1.9949358314e+00    0.1825584    0.1524463  -0.49 0.0005285654    1.013    0.013
       162  -8.8274     76.9961    193.8411   1.0987750281e+02   2.4276899837e+01    0.2615272    0.1869107  80.03 0.0007460171    1.405    0.288
       163  -9.0262     43.7971    193.5379   1.1715127925e+02   2.8646585020e+01    0.3674113    0.1869423  66.90  0.001811365    2.055    0.513
       164  -8.7908    215.8443    195.6040   8.0346192488e+01   2.6637385554e-01    0.2378716     0.169062 -51.18 0.0007530935    1.855    0.461
       165  -8.3001    198.9377    191.7539   8.2870452757e+01   3.8033567588e+00    0.2268629    0.1746474 -50.94 0.0006839364    1.574    0.365
       166  -8.4538    178.9928    191.5174   8.6876230942e+01   7.4125993637e+00    0.2128287    0.1815066 -36.49 0.0005571575    1.223    0.182
       167  -9.1540    139.5754    190.7002   9.5253967422e+01   1.4735686843e+01    0.4008768    0.2790735 -89.35  0.001133933    2.203    0.546
       168  -7.7659    205.2591    191.6414   8.1607941234e+01   2.7182360862e+00    0.1240437    0.1092769 -69.99 0.0003173906    1.623    0.384
       169 -10.4618     92.2063    188.7301   1.0573938623e+02   2.3156549449e+01    0.9525456    0.2844372  48.98  0.003120172    3.713    0.731
       170  -8.5956     21.5044    191.4615   1.2168551599e+02   3.1500521641e+01    0.2712579   0.09043271  56.29  0.001153671    3.042    0.671
       171  -8.4327      6.6751    191.3450   1.2469954931e+02   3.2902962666e+01    0.1269981   0.06444692  67.93 0.0005975168    1.740    0.425
       172  -8.3723    148.4870    189.4682   9.3055563950e+01   1.3376491344e+01    0.2379434    0.1879156  82.58 0.0006976523    1.666    0.400
       173  -9.0321    129.2870    188.5072   9.7195614863e+01   1.7025313133e+01    0.3627522    0.2474916 -76.00 0.0009588302    1.908    0.476
       174  -8.2259    237.0394    188.4794   7.5090866840e+01  -2.0725209932e+00    0.2068735    0.1475439 -27.56  0.000748592    1.274    0.215
       175  -8.7868    216.5278    187.8544   7.8707303841e+01   1.4092970329e+00    0.2601148    0.2124298 -43.63 0.0007495414    1.413    0.292
       176  -9.3932    156.0824    187.6880   9.1058509957e+01   1.2342800705e+01    0.3782617    0.2445559 -64.22  0.001059731    2.067    0.516
       177  -9.8061    120.7858    186.4803   9.8799201950e+01   1.8948597385e+01    0.5774633    0.3035795 -72.76  0.002174965    3.035    0.670
       178  -8.8901     34.2144    187.9916   1.1870202756e+02   3.0964005773e+01    0.3837868    0.1718869  83.50  0.001686152    2.635    0.621
       179  -9.0144    172.6371    195.9133   8.9020706494e+01   7.7498559192e+00    0.2630241    0.2072826  24.76 0.0003763015    1.229    0.187
       180  -8.7838    191.3407    187.4259   8.3552050637e+01   5.9183147797e+00    0.2791542    0.2225563  80.44  0.001240952    2.006    0.502
       181  -8.8569    164.7555    186.8311   8.9010300383e+01   1.0910183147e+01    0.2900831    0.2217467 -70.06 0.0007282082    1.748    0.428
       182  -9.1537     54.6661    186.9273   1.1408030003e+02   2.8827744333e+01    0.3952179    0.2068577  73.66  0.001812116    2.274    0.560
       183  -8.1256    230.5111    187.1183   7.5984905296e+01  -8.0897029787e-01    0.1969394    0.1191428 -35.06  0.001019784    1.567    0.362
       184  -9.1655    109.5555    186.1127   1.0133425743e+02   2.0943484673e+01    0.3833754    0.2460327  71.81  0.001126772    2.033    0.508
       185  -8.5688    249.1902    185.5895   7.2426399653e+01  -3.5323802564e+00    0.2367106    0.1805457 -48.09 0.0008723409    1.733    0.423
       186  -8.7983    182.8064    185.1476   8.4858494464e+01   7.8918340802e+00    0.2849052    0.1893635 -41.44 0.0008999818    1.547    0.353
       187  -8.7887    210.3376    184.5028   7.9219306335e+01   3.0398785629e+00    0.2337398    0.1958418 -31.56 0.0006100616    1.203    0.169
       188  -8.6306    202.7399    184.6899   8.0734373072e+01   4.3523419018e+00    0.2563401    0.1820604 -47.24  0.000673638    1.593    0.372
       189  -9.0334     66.7307    184.5195   1.1105163431e+02   2.7812184531e+01    0.3963301    0.2217679  66.17  0.001317746    2.013    0.503
       190  -8.2944    224.1085    183.6744   7.6463388261e+01   8.0539154065e-01    0.2183332    0.1698517 -37.12 0.0005748443    1.331    0.248
       191  -8.9477    174.2461    183.5705   8.6349956732e+01   9.7763113869e+00    0.2738219    0.2279105 -89.74 0.0007905405    1.679    0.404
       192  -8.0457      1.8048    183.8127   1.2520249293e+02   3.4959888457e+01      0.16463    0.1024679  67.45  0.001051616    1.364    0.267
       193  -9.0046     44.2600    182.3831   1.1593580921e+02   3.1119374608e+01    0.3181443     0.178011  78.24 0.0009260494    1.891    0.471
       194  -9.3829    147.4775    180.6978   9.1673139383e+01   1.5361395527e+01     0.380878    0.2804513 -77.87  0.001086148    1.854    0.461
       195  -9.6976     25.5350    178.9121   1.1978475946e+02   3.3923402817e+01    0.6315723    0.2458018  78.76  0.002350837    3.779    0.735
       196  -7.6885     90.5960    181.7247   1.0509843113e+02   2.4991660690e+01    0.1342283    0.1096398 -12.00  0.000698122    1.765    0.433
       197  -7.6782    240.5065    180.5043   7.2896966940e+01  -1.3978111096e+00    0.1333106    0.1107684  -8.74 8.767563e-05    1.009    0.009
       198  -9.8673    191.9060    178.6918   8.1697958109e+01   7.3994270618e+00    0.3951383    0.3042808  78.07  0.001436602    2.116    0.527
       199  -8.7175    137.5350    179.3571   9.3691168630e+01   1.7486890812e+01    0.3021242     0.218616  82.22 0.0008748528    1.950    0.487
       200  -8.2511    169.1142    178.6699   8.6488595722e+01   1.1694148585e+01    0.2394039    0.1984396 -58.50 0.0006223359    1.383    0.277
       201  -9.0352     35.9371    176.8324   1.1725321188e+02   3.3329758790e+01    0.5033773    0.2050046  82.81  0.001801127    3.880    0.742
       202  -9.5670    248.3352    176.1844   7.0690264292e+01  -1.9809651775e+00    0.5126865    0.2439757 -45.56   0.00198902    2.489    0.598
       203  -8.5762    250.5252    172.8886   6.9656316564e+01  -1.8221133274e+00    0.2199945    0.1402578 -40.24 0.0004903599    1.566    0.362
       204  -8.4452    217.6790    177.3537   7.6375848892e+01   2.9619479187e+00    0.2381372    0.1565945 -45.34 0.0006346142    1.668    0.400
       205  -8.5124    205.0261    177.9813   7.8931075264e+01   5.1159064344e+00    0.2154588      0.19539  -7.48 0.0005896071    1.034    0.033
       206  -8.8306    129.0988    177.2118   9.5257457314e+01   1.9494087676e+01    0.2696702    0.1870996 -87.07 0.0007157962    2.060    0.515
       207  -8.2080     97.5004    177.8170   1.0285986440e+02   2.4796275773e+01    0.2588196    0.1901882  16.66  0.001224696    1.842    0.457
       208  -8.5751    231.1107    176.8437   7.3808877205e+01   7.3127505983e-01    0.2287025    0.1669523 -40.72 0.0007397677    1.435    0.303
       209  -9.4800    183.1556    175.7062   8.2898460735e+01   9.6019596948e+00    0.4851828    0.2708027 -32.61 0.0006991674    1.946    0.486
       210  -8.7622     89.0325    176.8096   1.0473346569e+02   2.6366556485e+01    0.2887748    0.2052965  84.46 0.0008964838    1.567    0.362
       211  -9.9434     57.3245    173.3400   1.1186346483e+02   3.1649131699e+01    0.8247023     0.371949  81.00  0.002696002    4.405    0.773
       212  -9.4055     12.9013    176.3999   1.2234293595e+02   3.5675415107e+01    0.3668613     0.153879  81.52  0.001663525    2.564    0.610
       213  -8.1979    211.5454    176.5007   7.7364049036e+01   4.1978429682e+00    0.1402291      0.12378  -4.90 0.0001634858    1.012    0.012
       214  -9.1917    158.8582    175.0182   8.8019650312e+01   1.4384504506e+01    0.3998789    0.2840203 -77.61  0.001347077    2.163    0.538
       215  -9.4688    104.3265    174.8499   1.0073838903e+02   2.4357209318e+01    0.5132142    0.2932462  68.98  0.001845054    2.635    0.621
       216 -10.6799     76.0757    169.4960   1.0678578535e+02   3.0024237807e+01      1.44821    0.5116639 -68.84  0.004953464    3.353    0.702
       217  -8.4729    224.4728    174.5236   7.4533429580e+01   2.2491765075e+00    0.2264471    0.1202218 -46.11 0.0005912641    2.118    0.528
       218  -9.3702    175.7206    172.3027   8.3776986791e+01   1.1684228488e+01    0.3481545    0.2332531 -49.45  0.000765069    1.603    0.376
       219  -8.7187    143.2508    173.1236   9.1194138824e+01   1.7756370149e+01    0.2721081    0.1835447  65.66 0.0008656047    1.964    0.491
       220  -8.3388    194.4846    172.4788   7.9895663147e+01   8.0627558721e+00    0.1448536    0.1308571  -0.71 4.847053e-05    1.035    0.034
       221  -8.9444    134.8145    171.9604   9.2937911433e+01   1.9593950232e+01    0.2661159    0.2062875 -80.24 0.0007530859    1.582    0.368
       222  -9.5857    121.5469    170.4830   9.5818081846e+01   2.2358797827e+01    0.4496236    0.3049385 -85.56  0.001085148    2.077    0.519
       223  -9.0450     45.1222    171.1118   1.1450071858e+02   3.3648795178e+01    0.3661551    0.1925106  86.32  0.001354519    2.163    0.538
       224  -8.3001    205.8508    170.5475   7.7227414756e+01   6.2863450972e+00    0.2688059    0.1800218 -53.78  0.001177304    1.881    0.468
       225  -8.5145    198.4597    170.3386   7.8645984787e+01   7.7075229972e+00    0.2528496    0.2303204  74.30 0.0009497562    1.417    0.294
       226  -8.3297    237.1478    169.6962   7.1269468038e+01   8.6962608545e-01    0.2250276    0.1645331 -39.18 0.0006352923    1.371    0.271
       227  -8.6776    230.4648    170.0339   7.2517414237e+01   1.9559577477e+00    0.2085304    0.1219254 -33.60  0.001021238    1.565    0.361
       228  -9.1986    167.0320    168.6612   8.4914757470e+01   1.4101783465e+01    0.3449167    0.2673256  80.94  0.001029767    1.861    0.463
       229  -8.5988    149.8276    169.5932   8.8981454719e+01   1.7254737586e+01      0.27714    0.2002327 -71.78 0.0007758185    1.821    0.451
       230  -8.2994    244.3954    169.3036   6.9945883100e+01  -2.7475606281e-01    0.1916407    0.1674045  66.11 0.0005792648    1.700    0.412
       231  -8.5634    218.8775    168.3580   7.4279067112e+01   4.2861565343e+00    0.2226701    0.1792219 -38.57  0.000493872    1.262    0.207
       232  -8.2361     88.5129    169.0183   1.0364369780e+02   2.8272947446e+01    0.2133738    0.1336413 -64.70  0.001017721    1.557    0.358
       233  -8.7817    111.6581    167.3344   9.7645296027e+01   2.4836018594e+01    0.3646051    0.2425738  82.59  0.001186799    2.145    0.534
       234  -9.0512     13.0432    167.5501   1.2159386807e+02   3.7688909477e+01    0.2744337    0.1198024  83.48  0.001256674    2.414    0.586
       235  -8.9415    191.9502    166.7214   7.9198990545e+01   9.6249738226e+00    0.2673885    0.2048833 -43.86 0.0005263379    1.340    0.254
       236  -8.7763    185.1174    166.7316   8.0617093393e+01   1.0948372073e+01    0.2516711    0.1938031 -50.78 0.0006503554    1.422    0.297
       237 -10.0640     94.8860    162.4552   1.0095443318e+02   2.8817128867e+01    0.9058434    0.5351467  89.67  0.003175144    2.675    0.626
       238  -9.2812     20.7442    166.3363   1.1972417670e+02   3.7289256608e+01    0.3785222    0.1656482  63.83  0.001188908    2.588    0.614
       239  -9.8824    136.7199    164.5410   9.1035236162e+01   2.0871918797e+01    0.6610911    0.3144667  54.92  0.002176239    2.758    0.637
       240  -8.3507    233.8742    165.0730   7.0872882470e+01   2.1861024436e+00    0.1980823    0.1717479 -39.98 0.0005629543    1.272    0.214
       241  -8.6520    159.6051    164.5636   8.5719128560e+01   1.6408517646e+01    0.2794104     0.223583 -67.08 0.0007272542    1.491    0.329
       242  -9.8197     33.7417    163.5853   1.1637457128e+02   3.6674432673e+01    0.5696728    0.2188435  57.28  0.002259116    3.221    0.690
       243  -8.9170    246.0434    163.1580   6.8391046520e+01   4.2908965320e-01    0.2312227    0.1678489 -30.80 0.0004759507    1.210    0.173
       244  -8.6662    213.0190    163.6062   7.4368775535e+01   6.1930434676e+00    0.2600672    0.1869667 -49.21 0.0007611585    1.568    0.362
       245  -8.2025    204.9070    163.0773   7.5819557144e+01   7.8168666695e+00    0.2058369    0.1923292 -54.48 0.0004843969    1.258    0.205
       246  -8.5233     57.9307    163.6424   1.1044761403e+02   3.3886673067e+01    0.2488201    0.1353434  22.82  0.001113999    2.520    0.603
       247  -9.4895      3.3462    162.4207   1.2337030217e+02   3.9652186997e+01    0.3785247    0.1625865  58.27  0.001895524    2.369    0.578
       248  -9.2190    177.5146    160.7183   8.0939798311e+01   1.3633444812e+01    0.3623064    0.2470423 -59.75  0.001055628    1.854    0.461
       249  -8.9823    151.6731    161.1701   8.6822404296e+01   1.8698594466e+01    0.3209727    0.2424122 -74.99 0.0008102112    1.736    0.424
       250  -8.7213     60.6700    160.3008   1.0929331909e+02   3.4343782742e+01    0.3550768    0.2036913  74.86  0.001228094    2.218    0.549
       251  -9.2616    243.6009    159.5478   6.8038379273e+01   1.4204470870e+00    0.3568525    0.1994965  25.58 0.0007594207    2.243    0.554
       252  -8.5749    227.3982    159.2390   7.0775127695e+01   4.3142581928e+00    0.2566218    0.1952105 -56.98 0.0008792041    1.716    0.417
       253  -9.5610    105.6987    158.2014   9.7444234394e+01   2.8012209663e+01     0.423408    0.2913303  79.24   0.00104758    1.932    0.482
       254  -9.8043    250.1515    157.8657   6.6604650232e+01   5.8934632093e-01     0.331898    0.1915954 -36.41 0.0007621026    1.523    0.343
       255  -8.2080    246.7401    155.6488   6.6691387607e+01   1.5182057334e+00    0.1873342      0.14635 -17.88 0.0002834861    1.135    0.119
       256  -8.6258    237.0320    159.0194   6.9039226485e+01   2.6390053083e+00    0.2012304    0.1643973 -59.71 0.0008088152    1.647    0.393
       257  -8.7841    196.7001    157.9501   7.6331187812e+01   1.0361483266e+01    0.2978463    0.2272693 -53.22 0.0007172045    1.493    0.330
       258  -8.5016    128.1018    159.1597   9.2034566168e+01   2.3721097201e+01    0.2750232    0.2049064  64.44  0.000809733    1.551    0.355
       259  -8.3486    188.0983    157.8317   7.8066551615e+01   1.2089637362e+01    0.2648885    0.1819394 -54.08 0.0007206583    1.687    0.407
       260  -9.1939    167.6232    157.3087   8.2362291784e+01   1.6318837168e+01    0.3361908     0.268431  89.35 0.0008835061    1.742    0.426
       261  -8.3248    218.0187    156.5706   7.1902871663e+01   6.5073918155e+00    0.2688276     0.179964 -48.91 0.0007328098    1.660    0.397
       262  -9.2916    119.4586    155.3391   9.3407125633e+01   2.6218975572e+01    0.4127797    0.2830126 -84.70  0.001482355    2.050    0.512
       263  -9.3610     49.8542    155.5459   1.1138283896e+02   3.6835819716e+01    0.4525003    0.2281809  66.05  0.001633483    2.629    0.620
       264  -8.4504    157.5265    156.1784   8.4399890345e+01   1.8599299768e+01    0.2369141    0.2090412  80.52 0.0006674227    1.330    0.248
       265  -8.5253    144.7672    155.1792   8.7169968268e+01   2.1377490385e+01    0.3158439    0.2299497  68.62  0.001226457    1.772    0.436
       266  -9.4725     81.6444    154.8610   1.0303870798e+02   3.2726631525e+01    0.4938121    0.3163792  78.00  0.001698781    2.038    0.509
       267  -8.4054    242.7370    154.9673   6.7207311203e+01   2.3152767590e+00    0.2443782    0.2005666 -64.53 0.0003566793    1.722    0.419
       268  -8.7163    239.7122    153.3153   6.7358661981e+01   3.1155390658e+00    0.2240269    0.1112783 -42.49 0.0004063192    1.937    0.484
       269  -7.9339    204.7671    155.5494   7.4199443904e+01   9.2305865159e+00    0.1802424    0.1418649  55.65 0.0003781315    1.513    0.339
       270  -9.6640    132.6849    152.8730   8.9603481592e+01   2.4275135721e+01    0.4584309    0.3386888  86.39  0.001138703    1.872    0.466
       271  -9.2301    133.5121    148.4970   8.8455423462e+01   2.5110852083e+01    0.3721343    0.2445019 -43.66  0.001165283    1.534    0.348
       272  -9.4053     67.8444    153.6717   1.0644689785e+02   3.5004875139e+01    0.4805851    0.2763757  75.66  0.001299302    2.433    0.589
       273  -8.1936    232.9713    154.0049   6.8659975026e+01   4.2000220687e+00    0.2113492    0.1676014 -63.87 0.0007544221    1.766    0.434
       274  -8.9196    151.8418    152.3270   8.4874794921e+01   2.0581605696e+01     0.367782     0.169184 -38.87  0.001330518    2.379    0.580
       275  -9.1924     20.0927    152.8304   1.1855034236e+02   4.0537753108e+01    0.1918365    0.1401835  76.10 0.0005463531    1.265    0.209
       276  -8.4745      9.1909    153.4006   1.2125542049e+02   4.1301282835e+01    0.1596926   0.09925961  48.09 0.0006041615    1.679    0.404
       277  -9.6165     29.1502    150.6221   1.1604029264e+02   4.0239478638e+01    0.4920113    0.2205638  73.62  0.001841629    3.282    0.695
       278  -8.7776      2.6068    150.5404   1.2257852587e+02   4.2460019867e+01    0.3347238    0.1202461 -84.72  0.001450012    2.572    0.611
       279  -9.9515      2.8477    142.2980   1.2179157842e+02   4.4376846171e+01    0.5532289    0.2078826 -88.24  0.002357735    2.722    0.633
       280  -9.5374    248.7961    149.5915   6.5063955192e+01   2.1481974606e+00    0.3307081    0.1874906 -35.03 0.0008585301    1.523    0.344
       281 -10.1115    242.4837    150.1170   6.6205255657e+01   3.1581144326e+00    0.3064263    0.2763287 -84.84  0.001554922    1.558    0.358
       282  -8.9791    189.5543    150.3124   7.6081352367e+01   1.3266079725e+01    0.3208319    0.2401749 -59.16 0.0009304394    1.616    0.381
       283  -8.0829    182.4087    151.2225   7.7785215553e+01   1.4546042318e+01    0.2118705    0.1387277 -52.53 0.0005609363    1.697    0.411
       284  -8.3100    162.9138    150.9590   8.2011962682e+01   1.8611784387e+01    0.2430555    0.1912608  87.36 0.0009882423    1.765    0.433
       285  -8.4057     98.4435    150.8476   9.7914141706e+01   3.1011148506e+01    0.2855764    0.2153149  75.39 0.0009189676    1.545    0.353
       286  -8.1698    212.8462    149.6590   7.1335940588e+01   8.7386394305e+00    0.2290975    0.1610343 -40.34 0.0005509547    1.359    0.264
       287  -8.4110    199.0291    148.8822   7.3834052802e+01   1.1621888493e+01    0.2161819    0.1997208 -68.26 0.0005190379    1.280    0.219
       288 -10.1409     89.2312    146.2508   9.9473495434e+01   3.3643833002e+01    0.7152236    0.4008077 -88.76  0.002463282    3.395    0.705
       289 -10.1958     39.7298    146.8579   1.1283311942e+02   4.0089420792e+01    0.7287629    0.3953173 -77.82  0.002675184    1.721    0.419
       290  -9.2778    233.4881    147.7156   6.7194725606e+01   5.1763712470e+00    0.2703346    0.1745644 -34.25 0.0008619095    1.380    0.275
       291  -9.4147    139.4085    137.6925   8.4542128929e+01   2.6379067620e+01    0.4103105    0.2643893 -13.05  0.001487245    2.790    0.642
       292 -10.3008    106.9138    144.2994   9.4373043965e+01   3.1114434461e+01    0.8601543    0.5562559  89.82  0.002279893    2.450    0.592
       293  -8.9254     78.2541    147.2318   1.0260072472e+02   3.5100133412e+01    0.2916072    0.1861694  72.18  0.000918058    2.035    0.509
       294 -10.2535     54.5936    144.6347   1.0854754807e+02   3.8943448599e+01    0.8103389    0.4002073  72.46  0.002846067    3.636    0.725
       295  -8.1845    223.1806    146.8228   6.8802584786e+01   7.2573463839e+00    0.2060754    0.1830423 -43.99 0.0003741499    1.200    0.166
       296 -10.2420    148.9338    144.9979   8.3916533038e+01   2.2784195667e+01    0.5678113    0.3955222 -84.41  0.001544568    2.335    0.572
       297  -9.3996     13.2544    146.2077   1.1956963238e+02   4.2685458168e+01     0.341384    0.1870823  69.32  0.001321647    1.935    0.483
       298  -9.1176    240.4308    145.4893   6.5536902861e+01   4.2930506238e+00    0.2427642    0.1561987 -41.70 0.0005247362    1.464    0.317
       299  -9.3128    243.2313    142.1967   6.4356428828e+01   4.3402862791e+00    0.3770887    0.1793901 -30.21  0.001628175    1.996    0.499
       300  -8.0137    206.7136    146.5667   7.1803133597e+01   1.0517088431e+01    0.1847706    0.1440315  56.27 0.0005539354    1.515    0.340
       301  -8.2574    175.6494    146.1834   7.8086665529e+01   1.6965581978e+01    0.2332613    0.1849561 -57.50 0.0006603685    1.405    0.288
       302  -8.9617    165.5079    144.1857   7.9874743855e+01   1.9506467687e+01    0.3081132    0.2616601 -80.86 0.0007098207    1.450    0.310
       303  -9.9222    125.2625    143.0052   8.9321741373e+01   2.7992370401e+01    0.5571321    0.3763595  88.98  0.001441714    2.402    0.584
       304  -9.4196    246.9445    143.8240   6.4114529505e+01   3.4115530459e+00    0.2381335    0.1679946 -31.15 0.0004784516    1.220    0.180
       305  -8.1265    194.0267    143.9636   7.3709105411e+01   1.3588404575e+01    0.2223735    0.1834989 -76.38 0.0004040144    1.610    0.379
       306 -10.5476     69.4592    141.0592   1.0389317313e+02   3.7887186377e+01    0.5469187    0.4103296 -69.48  0.001721757    1.228    0.186
       307  -9.8879     68.8086    134.7911   1.0293323037e+02   3.9528681454e+01    0.3581619    0.2441873 -19.40  0.001630237    2.241    0.554
       308 -10.0439    139.1986    145.2189   8.6324683855e+01   2.4720905637e+01    0.5766523    0.3959703 -88.82  0.001140815    2.406    0.584
       309  -8.2947    182.0753    141.8591   7.5696684595e+01   1.6497818538e+01    0.2299561    0.2044452 -74.85 0.0005618149    1.334    0.251
       310  -9.8970     23.5546    138.3607   1.1602465065e+02   4.3720428025e+01    0.5108758    0.2447418  69.55  0.002034043    2.804    0.643
       311  -8.7686    172.3250    138.3405   7.6974453136e+01   1.9287385125e+01    0.3100999     0.247825 -77.86 0.0005997646    1.646    0.393
       312  -9.1550    241.3385    137.1508   6.3548261751e+01   5.5285735840e+00    0.3233218    0.1544265 -27.23  0.001332253    2.215    0.549
       313  -7.7034    218.4843    138.5121   6.7762800019e+01   9.6543852936e+00     0.145608    0.1316837 -25.37 0.0003146416    1.017    0.017
       314  -8.4623    207.3774    138.0349   6.9709057189e+01   1.1976356756e+01    0.2464976    0.2111882 -83.63  0.001044145    1.533    0.348
       315  -8.6453    197.5437    137.5160   7.1495605940e+01   1.4106680813e+01    0.2784603    0.2284869 -66.44 0.0006995336    1.495    0.331
       316  -9.1799     39.1928    136.3404   1.1150133461e+02   4.2727257486e+01    0.2855729    0.1980417  82.01  0.000736743    1.514    0.339
       317  -9.1159    250.7182    130.1151   6.0522824344e+01   4.9937883863e+00    0.4638352    0.1163337 -36.88  0.001523432    3.373    0.704
       318  -9.7922    248.5363    135.2234   6.1982337937e+01   4.5451320508e+00    0.3778902    0.2033697 -42.35 0.0008038827    1.696    0.410
       319  -8.6060    247.0316    130.2804   6.1122481816e+01   5.6347654510e+00    0.2205782    0.1778989 -34.25 0.0007039442    1.077    0.071
       320  -8.9850    150.9147    136.3486   8.1420063894e+01   2.4277109380e+01    0.3599698    0.2321312  22.74  0.001437748    2.119    0.528
       321  -8.2179    188.3677    136.1805   7.3034037850e+01   1.6302031749e+01    0.2189138    0.1355677 -49.31 0.0005251066    1.689    0.408
       322  -8.2890    162.4374    136.2691   7.8702155108e+01   2.1840046695e+01    0.2157518    0.1462985 -54.45 0.0007778078    1.595    0.373
       323 -10.3903     83.3207    132.9657   9.8471745047e+01   3.7837768540e+01    0.5682064    0.3300756 -71.00  0.001326444    1.980    0.495
       324  -9.8910     55.9362    135.7632   1.0673780244e+02   4.0973052437e+01    0.4798182    0.2659976   6.21  0.001844503    3.603    0.722
       325  -8.0964    237.5716    133.7744   6.3404785159e+01   6.7998782035e+00    0.2016945    0.1172346 -44.51 0.0009416228    1.651    0.394
       326  -8.0187    231.4488    134.0040   6.4471020693e+01   7.9235992934e+00    0.2141805     0.125739 -36.48 0.0003469659    1.514    0.340
       327  -8.4968    179.3673    133.8939   7.4374691109e+01   1.8689497545e+01    0.2897549    0.2251223 -66.44 0.0008500998    1.589    0.371
       328 -10.1119    132.5857    131.7024   8.4835748849e+01   2.9141793949e+01    0.6042653    0.4299357  86.58   0.00197738    2.154    0.536
       329  -9.0817    113.0042    133.3016   9.0346130893e+01   3.2623156166e+01    0.4010598    0.2895684  79.54  0.001329124    1.912    0.477
       330  -9.2888    143.0812    131.8457   8.2236195680e+01   2.6929148004e+01    0.3698081    0.2625474 -64.32 0.0007465337    1.672    0.402
       331  -8.8672    141.2805    128.0171   8.1742890831e+01   2.8165574404e+01    0.2496782     0.227879  49.27 0.0001958261    1.127    0.113
       332 -10.4341     98.1793    130.2619   9.3718190507e+01   3.6041215157e+01    0.7072117    0.3194966 -55.09  0.001648923    2.127    0.530
       333 -10.0206     73.2292    129.3898   1.0062648107e+02   4.0238290468e+01    0.5062922    0.2979214 -81.94  0.001480165    2.346    0.574
       334 -10.2333     12.8587    129.2219   1.1780936066e+02   4.6786878471e+01    0.4896702    0.2464951  78.03  0.002185123    2.387    0.581
       335  -7.9155    204.4919    130.4919   6.8476341540e+01   1.3991469333e+01    0.1496214    0.1390638 -37.17 0.0008099076    1.058    0.055
       336  -7.7740    192.9461    130.4610   7.0725791956e+01   1.6449654707e+01    0.1900558    0.1370197  81.53 0.0003671346    2.174    0.540
       337  -9.3358    168.1541    129.3002   7.5704656704e+01   2.2075954882e+01    0.3306197    0.2335904 -55.04 0.0007970977    1.540    0.351
       338  -9.3257    152.7910    129.1022   7.9207167888e+01   2.5462934713e+01    0.3930975    0.2789214 -62.45 0.0009161829    1.670    0.401
       339  -8.5162     25.1484    130.3318   1.1455459795e+02   4.5535829519e+01    0.2187937    0.1264173   8.10  0.001081657    2.605    0.616
       340  -8.0982      1.6611    130.3337   1.2094246150e+02   4.7282149931e+01     0.186292    0.1134205  70.10 0.0009686516    1.699    0.411
       341  -7.8939    220.4888    129.5847   6.5336115830e+01   1.0863166817e+01     0.144092    0.1318037 -28.51 7.427258e-05    1.024    0.023
       342  -7.7906    211.4179    129.1656   6.6866301113e+01   1.2794337935e+01    0.2131935    0.1282403 -48.03 0.0006906391    1.704    0.413
       343 -10.8002     44.7066    123.3383   1.0784599076e+02   4.5349825149e+01     1.159873    0.5866473  80.33  0.004036007    3.954    0.747
       344  -9.9989    118.0712    125.2573   8.7082227983e+01   3.3545826812e+01    0.6288426    0.4469674  85.61  0.001558187    2.115    0.527
       345 -10.4699     59.9137    125.0904   1.0366898527e+02   4.3117362191e+01    0.7141395     0.416339  81.36  0.002285696    2.775    0.640
       346  -8.1726    228.3892    125.2199   6.2964705445e+01   1.0056141026e+01    0.2096359    0.1195232 -45.23 0.0009353624    1.685    0.406
       347  -9.0812    179.0886    124.9019   7.2221406506e+01   2.0576208175e+01    0.3319001    0.2543713  55.04  0.001134137    1.416    0.294
       348 -10.2567     28.3678    122.3434   1.1249516827e+02   4.7204403697e+01     0.720144     0.354616  78.57  0.002837475    3.270    0.694
       349  -8.7755     27.0522    113.5251   1.1150913522e+02   4.9468083430e+01    0.2307267    0.1712056   7.93 0.0008851449    1.747    0.427
       350  -8.1949    243.6691    124.2203   6.0284065415e+01   7.2694579732e+00    0.2021375    0.1145396 -28.76 0.0005518173    1.680    0.405
       351  -8.0030    188.5682    123.8233   6.9981517419e+01   1.8702442600e+01    0.2178489    0.1382727 -50.39 0.0007450791    1.653    0.395
       352 -10.0178    130.6532    118.2822   8.1988792699e+01   3.2595382482e+01    0.5728891    0.3635689 -66.10  0.001426199    2.116    0.527
       353  -9.8694    133.4479    109.4028   7.8910348175e+01   3.3979001023e+01    0.5988358    0.3069652 -49.38  0.001549148    1.973    0.493
       354  -8.7902     84.3561    123.0394   9.6052137004e+01   4.0105705205e+01    0.3555593    0.2410018  -6.74  0.001487076    2.442    0.590
       355  -8.3081    202.9905    122.4910   6.6827273837e+01   1.5821054628e+01    0.2948201    0.1900885 -49.99 0.0006961807    1.614    0.380
       356  -9.2602    158.6360    121.2153   7.5839473542e+01   2.5881960322e+01    0.5156016    0.2982846 -52.40  0.001561465    1.868    0.465
       357  -7.6570    194.7825    122.0334   6.8295707986e+01   1.7689207279e+01    0.2046026      0.11832 -39.43 0.0004437045    1.628    0.386
       358  -8.6863    171.9547    121.5627   7.2919555803e+01   2.2842072853e+01    0.2882178    0.2085648 -55.84  0.000551233    1.511    0.338
       359  -8.6885     99.8273    120.2864   9.0941111169e+01   3.8149892160e+01    0.4641486    0.2653457  12.08   0.00147835    3.943    0.746
       360  -9.8338     71.3689    119.8558   9.9197602371e+01   4.2853096031e+01     0.482006    0.2951291 -72.67   0.00144621    1.854    0.460
       361  -9.9869    141.6176    118.5580   7.9259320690e+01   3.0195883224e+01    0.4919921     0.329155 -72.22  0.001205405    2.226    0.551
       362  -9.8137      3.0722    117.5755   1.1916625827e+02   5.0224090280e+01    0.4767562    0.2320116  74.63  0.002007148    2.581    0.612
       363  -8.0818    231.5551    117.7794   6.0712010742e+01   1.0721531814e+01    0.2067385    0.1187806 -46.48 0.0009329449    1.682    0.406
       364  -9.8491    109.4652    114.3931   8.6737465227e+01   3.7752851634e+01    0.5752136    0.3780668 -80.34  0.001489813    2.500    0.600
       365  -9.1572    109.5090    107.5054   8.4918366271e+01   3.9334037260e+01    0.4140532       0.2833  -5.06  0.001647204    2.379    0.580
       366  -8.2147    185.7002    116.1272   6.8627669046e+01   2.0853681856e+01    0.2497917    0.1819458 -55.08 0.0006356385    1.486    0.327
       367  -9.2947    249.6976    114.2616   5.7141444951e+01   7.7879050378e+00    0.4451669    0.2110863 -53.76  0.001752021    2.799    0.643
       368 -10.0693    249.1704    107.7511   5.5748048365e+01   8.9551041264e+00    0.4308436    0.2960293 -27.87  0.002289049    1.369    0.270
       369 -10.0686    248.7279    103.0104   5.4735112299e+01   9.8138534852e+00    0.3315139    0.2835566 -49.61   0.00198771    1.116    0.104
       370  -7.9898    193.0379    115.2975   6.6952486288e+01   1.9372825630e+01    0.2050247     0.195219 -61.69 0.0004594117    1.098    0.089
       371 -10.1887     92.8845    112.6019   9.1079691012e+01   4.1203113107e+01    0.5334826    0.3668669 -73.80   0.00132973    1.838    0.456
       372 -10.0037     78.9181    112.3013   9.5208475077e+01   4.3565555244e+01    0.6024194    0.3775982 -81.04  0.001922121    2.405    0.584
       373  -8.7166     78.7057    105.0514   9.3506970649e+01   4.5331791811e+01    0.3079168     0.243302   3.35   0.00111217    1.566    0.362
       374  -8.0794    167.2329    114.2170   7.2065100944e+01   2.5415245327e+01    0.2175965    0.1818643 -67.87 0.0005872201    1.362    0.266
       375 -10.2468    121.9857    112.1141   8.2678883588e+01   3.5788688329e+01    0.5794289    0.3332837 -36.58  0.001021521    1.862    0.463
       376 -10.0441     14.3492    111.3689   1.1504479026e+02   5.0976482048e+01    0.4234129    0.2313108  75.77  0.001704718    2.382    0.580
       377  -8.2187    174.8185    112.1101   6.9858704041e+01   2.4116145486e+01    0.2399985    0.2028563 -62.50 0.0005071606    1.288    0.224
       378  -8.9038    159.2294    111.9466   7.3278794368e+01   2.7701842088e+01    0.2822969    0.2444353 -63.06 0.0004986043    1.242    0.195
       379 -10.0694     66.3567    110.8232   9.8743992254e+01   4.5761535827e+01    0.4495845    0.3144309 -84.72  0.001476265    1.810    0.448
       380  -7.9816    149.6522    110.2020   7.5071026720e+01   3.0232023975e+01    0.2233024    0.1447859 -33.85  0.000409925    1.609    0.379
       381  -8.9187     58.7265    115.5942   1.0213888960e+02   4.5607473241e+01    0.3252812    0.2076513 -12.76   0.00126659    2.525    0.604
       382  -8.5030     43.3203    109.3886   1.0569892709e+02   4.8919096069e+01    0.2300334    0.1375502  17.61  0.001058865    2.150    0.535
       383  -8.2130    189.1655    107.9706   6.5837147479e+01   2.1652090792e+01    0.2362122    0.1974646 -62.36 0.0005518278    1.300    0.231
       384  -9.0537    108.3799     92.3967   8.1001427525e+01   4.2925474511e+01    0.5181704    0.2738592  27.22  0.001865724    2.724    0.633
       385 -10.7427    118.9052    105.2635   8.1671876068e+01   3.7961638884e+01    0.7358173    0.5233071 -82.28  0.003039023    2.165    0.538
       386 -10.3505    108.8763     98.8393   8.2713873857e+01   4.1413032271e+01    0.6525887     0.446626  78.96  0.001848772    2.510    0.602
       387  -9.2773    139.7550    104.6133   7.5983171045e+01   3.3634840749e+01    0.3755214    0.2872728 -73.09 0.0008054274    1.673    0.402
       388 -10.6043     45.6558    102.4556   1.0352951228e+02   5.0344554541e+01    0.7456046    0.4333086  74.18   0.00301453    3.131    0.681
       389 -10.5694     22.8704    102.8119   1.1102429251e+02   5.2396324521e+01    0.6930771    0.3784396  77.20  0.002721188    2.830    0.647
       390  -8.7663    166.6932    104.2664   6.9530081614e+01   2.7559650064e+01    0.3312464    0.2011339 -45.81 0.0006171617    1.622    0.384
       391  -9.5090    150.6175    103.3233   7.2958797389e+01   3.1457587264e+01    0.4596045    0.2930218 -61.18  0.001172568    2.010    0.502
       392  -8.8987     93.8294    104.5048   8.8718154444e+01   4.2940670408e+01    0.4023918    0.2510332   6.13  0.001479265    2.994    0.666
       393  -9.9828    128.4220    101.7625   7.8119033259e+01   3.6729197308e+01    0.4597268    0.2716248 -48.78 0.0009897903    1.691    0.409
       394  -8.9333      6.7533    103.0769   1.1618772797e+02   5.3444770667e+01    0.2085871    0.1530529  67.37  0.001101121    1.565    0.361
       395  -7.7187    175.5408    102.4694   6.7146283459e+01   2.5857911559e+01    0.1550649    0.1490834 -35.53 9.553307e-05    1.012    0.012
       396  -8.4419    159.8105    101.1597   7.0217709122e+01   2.9781905398e+01    0.2411347    0.2086582 -63.78   0.00047009    1.245    0.196
       397  -9.4397     82.1383     99.9445   9.1114026837e+01   4.5984480463e+01    0.4013987    0.2905506 -84.31 0.0009463731    1.967    0.492
       398  -9.2711     95.0579     97.0374   8.6312732431e+01   4.4432686981e+01    0.3269804    0.2309674 -60.21 0.0005463699    1.534    0.348
       399 -10.2727     63.7457     95.7520   9.5978767464e+01   4.9715590701e+01    0.5914101    0.3880858 -89.55  0.001803262    2.559    0.609
       400 -10.2326    249.4665     95.0309   5.2821115529e+01   1.0959252005e+01    0.5357791    0.1090887 -40.46  0.001648257    3.810    0.738
       401  -8.4757    164.8626     93.8832   6.7065191897e+01   3.0036697269e+01    0.2948632    0.2020992 -45.29 0.0006808573    1.434    0.303
       402  -9.3095    139.0526     92.4665   7.2699893822e+01   3.6328838996e+01    0.3909991    0.2960297 -75.24 0.0008895359    1.768    0.434
       403  -8.9650     45.7502     92.8474   1.0134928486e+02   5.2618338923e+01    0.3990479    0.2232915  -2.21   0.00165928    3.055    0.673
       404  -8.3803    150.8840     95.7330   7.0762102744e+01   3.2948607384e+01    0.2718109    0.1760965   8.00 0.0009530503    2.881    0.653
       405 -10.3736    123.7625     91.4019   7.6377345124e+01   3.9940394986e+01    0.5827472     0.455487  31.68  0.001407805    1.376    0.273
       406  -9.3653      5.6271     92.4061   1.1493965767e+02   5.6015515327e+01    0.3195695    0.1724612  60.77  0.001074398    2.630    0.620
       407  -8.0914    157.6377     91.7996   6.8077557525e+01   3.2148481332e+01    0.2235729    0.1399515 -48.06 0.0004621734    1.628    0.386
       408  -9.7294     34.7134     89.6546   1.0444234464e+02   5.4494828068e+01    0.5251051     0.273837 -78.35  0.002119242    2.669    0.625
       409  -9.2266     22.9355     90.2380   1.0866695646e+02   5.5370240240e+01     0.317252    0.2622658 -25.17  0.001372595    1.317    0.241
       410  -7.9134    150.9761     89.0042   6.8800391689e+01   3.4262403614e+01    0.2456472    0.1870865 -70.34 0.0005616155    1.648    0.393
       411 -10.2986     86.7809     85.6527   8.5615095042e+01   4.8429899234e+01    0.8222911    0.4744934 -42.81  0.001698296    1.617    0.381
       412  -8.8751     66.9671     87.1111   9.2599936050e+01   5.1253206729e+01    0.6307396    0.2783732  18.14  0.001957016    4.708    0.788
       413  -8.4098    176.5307     93.3584   6.4464121441e+01   2.7373570578e+01    0.2830251     0.142455 -43.02 0.0005982322    1.916    0.478
       414  -9.8716     48.3364     83.8767   9.8226045131e+01   5.4402522756e+01    0.5703154    0.3608071 -77.64  0.002215878    2.226    0.551
       415  -9.0427    127.3377     84.0450   7.3200993283e+01   4.0662510647e+01    0.5111291     0.254932  28.20  0.001604649    3.509    0.715
       416 -10.0808    104.7906     82.5428   7.9083209388e+01   4.5729951617e+01    0.7093709     0.355411 -49.79  0.002009063    2.090    0.522
       417  -8.2156    157.9282     84.1172   6.5791543111e+01   3.3550924658e+01    0.2340279    0.2039318 -69.50 0.0004284463    1.258    0.205
       418  -9.1581    140.7448     83.0026   6.9465085762e+01   3.7819294459e+01    0.3821553    0.2246809 -53.53 0.0009059689    1.981    0.495
       419  -7.8681    185.4653     82.5104   5.9744008851e+01   2.7223493800e+01     0.151779    0.1436631 -55.34 0.0003840005    1.018    0.018
       420  -9.1517     74.6002     79.8453   8.7892484770e+01   5.1710324539e+01    0.5814405    0.2199851 -49.47  0.002156769    2.461    0.594
       421  -8.5466     36.3424     82.3138   1.0215081163e+02   5.6035357678e+01    0.1410409   0.08541884 -32.96 0.0007047268    1.706    0.414
       422  -9.6236     24.5062     80.3938   1.0602366244e+02   5.7522495434e+01    0.4590634     0.265784 -81.95  0.001527385    2.307    0.566
       423  -9.4315      9.7233     80.9497   1.1152178827e+02   5.8424171091e+01    0.3199966    0.1938571  64.52  0.001459783    2.430    0.588
       424  -8.6002    150.3132     80.8043   6.6530507913e+01   3.5988017954e+01     0.296503    0.2226075 -61.52 0.0007869635    1.550    0.355
       425  -9.1032    119.3234     80.3334   7.4219324802e+01   4.3158227143e+01    0.3373783    0.2507382 -57.87 0.0008895007    1.549    0.354
       426  -8.5351    200.6427     79.3510   5.6227601163e+01   2.4163291464e+01    0.2906703    0.1828536 -11.93  0.001165617    2.419    0.587
       427  -7.4233    184.2757     78.3391   5.8813245981e+01   2.8238908691e+01    0.1495681    0.1195072   8.21 0.0003472199    1.613    0.380
       428  -8.2366    157.5013     76.7346   6.3706511023e+01   3.5012370118e+01     0.215561    0.1404828 -49.16 0.0009309102    1.603    0.376
       429  -9.4196    128.0332     75.4651   7.0344892884e+01   4.2176161694e+01    0.3614247    0.2755828 -63.55 0.0007679762    1.609    0.379
       430  -9.8971     63.4675     73.9062   8.9963427464e+01   5.4656994946e+01    0.5994845    0.2552825 -57.98  0.002209282    2.920    0.658
       431  -8.6454     63.9727     64.3267   8.6709724417e+01   5.6569796672e+01    0.5055931    0.2212114 -26.88   0.00160254    4.197    0.762
       432  -8.1236    166.8531     79.6636   6.2585421064e+01   3.2222058573e+01    0.2512196    0.2037126 -26.29 0.0002916233    1.289    0.224
       433  -8.6939    140.3676     75.4467   6.7241792002e+01   3.9335379505e+01    0.2622089    0.1746699 -55.09 0.0006761703    1.739    0.425
       434  -8.4896    163.5045     73.5064   6.1476379095e+01   3.4128496714e+01    0.2969829    0.1466505 -37.49 0.0007904739    1.978    0.494
       435  -8.8052    115.7035     73.0796   7.2911303293e+01   4.5352532614e+01    0.2943426    0.1943262 -48.41 0.0007326842    1.597    0.374
       436  -9.6477     82.3905     72.7101   8.3025759055e+01   5.1924793743e+01    0.3865231    0.2882797 -70.62 0.0008465305    1.904    0.475
       437  -8.1168    175.4162     72.7309   5.8889636538e+01   3.1354138322e+01    0.1997752    0.1462347 -24.24 0.0003411181    1.495    0.331
       438  -9.1434    106.0693     71.9064   7.5299804676e+01   4.7603357121e+01    0.3181001     0.234288 -57.23 0.0007209955    1.605    0.377
       439  -9.6670     95.2634     69.9486   7.7943368805e+01   5.0129210293e+01    0.8093778    0.2793228 -41.46  0.002617379    2.780    0.640
       440  -9.2407     97.6146     60.5965   7.4007636487e+01   5.1425897877e+01    0.3097478     0.287711 -74.14 0.0009100505    1.324    0.244
       441  -8.2444     42.5079     72.5101   9.7287955517e+01   5.7593455369e+01    0.2357671    0.1223349 -65.46 0.0008148826    2.334    0.572
       442  -9.0366     29.0842     70.5609   1.0190532570e+02   5.9342378197e+01    0.4013715    0.1971647 -19.13   0.00168574    3.121    0.680
       443  -9.5727     51.4039     69.5547   9.3060839903e+01   5.7193330090e+01    0.4440473    0.2519133 -66.02   0.00149282    2.438    0.590
       444  -7.7419    157.2892     69.7072   6.1641157146e+01   3.6302615813e+01    0.1512523    0.1176538 -71.50 0.0002380894    1.547    0.354
       445  -8.7184    147.1042     68.3810   6.3465837560e+01   3.8999249391e+01    0.2875547    0.2118382 -45.17 0.0006045895    1.379    0.275
       446  -8.4899    138.7074     66.3786   6.4782112367e+01   4.1351769803e+01    0.2720473    0.1745952 -46.94 0.0006574357    1.643    0.392
       447  -8.8924    121.6553     66.1415   6.9003774492e+01   4.5328622468e+01    0.3294145    0.2350222 -59.57 0.0009594641    1.766    0.434
       448  -8.9416     83.7090     65.3113   8.0118738230e+01   5.3166476286e+01     0.471026    0.2690341   1.12  0.001541598    4.103    0.756
       449  -8.9730    110.0374     63.7258   7.1400283204e+01   4.8301074727e+01    0.3101088    0.2083187 -47.70  0.000684893    1.603    0.376
       450  -8.8337     37.0260     64.3913   9.7064352531e+01   5.9918854259e+01    0.2378321    0.1722889 -66.93 0.0007184623    1.600    0.375
       451  -8.0313    157.9858     61.9692   5.9139285106e+01   3.7428222485e+01    0.1766221    0.1732799 -47.83 0.0003547952    1.023    0.022
       452  -8.9516     16.7417     70.3202   1.0663878877e+02   6.0365851313e+01    0.2288414    0.1812734  81.80 0.0008475512    1.649    0.394
       453  -9.6254     73.3214     59.4863   8.1669535251e+01   5.6059963110e+01    0.3913081     0.230007 -50.28  0.001030009    1.843    0.457
       454  -7.9005    163.3348     65.6990   5.9187065948e+01   3.5500366657e+01    0.1559052     0.116196 -73.38 0.0007035108    1.658    0.397
       455  -8.0045    147.1839     59.0392   6.0505465485e+01   4.0545277513e+01    0.2027688    0.1143343 -33.02 0.0006286511    1.804    0.446
       456  -8.1794    130.8690     58.0921   6.3965713675e+01   4.4598916710e+01      0.22689    0.1984108 -67.90 0.0005254321    1.321    0.243
       457  -9.8633     23.3762     56.3096   1.0025357518e+02   6.2872745823e+01    0.4036405     0.270394 -88.73  0.002029718    2.705    0.630
       458  -9.5380      7.4140     57.2352   1.0723523355e+02   6.3789873311e+01     0.267382    0.1909949 -79.43 0.0009384356    1.661    0.398
       459  -9.4115    119.2325     55.5644   6.6061117702e+01   4.7689145829e+01     0.467581    0.2254722 -48.40   0.00159365    2.536    0.606
       460  -7.3451    193.6399     56.7216   5.1269305266e+01   2.9469091875e+01    0.1452001    0.1097145  31.42 0.0007011166    1.665    0.399
       461  -8.1894    139.9795     56.0103   6.1131364585e+01   4.2772527642e+01    0.2325709    0.1768602 -69.32 0.0004676173    1.665    0.399
       462  -9.2058     54.1852     55.1766   8.7276401890e+01   5.9753310137e+01    0.3002393    0.2083949 -58.25 0.0009457792    1.762    0.433
       463  -8.7655     44.0811     55.4830   9.1403763351e+01   6.0970675969e+01    0.2803662    0.1683752 -55.43  0.001241182    1.760    0.432
       464  -8.5277    105.9615     53.4587   6.8977980713e+01   5.0942867157e+01    0.2655324    0.1957928 -51.02 0.0007312068    1.581    0.368
       465  -9.4938     92.3977     50.8081   7.2099894934e+01   5.4158935272e+01    0.3805872    0.2322571 -47.16  0.001133989    1.862    0.463
       466  -8.8025    144.8426     49.0622   5.7797267237e+01   4.2659836331e+01     0.244261    0.1547277 -57.82  0.000542915    2.001    0.500
       467  -8.0455    129.5848     48.9951   6.1199946779e+01   4.6335930892e+01     0.216292    0.1405756 -32.96 0.0004148002    1.564    0.361
       468  -8.9206    120.9172     47.6672   6.2865603203e+01   4.8552245856e+01    0.2549295    0.2036879 -34.90 0.0004032138    1.280    0.219
       469  -8.3068    112.3041     47.0339   6.4890044772e+01   5.0590204640e+01    0.1976428    0.1801686 -27.56 0.0005113265    1.123    0.110
       470  -9.0590     82.2281     46.5692   7.3809438565e+01   5.6799536984e+01    0.2556395     0.222829 -71.88  0.000716728    1.626    0.385
       471  -8.2752    156.3400     46.7105   5.4733965669e+01   4.0169579470e+01    0.1496899      0.11077 -73.41 0.0007022964    1.644    0.392
       472  -8.6787     92.7581     42.9476   6.9014069074e+01   5.5347802616e+01    0.3640769    0.1990885 -20.25  0.001567284    2.169    0.539
       473  -8.6552     44.9857     44.6054   8.7138863209e+01   6.2931513169e+01    0.2242354       0.1699 -53.13 0.0006310057    1.547    0.354
       474  -8.7674     16.6312     44.6731   9.9617646341e+01   6.5755209074e+01    0.2216388    0.1649314 -63.14 0.0007750698    1.516    0.340
       475  -8.7754    132.9291     43.4976   5.8542570766e+01   4.6347343709e+01     0.266476    0.1929031 -50.21 0.0006999249    1.558    0.358
       476  -8.8877     58.3490     42.8146   8.1027420368e+01   6.1418333295e+01    0.2707812    0.2083203 -57.09 0.0009756351    1.774    0.436
       477  -9.2167     69.5163     41.5839   7.6310265575e+01   5.9855258054e+01    0.3402079    0.2294818 -52.08  0.001060677    1.947    0.486
       478  -9.6633      5.1073     41.8301   1.0403897717e+02   6.7080664853e+01    0.3642694    0.1970419 -72.84  0.001715538    2.546    0.607
       479  -8.6359    105.9803     41.4650   6.4570149326e+01   5.2807772284e+01     0.260185    0.1880345 -46.06 0.0007102156    1.581    0.368
       480  -7.6557    140.4247     41.4962   5.6233926256e+01   4.4818128025e+01    0.1405564     0.137479  77.99 0.0001162424    1.054    0.051
       481  -8.3603     36.9569     40.9616   8.9191384587e+01   6.4548251571e+01    0.1720377    0.1557608 -75.70 0.0005655736    1.657    0.397
       482  -8.4209     95.5594     38.2942   6.6358848619e+01   5.5471294865e+01    0.2338256    0.1898021 -47.77 0.0007289677    1.464    0.317
       483  -8.3222     80.5330     36.5366   7.0412879145e+01   5.8684141923e+01    0.2227028    0.1185343 -43.06 0.0006599718    2.118    0.528
       484  -9.4572     26.1451     35.4877   9.1977593435e+01   6.6670201082e+01     0.307882    0.2071098 -56.36 0.0009085418    1.767    0.434
       485  -8.3189    132.8709     35.5215   5.5811341476e+01   4.7444415686e+01    0.2768736    0.1710279 -48.54  0.001027659    1.884    0.469
       486  -8.1673    125.9514     35.5551   5.7359368328e+01   4.9088257211e+01    0.2062851    0.1846284 -16.62 0.0005293033    1.156    0.135
       487  -8.6560    111.9876     34.4520   6.0336301676e+01   5.2454441080e+01    0.2977114     0.182793 -38.31  0.001059808    1.733    0.423
       488  -7.7957     88.7681     34.5879   6.6962452900e+01   5.7374838909e+01    0.1783096    0.1295365  57.12   0.00046149    1.615    0.381
       489  -9.1142     48.5901     33.2970   8.1099666531e+01   6.4403591557e+01    0.2741496    0.1883787 -37.16 0.0008601758    1.381    0.276
       490  -8.4551    119.2311     33.2228   5.8089617527e+01   5.0961074030e+01     0.187294    0.1629941 -59.03 0.0004822958    1.355    0.262
       491  -8.8041     60.7180     32.5985   7.5910302372e+01   6.2709153839e+01    0.2297707     0.193521 -37.17 0.0006306188    1.352    0.260
       492  -7.8812    139.2126     31.9267   5.3266663875e+01   4.6363462578e+01    0.1826221    0.1133267 -29.36 0.0008627513    1.688    0.408
       493  -8.9855     72.1956     31.4749   7.1182470527e+01   6.0941608508e+01    0.2281207    0.1984925 -49.81 0.0005290385    1.511    0.338
       494  -8.9709    218.7141    247.6667   8.8861911611e+01  -7.6064149165e+00    0.2991369    0.1455766 -42.43  0.001350148    2.611    0.617
       495  -7.8681     42.0081     29.9901   8.2514541995e+01   6.5815183034e+01    0.1530228    0.1224841 -15.33 0.0004221064    1.017    0.017
       496  -8.9031     81.4328     27.4348   6.6342230896e+01   5.9783450793e+01    0.2755919    0.2110653 -47.06 0.0007911415    1.660    0.397
       497  -8.9260      3.7582     27.7193   1.0005220770e+02   6.9846220269e+01    0.2133265    0.1355746 -57.44 0.0007521501    1.595    0.373
       498  -7.9205    163.1759     26.8228   4.7382137297e+01   4.1044553708e+01     0.183294    0.1541322  37.29  0.000252023    1.283    0.221
       499  -7.9114    109.6715     26.8830   5.8054232046e+01   5.3928238982e+01    0.1914039    0.1173562 -36.84 0.0007077387    1.754    0.430
       500  -8.9111     91.8067     26.0417   6.2564145428e+01   5.7888561666e+01    0.3633241    0.1698173 -36.75  0.001250193    2.270    0.559
       501  -7.6300    145.6916     25.3950   4.9860685136e+01   4.5548893148e+01    0.1485027   0.09999067 -62.84 0.0001725514    1.834    0.455
       502  -8.2581    104.5089     23.0131   5.7857945099e+01   5.5531544092e+01    0.1919396    0.1305183 -23.86 0.0006145508    1.526    0.345
       503  -8.3712     34.7474     23.1623   8.2774671361e+01   6.7795239931e+01    0.1680598    0.1396247  87.91 0.0009491275    2.784    0.641
       504  -8.7243    130.7220     22.3313   5.1655587169e+01   4.9537891463e+01    0.2266497    0.1569199  62.48 0.0006432802    1.368    0.269
       505  -9.0053     63.5240     20.9882   6.9717369454e+01   6.3879499128e+01    0.2717652    0.1981102 -48.59 0.0009285352    1.939    0.484
       506  -8.9597     48.2670     21.8133   7.6150838911e+01   6.6187802568e+01    0.2150166    0.1914835 -22.88 0.0005632724    1.316    0.240
       507  -8.1526     19.9512     21.9373   8.9417578023e+01   6.9588043623e+01     0.155945    0.1458425 -68.53  0.000812315    1.750    0.428
       508  -8.0475    120.7824     21.0728   5.3274874182e+01   5.2035528321e+01    0.1741647    0.1099989 -25.43 0.0008680726    1.680    0.405
       509  -8.8243     74.0458     19.5421   6.5349348042e+01   6.2175723418e+01    0.2322219     0.167579 -39.12 0.0008411409    1.633    0.387
       510  -8.0897    101.5701     29.7555   6.1291408013e+01   5.5360112713e+01    0.1813575    0.1247817 -38.16   0.00081313    1.583    0.368
       511  -8.1541     87.8063     17.7754   6.0272579628e+01   5.9679276315e+01    0.1641517    0.1522911 -41.59 0.0005550227    1.333    0.250
       512  -8.1761     38.6927     18.1804   7.8637764968e+01   6.8031642613e+01    0.1775833    0.1407009 -36.48 0.0009642556    1.465    0.317
       513  -7.8286    112.9234     17.0100   5.3494993233e+01   5.4286150460e+01    0.1606268    0.1426127  39.63 0.0004387407    1.009    0.009
       514  -8.2162     30.0321     16.0758   8.1695767926e+01   6.9417706438e+01    0.1583921    0.1429008 -44.71 0.0009000897    1.664    0.399
       515  -8.1607     97.2049     15.2983   5.6641036793e+01   5.7964017477e+01    0.1926816   0.08929797 -34.61 0.0006064867    2.324    0.570
       516  -8.1264      7.4947     15.5231   9.3157318732e+01   7.1700241441e+01    0.1140787   0.08533811 -24.72 0.0001318105    1.034    0.033
       517  -7.8918     16.9988     14.4674   8.7537277895e+01   7.1050984071e+01     0.154084     0.101694  18.98 0.0005499342    1.545    0.353
       518  -9.1047    211.1058    246.8274   9.0096567311e+01  -6.4212344702e+00    0.2569802    0.1853608 -57.00  0.001167416    2.486    0.598
       519  -7.6517     83.4888     11.4809   5.8803192901e+01   6.1221582278e+01    0.1274156    0.1122047  23.23 9.437386e-05    1.060    0.057
       520  -9.0296    175.5888    247.4791   9.6760322819e+01  -1.2279698079e+00    0.2720995    0.2310454 -89.64  0.001061963    1.820    0.451
       521  -8.5456    140.6675    248.6742   1.0355775272e+02   3.9644192637e+00    0.1883583    0.1491024 -26.93 0.0006857871    1.637    0.389
       522  -8.8346    132.2911    247.9680   1.0507211330e+02   5.3609936109e+00    0.2215308    0.1692737  79.44 0.0006801354    1.639    0.390
       523  -8.3218    113.1248    248.7181   1.0881008676e+02   8.1260992556e+00    0.1912158    0.1493075  87.61 0.0007819785    1.461    0.315
       524  -9.2982    103.6678    246.6041   1.1037965870e+02   9.8807010857e+00    0.4081101    0.2135095 -80.79  0.001982049    2.949    0.661
       525  -9.0318    242.8759    247.0125   8.4545647510e+01  -1.0790542662e+01    0.3052631    0.1459429 -30.64  0.001548593    2.107    0.525
       526  -8.8675    232.7292    247.2732   8.6332982281e+01  -9.4820110096e+00    0.2044666    0.1736099 -20.93 0.0007967002    1.428    0.300
       527  -8.7892    205.5024    247.4915   9.1214547199e+01  -5.6988952618e+00    0.2077581    0.1332948   8.77 0.0007598111    1.635    0.389
       528  -9.0638    156.2510    247.5501   1.0043829116e+02   1.7371520297e+00    0.2631881    0.1987119 -45.33  0.001141806    1.600    0.375
       529  -9.9857    223.9274    244.1327   8.7377421209e+01  -7.8935789778e+00    0.4131107    0.2283378 -44.66  0.002290139    2.518    0.603
       530  -9.0528    147.0277    245.9182   1.0199001722e+02   3.4195080000e+00    0.2942995    0.2046976  72.05  0.001361653    2.084    0.520
