#   1 NUMBER                 Running object number                                     
#   2 MAG_AUTO               Kron-like elliptical aperture magnitude                    [mag]
#   3 X_IMAGE                Object position along x                                    [pixel]
#   4 Y_IMAGE                Object position along y                                    [pixel]
#   5 X_WORLD                Barycenter position along world x axis                     [deg]
#   6 Y_WORLD                Barycenter position along world y axis                     [deg]
#   7 A_WORLD                Profile RMS along major axis (world units)                 [deg]
#   8 B_WORLD                Profile RMS along minor axis (world units)                 [deg]
#   9 THETA_WORLD            Position angle (CCW/world-x)                               [deg]
#  10 FWHM_WORLD             FWHM assuming a gaussian core                              [deg]
#  11 ELONGATION             A_IMAGE/B_IMAGE                                           
#  12 ELLIPTICITY            1 - B_IMAGE/A_IMAGE                                       
         1 -12.0148     42.2132     33.9555   3.5546240393e+01   6.8557360908e+01    0.2852181    0.2259313 -18.43 0.0006384985    1.345    0.256
         2 -10.9641    147.2490     11.9584   3.5587785091e+02   4.6292749991e+01     0.179223    0.1619428 -69.14 0.0002963793    1.089    0.081
         3 -11.2980     92.2650      8.1507   2.9063437408e+00   6.0888980303e+01    0.2016654    0.1775058  41.96 0.0009550162    1.184    0.155
         4 -11.9191     72.6462      6.9409   7.2783444852e+00   6.5936809067e+01    0.1804888    0.1765953  64.56 0.0006053237    1.098    0.089
         5 -11.0946     78.4864      6.5248   5.4153775473e+00   6.4533637983e+01    0.1380733    0.1205701  56.60 -9.75502e-06    1.034    0.033
         6 -11.8081     36.7628      4.7065   2.1011181821e+01   7.4218920376e+01    0.2116691    0.1995051  39.42 0.0002946801    1.166    0.142
         7 -11.0958     25.1536      1.9011   2.6611599746e+01   7.6730114970e+01    0.1777963    0.1641423  28.24 0.0006388809    1.183    0.155
         8 -10.6001    113.8937      1.6233   3.5629809044e+02   5.5850505434e+01    0.1992754    0.1133307 -89.86 0.0009363401    1.722    0.419
         9 -10.2185      4.2952      1.3153   4.5923615611e+01   7.9731020098e+01    0.1263454   0.07963546 -18.41  0.000229623    1.603    0.376
        10 -11.5277     99.3279    246.8994   5.9869181698e+01   1.0692071465e+01    0.2245112    0.1458178  23.20 0.0005030383    1.292    0.226
        11 -11.9109    238.0110    250.6346   3.4096906299e+01  -5.0024943710e+00    0.2315897   0.07639829  26.66  0.001145978    2.697    0.629
        12 -11.2526    171.2342    250.0413   4.5462741684e+01   1.7761744044e+00      0.19649    0.1209892   5.49 0.0009441801    1.495    0.331
        13 -12.6983    139.7307    248.1910   5.1442565556e+01   5.6637415667e+00     0.405636    0.3255076 -10.67  0.002875958    1.281    0.219
        14 -11.9367    143.3412    242.6631   5.0047258947e+01   6.0651856734e+00    0.2765504    0.2264189 -13.03  0.001947493    1.258    0.205
        15 -11.1751    125.0128    249.4889   5.4634358003e+01   7.2121543184e+00    0.1664463    0.1481771   4.58  0.000617991    1.188    0.158
        16 -11.6149    114.7728    249.4332   5.6789901165e+01   8.4387158010e+00    0.3066216    0.1894395  51.93  0.001781138    1.936    0.483
        17 -11.0650    106.2337    250.6470   5.8733843360e+01   9.2553454373e+00    0.2384313    0.0834583  32.14  0.001109988    2.114    0.527
        18 -13.7742     34.2633    247.4095   7.4258297049e+01   1.7797448492e+01      1.65892    0.3444223  24.09   0.00558635    4.712    0.788
        19 -14.3465     30.4947    218.6293   7.3694434137e+01   2.3867341287e+01     1.404648    0.8702447  48.31  0.008198477    1.298    0.230
        20 -13.6275     36.8182    228.9339   7.2747080408e+01   2.1105026795e+01    0.7537588    0.3304032 -51.44  0.003510789    3.150    0.683
        21 -14.2188      4.9373    184.6829   7.8654581954e+01   3.3812914889e+01    0.9536096    0.7519498 -30.45  0.004216203    1.683    0.406
        22 -12.9364     20.2754    203.4502   7.5454635361e+01   2.8158314862e+01    0.3652989    0.2757424 -16.30 0.0002807365    1.842    0.457
        23 -14.1808     21.6103    196.7467   7.4764057327e+01   2.9562745107e+01    0.8529146    0.6348342 -30.13  0.004873331    1.844    0.458
        24 -15.0136      6.6802    164.1397   7.7260081158e+01   3.8737624871e+01     1.371879     1.085271 -72.35  0.008131821    1.299    0.230
        25 -14.6180     15.8186    167.3830   7.4704886879e+01   3.7198152079e+01     1.320294    0.6006992  52.58  0.003466065    1.972    0.493
        26 -13.3608     28.1840    239.5220   7.5245183243e+01   1.9879068280e+01    0.7922068    0.2207461  37.71  0.003642529    2.275    0.561
        27 -13.9447     24.9585    187.0309   7.3299867277e+01   3.1533549059e+01    0.6528217    0.4771538  11.35  0.002920717    1.578    0.366
        28 -13.7713     31.7686    182.7264   7.1107204635e+01   3.1906618635e+01     1.311508     0.572433  53.67  0.004362528    2.143    0.533
        29 -13.4677     22.9412    242.3190   7.6522281246e+01   1.9844133701e+01    0.8309832    0.2469586  24.87   0.00359446    2.886    0.654
        30 -14.3543      4.6751    201.5743   7.9327778147e+01   2.9922011542e+01    0.8189274    0.6373734  32.74  0.005291828    1.234    0.190
        31 -12.7158     13.5500    194.8147   7.6785986640e+01   3.0729010001e+01    0.2873949    0.2435122  53.48 0.0003959915    1.050    0.048
        32 -14.0311     11.1528    189.6249   7.7188227703e+01   3.2144361455e+01     1.029307    0.5170518  -4.66   0.00424334    3.463    0.711
        33 -15.0653     15.1094    228.3282   7.7755527881e+01   2.3311180401e+01     1.349105    0.6651914  84.54  0.007342986    2.105    0.525
        34 -15.3665      4.7864    247.2185   8.0578087109e+01   2.0546171813e+01     1.023496    0.6415297  52.51   0.00598093    1.193    0.162
        35 -13.3852     17.6288    237.6403   7.7521260539e+01   2.1235496644e+01    0.2343963    0.1756733  34.31 0.0007242913    1.175    0.149
        36 -14.5823     10.5356    239.0316   7.9129149626e+01   2.1600460598e+01    0.5197268    0.3886468 -35.78  0.003057554    2.006    0.501
        37 -14.4939      7.3273    235.2348   7.9724543738e+01   2.2616932086e+01    0.4926117    0.3386459  43.09  0.002515886    1.103    0.093
        38 -10.8922     94.5212    243.2842   6.0586478551e+01   1.1881628302e+01    0.1864887    0.1254158 -73.40  0.001123513    2.006    0.501
        39 -11.4374    222.5817    242.8806   3.5457546826e+01  -2.7089414021e+00    0.1535072    0.1192314  12.86 0.0006659426    1.336    0.251
        40 -11.5930    127.2591    242.7497   5.3415044842e+01   8.0012354169e+00     0.247142     0.145068  44.87 0.0009331187    1.805    0.446
        41 -12.2090    117.3524    241.4862   5.5397345506e+01   9.4167332333e+00    0.2316899    0.1823345  17.36 0.0007025312    1.100    0.091
        42 -12.2083     67.5492    240.4316   6.6402984879e+01   1.5547377626e+01    0.4634039    0.1625774  36.79  0.001834251    2.051    0.513
        43 -10.2619    180.5836    240.4528   4.2449225129e+01   2.0177307265e+00    0.1152382   0.08593846   4.68 -7.10922e-06    1.051    0.049
        44 -10.7041    171.4863    240.4590   4.4171810385e+01   3.0566627496e+00    0.1164643   0.08961166  10.41 4.116659e-05    1.016    0.016
        45 -14.7410      3.1928    216.4229   8.0141253322e+01   2.6800581213e+01      1.39633    0.4274341 -79.65  0.006055627    3.296    0.697
        46 -11.3176    209.6681    236.5255   3.6706740053e+01  -6.4324494814e-01    0.3292446     0.161425  34.01  0.001973873    2.100    0.524
        47 -11.4149    137.6711    236.1491   5.0430883638e+01   7.7718213090e+00    0.1965899    0.1389776  33.67  0.000551051    1.268    0.211
        48 -12.7705     71.2803    233.5876   6.5008116647e+01   1.6399429027e+01    0.5650445    0.3378762 -30.66  0.002860823    2.613    0.617
        49 -11.2269     47.8432    235.8437   7.0592047978e+01   1.8589536165e+01    0.1737055    0.1528101  26.43 0.0005867481    1.207    0.171
        50 -12.2859    165.6129    234.3346   4.4492176035e+01   4.6247688343e+00    0.2273945    0.1723204  22.95 0.0002167431    1.164    0.141
        51 -12.1668    158.5477    233.5504   4.5792799032e+01   5.5975571610e+00    0.2213137    0.1820657   9.20 0.0005730043    1.058    0.055
        52 -11.7905     56.7937    233.6473   6.8378342036e+01   1.8040181250e+01    0.3246945     0.282124   8.69  0.001145151    1.324    0.245
        53 -11.0149     56.9666    229.6838   6.8055335275e+01   1.8795662913e+01    0.2878315    0.1169732  17.03   0.00113209    3.186    0.686
        54 -10.9815     61.6630    231.3192   6.7072537154e+01   1.7944954871e+01    0.2511136    0.1194541  45.81  0.000926271    1.760    0.432
        55 -11.0596     61.6773    228.3259   6.6840747836e+01   1.8530185625e+01    0.1957214    0.1186846 -76.63 0.0008455503    1.965    0.491
        56 -10.9385    243.2494    233.2306   3.0846575083e+01  -3.5712966350e+00    0.1237346   0.09803907  -8.61 0.0004021593    1.323    0.244
        57 -10.9428    111.3058    233.6445   5.5865419737e+01   1.1496826655e+01    0.1257184   0.08425348  53.03  0.000704113    1.718    0.418
        58 -10.8574    101.0095    234.0000   5.8218126512e+01   1.2722669609e+01    0.2170898   0.05908049  29.43 0.0008062928    2.969    0.663
        59 -11.4755     26.3269    232.3336   7.5347015198e+01   2.1463985086e+01    0.3194719    0.1624067 -62.63  0.001011508    2.369    0.578
        60 -11.9503    181.1788    230.2982   4.0930060958e+01   3.3527759972e+00    0.3419158    0.2362242  61.94  0.001667676    3.988    0.749
        61 -12.4052    149.5321    228.7695   4.6997836095e+01   7.4580363699e+00    0.2721639    0.2501231  46.38  0.001016738    1.424    0.298
        62 -12.3203    148.0057    224.4382   4.6732826163e+01   8.3487988289e+00    0.2179172    0.1942218 -41.11 0.0004685488    1.377    0.274
        63 -11.2480    216.6355    231.1651   3.4759759824e+01  -7.0566241632e-01    0.1679022    0.1218113  17.21  0.000605503    1.275    0.216
        64 -12.7279    194.3841    228.0216   3.8162504300e+01   2.1357003596e+00    0.2840488    0.1912639  10.14 0.0008246666    1.238    0.192
        65 -11.0365    138.5329    227.8098   4.9193731009e+01   9.0163286624e+00     0.236505    0.1283922 -63.63   0.00113395    3.052    0.672
        66 -10.7865    211.3816    228.2284   3.5212418048e+01   2.2098117513e-01    0.1277635   0.09313684 -30.47 0.0001761602    1.451    0.311
        67 -11.3119    174.1663    228.1462   4.1964416722e+01   4.4987667845e+00    0.1450798    0.1288475  18.55 0.0002679883    1.306    0.234
        68 -11.3141    127.6253    227.7395   5.1552776248e+01   1.0434169800e+01    0.1465874    0.1236277 -67.35 0.0009436646    1.593    0.372
        69 -13.3053    116.9567    225.4230   5.3647798828e+01   1.2223144209e+01    0.5891276    0.3895202  74.58  0.001857377    2.673    0.626
        70 -11.8323    116.0413    215.0144   5.2568756220e+01   1.4248391928e+01    0.2388583    0.1830666 -35.66            0    1.478    0.323
        71 -12.2940    119.3489    213.7035   5.1631162124e+01   1.4043810894e+01    0.3317614    0.1497586  45.70   0.00143694    2.399    0.583
        72 -12.6113    105.8152    226.0592   5.6262845438e+01   1.3551005989e+01    0.3198138    0.1909649  14.23  0.001646959    1.801    0.445
        73 -12.3530     80.8494    226.4460   6.2136522730e+01   1.6623203580e+01    0.2875454    0.2335862  57.41  0.001479082    1.253    0.202
        74 -11.7047     92.1635    224.1573   5.9236600993e+01   1.5652459444e+01    0.2771601    0.2060754 -19.95  0.001274422    1.708    0.415
        75 -12.8680    161.0482    222.8574   4.3814472122e+01   6.9279593592e+00    0.3537932     0.189246  34.56  0.001336924    1.699    0.411
        76 -11.3829    101.0515    224.2009   5.7158079363e+01   1.4508320179e+01    0.1925168    0.1530813  16.33 0.0004981932    1.192    0.161
        77 -13.5964     49.9494    217.6422   6.8872835678e+01   2.2031427754e+01    0.8885975    0.4466876 -79.62  0.004410519    2.310    0.567
        78 -12.9700     36.6737    195.9362   7.0715577927e+01   2.8265684638e+01    0.7718905    0.2931153  30.67  0.003308729    2.169    0.539
        79 -11.8071     45.9837    210.6332   6.9353402220e+01   2.3966339853e+01    0.2894779    0.2152154 -75.37  0.001025219    1.489    0.328
        80 -12.1830     41.9515    211.3158   7.0418562866e+01   2.4254704273e+01    0.2680708    0.2466143 -23.27 0.0003367571    1.375    0.273
        81 -12.0533     32.9374    209.2596   7.2558798514e+01   2.5642138911e+01    0.2728868     0.246151  69.11 0.0006504515    1.143    0.125
        82 -13.2491     36.4406    205.7979   7.1450146624e+01   2.6049278722e+01     0.548889    0.3559862  73.50  0.001545853    1.539    0.350
        83 -12.4924     34.0437    200.1051   7.1697933297e+01   2.7579416087e+01    0.2921285    0.2231276  26.68  0.000446958    1.281    0.219
        84 -10.5448    211.5435    223.5202   3.4483975879e+01   8.1066721305e-01    0.1115951   0.08579796  -1.98 7.923901e-05    1.051    0.049
        85 -13.5924    128.5481    215.9721   4.9828191259e+01   1.2376306861e+01    0.4944506    0.3763009  76.69  0.001452324    2.062    0.515
        86 -13.0649    124.7089    222.0262   5.1482148743e+01   1.1809720000e+01    0.4319665    0.2193968  31.78  0.001419044    1.639    0.390
        87 -12.9485    173.4833    220.2225   4.0951715702e+01   5.7614978479e+00     0.318922     0.206546 -35.85 0.0008319396    1.594    0.373
        88 -12.5456    190.2331    220.2677   3.7772426086e+01   3.7004372226e+00    0.2235437    0.1654554   8.41 0.0003013654    1.107    0.096
        89 -11.5916    193.5373    217.0481   3.6677275080e+01   3.7627374233e+00    0.1990499    0.1288981 -25.73 0.0006021096    1.435    0.303
        90 -11.3903     56.3833    219.7975   6.7455815254e+01   2.0858788826e+01    0.2569617     0.161467 -81.48 0.0008069658    1.842    0.457
        91 -10.8994    197.2353    219.9556   3.6449310869e+01   2.9145951065e+00    0.1577474    0.1210986  -7.20 0.0003705773    1.071    0.066
        92 -12.3938     76.2828    219.2234   6.2548236068e+01   1.8611013858e+01    0.3078308    0.1746947  41.82 0.0003851687    1.480    0.324
        93 -10.8098     80.4492    218.4587   6.1460757724e+01   1.8246856035e+01    0.2027188    0.1285278  49.08 0.0005622287    1.477    0.323
        94 -12.2722    145.4547    216.6506   4.6195349435e+01   9.9778193259e+00    0.3097611    0.2611546  47.79  0.001565592    1.438    0.305
        95 -12.5153    141.5059    213.5351   4.6610808546e+01   1.1046486645e+01    0.3085895    0.2190088 -48.84   0.00155462    1.634    0.388
        96 -11.1498    138.4227    217.3424   4.7818914193e+01   1.0801934247e+01    0.2048281    0.1192964 -43.83 0.0006548027    1.897    0.473
        97 -12.3037     93.1297    217.0073   5.8239011572e+01   1.6915408618e+01     0.428419    0.2159575  38.47  0.001669103    1.657    0.396
        98 -11.8603     66.0170    216.7318   6.4835708835e+01   2.0368405404e+01    0.2445366    0.1829197 -73.24  0.001124116    1.538    0.350
        99 -11.4122     61.8425    215.8713   6.5793960578e+01   2.1042917696e+01    0.3211322    0.1516616  65.13  0.001209694    2.790    0.642
       100 -12.8107     22.4255    215.6944   7.5507163442e+01   2.5270749138e+01    0.3941329    0.2859323 -76.57  0.002173514    1.523    0.343
       101 -10.6362    226.3867    215.8379   3.0857325548e+01   1.8844155441e-01    0.1557271   0.08094094 -23.84 0.0006971729    1.698    0.411
       102 -12.5574    107.8577    213.7129   5.4328975654e+01   1.5603439350e+01    0.3735583    0.2377085 -57.20  0.002020715    1.839    0.456
       103 -11.6992     84.8433    214.2771   5.9958538510e+01   1.8533505946e+01    0.4208259    0.2275531  38.90  0.002116532    1.544    0.352
       104 -11.8355    156.9129    213.8136   4.3356300587e+01   8.9207259233e+00    0.1896231      0.17766   4.61  0.000375336    1.221    0.181
       105 -11.0264     73.5037    212.2373   6.2559360650e+01   2.0390018905e+01    0.2769088     0.150529  15.02  0.001128457    2.179    0.541
       106 -12.6613    161.3129    207.5302   4.1492939882e+01   9.3693163835e+00    0.3225902    0.2683286 -70.71 0.0008089792    1.867    0.464
       107 -10.9948     97.0219    209.3013   5.6407802415e+01   1.7937616217e+01    0.2966479    0.1634282 -75.50  0.001347597    2.642    0.621
       108 -11.9493     54.3597    209.7433   6.7162165775e+01   2.3218746540e+01    0.3582822     0.169206  47.27  0.001499394    1.839    0.456
       109 -11.0875      9.9600    208.9212   7.8272158842e+01   2.7855161077e+01    0.2189636    0.1025612  54.84 0.0008686768    1.740    0.425
       110 -12.1639    180.1390    207.5103   3.7714433539e+01   6.8605839294e+00    0.2458694    0.1909049  23.31 0.0003842332    1.211    0.174
       111 -12.6269     26.6696    206.5923   7.3991427388e+01   2.6852047928e+01    0.3584583    0.2825395 -68.79 0.0009922546    1.448    0.309
       112 -11.3738    246.9340    221.1973   2.8515330487e+01  -2.5447335645e+00     0.130472    0.1034039 -27.98  0.001035996    1.561    0.359
       113 -11.3305    103.8582    205.8130   5.4301783229e+01   1.7708148530e+01    0.2060379     0.173381  38.57  0.001102692    1.088    0.081
       114 -10.8300     89.1811    204.6579   5.7807398435e+01   1.9948896623e+01    0.2883559    0.1902769  63.47   0.00146286    1.814    0.449
       115 -11.8542     86.5858    193.8466   5.7168301749e+01   2.2627092815e+01    0.4089299    0.2943895  27.38  0.001610812    1.282    0.220
       116 -12.5471     91.5271    199.1727   5.6551034058e+01   2.0790527140e+01    0.4320066    0.3457017   6.01  0.001351414    1.379    0.275
       117 -12.8149     91.7843    192.8770   5.5685728819e+01   2.2114785397e+01    0.4415847    0.3265248 -88.18  0.001998078    1.686    0.407
       118 -12.9430     83.0114    201.5926   5.9021547157e+01   2.1424804788e+01    0.6266125    0.4158255  -2.28  0.001959081    2.103    0.525
       119 -12.2811     82.4940    196.6762   5.8583182836e+01   2.2562879714e+01    0.3667178    0.2090236  42.95 0.0009663629    1.566    0.361
       120 -10.2728     62.3452    205.6847   6.4767561475e+01   2.3161140976e+01    0.1469156   0.08296002  53.74 0.0007047857    1.716    0.417
       121 -12.7838    145.3988    200.7873   4.3862937551e+01   1.2766771589e+01    0.4401041    0.3515335  83.63  0.001208497    2.048    0.512
       122 -13.5199    136.9860    198.7273   4.5437703442e+01   1.4362473882e+01    0.4254185    0.3665625 -16.44  0.002614841    1.179    0.151
       123 -11.0331    213.0051    200.9413   3.0687737166e+01   3.6980652343e+00    0.1548383    0.1503809  89.59  0.001130314    1.807    0.447
       124 -13.1359    121.9606    196.8748   4.8678211304e+01   1.6917194302e+01    0.4170706    0.3172355 -43.99  0.002354501    1.436    0.304
       125 -12.8316    172.7559    195.7316   3.7264602075e+01   9.7539317836e+00    0.2442131    0.2229386 -11.21 0.0003523949    1.170    0.145
       126 -12.2160    149.7332    197.4117   4.2378719905e+01   1.2751484668e+01    0.2222015    0.1671567 -58.38 0.0008038718    1.707    0.414
       127 -12.2017    105.4324    195.5490   5.2549861405e+01   1.9594556498e+01    0.2537329    0.1662061  10.11  0.001218498    1.819    0.450
       128 -10.3690     59.2586    198.3734   6.4893148795e+01   2.5158683070e+01    0.1296253   0.09985729 -33.68 0.0006974213    1.653    0.395
       129 -12.6027    192.5749    194.6732   3.3261121592e+01   7.2127075669e+00    0.3138722    0.2309298   1.53 0.0007623959    1.248    0.199
       130 -12.7095    133.1804    191.4772   4.5190595677e+01   1.6313505189e+01    0.3885517     0.265091 -24.03  0.001977735    1.722    0.419
       131 -11.8268    164.7133    191.9829   3.8285905529e+01   1.1538800398e+01    0.2150745    0.1698791  24.04 0.0004630998    1.171    0.146
       132 -10.9069     50.0801    190.2934   6.6624004634e+01   2.8108009885e+01    0.1892911    0.1547726  46.88   0.00034501    1.059    0.056
       133 -12.2221    152.1809    188.4597   4.0378049229e+01   1.4022645959e+01    0.2821632      0.18123   7.52  0.001382996    1.870    0.465
       134 -11.7680    198.0047    188.1194   3.1149071819e+01   7.4996466426e+00    0.1855487    0.1527077  -4.44 0.0003343255    1.018    0.018
       135 -11.7478    186.1672    187.1987   3.3185549372e+01   9.2746427184e+00    0.2086223    0.1701934  -6.51 0.0004418299    1.065    0.061
       136 -12.8795    110.7048    188.7263   5.0244588563e+01   2.0255419922e+01    0.3636818    0.2702131 -76.04  0.001195928    1.726    0.421
       137 -11.3647    227.5066    186.6507   2.5923698561e+01   3.9420452231e+00     0.214535    0.1317016 -18.00  0.001021171    1.462    0.316
       138 -13.4195    126.5022    185.5347   4.5835617056e+01   1.8515711200e+01    0.5716561    0.2266141  39.75  0.002261266    2.344    0.573
       139 -11.3207    209.3242    186.2895   2.8841585929e+01   6.2771440444e+00    0.1233058   0.07984234  -4.49 0.0002409427    1.610    0.379
       140 -12.2810    156.1173    184.9839   3.8926603952e+01   1.4066785374e+01    0.3024083    0.2238219 -57.57  0.001651812    1.707    0.414
       141 -11.1393    163.9816    184.9823   3.7244830250e+01   1.2879189154e+01    0.1894167     0.164849  70.39 0.0006178526    1.671    0.401
       142 -12.9607    105.1050    182.7981   5.0795012093e+01   2.2375492828e+01    0.3389059    0.2353194 -45.52 0.0008754673    1.574    0.365
       143 -10.2620     54.2777    184.3579   6.4892889765e+01   2.9021636383e+01    0.1359276    0.1033894 -34.43 0.0007009862    1.659    0.397
       144 -10.7210    150.1210    183.0890   3.9920899188e+01   1.5339031523e+01    0.1746875    0.1611268  56.09 0.0005750703    1.324    0.244
       145 -12.4722    108.6901    181.3371   4.9640380148e+01   2.2147965893e+01    0.2512253    0.2365224 -85.14 0.0004657359    1.192    0.161
       146 -12.1403     94.7524    181.3612   5.3323109712e+01   2.4248248764e+01    0.4237253    0.2620112 -64.27   0.00184339    1.822    0.451
       147 -12.4148    134.1992    181.9093   4.3389838863e+01   1.8051588669e+01    0.2366233    0.1999515  20.22 0.0002600792    1.097    0.088
       148 -10.5922     66.9794    181.6320   6.1020359525e+01   2.8078273726e+01    0.1872822    0.1622998  34.96  0.000728322    1.086    0.079
       149 -10.8799    249.1562    181.1604   2.1775966483e+01   2.1557053859e+00    0.1360265    0.1094309 -26.30  0.000264656    1.273    0.214
       150 -13.3718    116.3032    178.1939   4.7183442787e+01   2.1644488892e+01    0.4694738    0.2971926  10.86  0.002086572    2.039    0.510
       151 -11.6047    156.2677    178.8320   3.7817785860e+01   1.5183368976e+01    0.2521112    0.1595281  44.38 0.0007128789    1.715    0.417
       152 -12.6092    154.9819    175.2644   3.7460010458e+01   1.6057754233e+01    0.2805106    0.2499781  -3.28 0.0008847686    1.041    0.039
       153 -11.2455     49.9968    178.5823   6.5535602684e+01   3.0929796226e+01     0.315846    0.2064584  -8.42   0.00143374    2.262    0.558
       154 -10.9157    171.5050    178.0807   3.4462670907e+01   1.2966133108e+01    0.1842372    0.1231827 -39.07 0.0003948812    1.472    0.320
       155 -12.7391    138.2061    177.9424   4.1763071216e+01   1.8213132515e+01    0.3047614    0.2344008  42.78  0.001095949    1.326    0.246
       156 -11.2511    191.4406    177.4901   3.0469780307e+01   1.0105094916e+01     0.126789    0.1084441 -10.12 9.540001e-05    1.022    0.022
       157 -14.1058    128.9830    175.5723   4.3570195349e+01   2.0177084584e+01    0.5168567    0.4663491 -66.60   0.00176942    1.286    0.222
       158 -11.9779    127.5959    166.1948   4.2250275595e+01   2.2387136906e+01    0.3605309     0.221747 -33.97  0.001305532    1.884    0.469
       159 -10.9234    214.2462    176.5857   2.6300653707e+01   7.0758867714e+00    0.1548995    0.1040602  17.35 0.0003056464    1.531    0.347
       160 -12.0757    106.5826    175.2553   4.9235266797e+01   2.3817938020e+01    0.2803624    0.1871385  34.08 0.0008796952    1.378    0.275
       161 -12.4083     64.0817    176.4665   6.1237660994e+01   2.9700461122e+01    0.4732647    0.2805309   8.53  0.001601343    2.295    0.564
       162 -12.4310     79.3508    173.1418   5.6423926283e+01   2.8414964389e+01    0.4497733    0.2524372  37.53   0.00132805    1.598    0.374
       163 -11.6744     83.9491    171.9954   5.4952382223e+01   2.8022065789e+01    0.2227155    0.1815798  52.14 0.0003058628    1.184    0.155
       164 -12.0951    145.2880    173.5703   3.9338098290e+01   1.7943657906e+01    0.2665847    0.1252545  39.42  0.001128049    2.057    0.514
       165 -13.5319     90.3480    170.6428   5.2944162430e+01   2.7387608002e+01    0.4993697    0.4452325  82.43  0.002281375    1.204    0.169
       166 -11.8446     44.0780    172.0946   6.6628420557e+01   3.3221477278e+01    0.2096332    0.1870477  58.23 0.0003613081    1.007    0.007
       167 -12.0957    198.3946    170.5454   2.7928753610e+01   1.0224879938e+01    0.2501318    0.2267575  46.50 0.0008752305    1.453    0.312
       168 -12.1668    153.1742    170.1398   3.6921592984e+01   1.7330648791e+01    0.2660657     0.225787  70.30 0.0007046619    1.599    0.375
       169 -12.9220    137.8015    170.7812   4.0588602560e+01   1.9728300441e+01     0.349032    0.2009845  45.54  0.001438931    1.833    0.455
       170 -12.1198    138.8413    167.1259   3.9670497068e+01   2.0304926995e+01    0.3659661    0.2591428 -60.74  0.001742397    1.703    0.413
       171 -12.0106     53.3948    170.6385   6.3700609936e+01   3.2490784416e+01      0.29972    0.2223455 -53.75 0.0001697505    1.482    0.325
       172 -11.0750    208.4868    169.9906   2.6068468032e+01   8.8695489489e+00    0.1894077    0.1070344 -36.64 0.0007302049    1.581    0.367
       173 -11.6775     62.6492    170.2353   6.0902041328e+01   3.1419573893e+01    0.2573092    0.1848505  33.69 0.0004795522    1.292    0.226
       174 -11.4514    145.3393    169.0876   3.8506962911e+01   1.8825689122e+01    0.1889116    0.1726325 -32.80 0.0003482079    1.122    0.109
       175 -13.5042    121.3802    167.5313   4.4066822247e+01   2.3135726460e+01    0.5917487    0.3016836  34.88    0.0025111    1.850    0.460
       176 -12.2542     39.9792    168.8451   6.7542992396e+01   3.4496562405e+01    0.3284243    0.2151817  24.18 0.0006715081    1.536    0.349
       177 -12.3028     98.5686    166.9062   5.0056016794e+01   2.6991076851e+01    0.3713258    0.2430896  88.47   0.00145286    2.285    0.562
       178 -10.9868     30.8018    167.5903   7.0207037033e+01   3.5773382300e+01    0.1975304    0.1121206  38.52 0.0005314062    1.562    0.360
       179 -12.7184    152.4796    164.8473   3.6080798166e+01   1.8476578951e+01    0.3792772    0.2625253  48.63 0.0005927487    1.629    0.386
       180 -12.3541    198.9963    164.2818   2.6646310550e+01   1.1152792498e+01    0.2247614    0.1894657 -27.04 0.0003200382    1.107    0.097
       181 -12.9078    111.0675    163.9789   4.6142044126e+01   2.5638740268e+01    0.4601136    0.3209283 -26.22   0.00213615    1.801    0.445
       182 -11.3739     44.7515    164.8491   6.5688812071e+01   3.4981597394e+01    0.3017596    0.1485666 -43.37   0.00118764    2.663    0.624
       183 -11.9866     48.9867    160.9993   6.3951993853e+01   3.5475517125e+01    0.3030257    0.2295389 -21.46   0.00113818    1.712    0.416
       184 -13.0162     92.0917    162.4891   5.1159318336e+01   2.9061105943e+01    0.4151683    0.2736678  51.07  0.001082579    1.559    0.358
       185 -11.8619     56.9836    164.4889   6.1898642892e+01   3.3594771126e+01    0.2267715    0.1350815  30.10  0.001032012    1.589    0.371
       186 -12.0412     75.3177    161.4881   5.5930435191e+01   3.1850156981e+01    0.2606144    0.1355325 -63.51  0.001080879    2.004    0.501
       187 -12.5327    170.4757    160.5307   3.1371261511e+01   1.6298771056e+01    0.2615056    0.2395816 -14.34 0.0007361001    1.038    0.037
       188 -11.1146     40.6462    161.7036   6.6632770684e+01   3.6252622335e+01    0.1427132    0.1068425 -30.45 0.0005393548    1.691    0.409
       189 -12.3362    191.3049    157.7368   2.6771371409e+01   1.3423825061e+01    0.4243755    0.2098888 -51.13  0.001013694    2.531    0.605
       190 -12.3787     25.5202    159.8304   7.1196889619e+01   3.8279369583e+01     0.281896    0.2516822   9.42 0.0005923355    1.286    0.222
       191 -10.7533    196.6738    159.6846   2.6178489227e+01   1.2260828862e+01    0.1334804   0.09166234  -5.44 0.0007043812    1.670    0.401
       192 -12.5931    105.0145    158.6519   4.6847506442e+01   2.7874726328e+01    0.4739727    0.2481162  53.06   0.00183098    2.324    0.570
       193 -11.2184    152.0321    158.5693   3.4963154329e+01   1.9793105256e+01    0.2192104    0.1337539  38.40  0.001031395    1.625    0.385
       194 -13.1368    132.3951    155.9274   3.9105584159e+01   2.3768147796e+01    0.5072261    0.3618281  52.01  0.001644119    1.555    0.357
       195 -11.8399    213.2043    156.9686   2.2837682319e+01   1.0222173659e+01    0.1898737    0.1685832   4.61 0.0003973372    1.156    0.135
       196 -11.4255     32.2995    157.3254   6.8834302944e+01   3.8274222661e+01    0.1411527    0.1036427 -40.17 0.0003088888    1.633    0.388
       197 -11.7921    141.1361    155.6582   3.6918940430e+01   2.2285567025e+01    0.2243263    0.1960908 -56.95 0.0003947547    1.255    0.203
       198 -10.3358     47.6472    156.3110   6.3826016310e+01   3.6852054616e+01    0.1619299   0.09579405  57.31 0.0007044638    1.725    0.420
       199 -13.5964     75.7017    151.1081   5.4198204618e+01   3.4411650809e+01    0.6442254    0.2519844  41.49  0.002313678    2.376    0.579
       200 -13.4444     81.5728    153.2986   5.2749602387e+01   3.2961998428e+01    0.4668512    0.2790959 -61.78  0.001853611    1.735    0.424
       201 -12.3045     84.3390    150.3022   5.1397390694e+01   3.3280139672e+01    0.2773079    0.2304254   4.74  0.001044409    1.401    0.286
       202 -12.1847     19.5894    153.7624   7.2602055107e+01   4.0394962462e+01    0.2968087    0.2461002  79.26  0.001153578    1.097    0.088
       203 -13.2814      4.1014    151.1993   7.7401661619e+01   4.2244226846e+01    0.5443298     0.381569 -63.93  0.001884114    1.462    0.316
       204 -12.6009     66.9595    153.8830   5.7369182392e+01   3.4973595939e+01    0.2205527    0.2008202 -19.23 0.0004673827    1.263    0.208
       205 -12.7451    118.7140    157.2095   4.2865826507e+01   2.5875482612e+01    0.3209116    0.3008614  24.26  0.001790989    1.028    0.027
       206 -12.6239     27.3522    150.7024   6.9818777022e+01   4.0503372818e+01    0.3351946    0.2819425   2.79 0.0006467811    1.395    0.283
       207 -11.9423    109.2192    149.3332   4.3932864309e+01   2.9341632396e+01    0.3621276    0.2582762  47.40  0.001229918    1.406    0.289
       208 -12.8789    103.3012    143.4192   4.4452100435e+01   3.1790106943e+01    0.6185606    0.3854725  77.49  0.002267789    2.843    0.648
       209 -12.3189     95.8520    148.9706   4.7702390719e+01   3.1727342669e+01    0.2754951    0.2136175  35.00 0.0009095874    1.243    0.196
       210 -13.6468      2.6754    142.2253   7.7390218604e+01   4.4689833846e+01     1.692552     0.270776  46.42   0.00494624    4.727    0.788
       211 -12.8124     20.0225    138.6169   7.1197852142e+01   4.4394742606e+01    0.5774733     0.308143  -5.30  0.002346862    2.733    0.634
       212 -13.0239      9.4742    143.5098   7.5192730060e+01   4.3897857301e+01    0.3904994    0.2497284  70.22  0.001984225    1.457    0.313
       213 -13.0049     12.4887    142.5475   7.4109791455e+01   4.3934975338e+01    0.3536904     0.281952  82.13 0.0007856337    1.135    0.119
       214 -10.3141    192.5142    147.4972   2.4506527346e+01   1.4979465724e+01    0.1326683    0.1165578 -20.32 -4.082118e-05    1.001    0.001
       215 -10.6249    232.2867    145.3412   1.7704287882e+01   9.2466621253e+00    0.1220917   0.08079375 -11.46 0.0003301455    1.641    0.390
       216 -11.3612    170.7803    145.5829   2.8277149105e+01   1.9030014029e+01    0.1874662    0.1323519  51.20 0.0008128068    1.646    0.392
       217 -11.5403    157.7250    145.0995   3.0938331116e+01   2.1461414493e+01    0.2715997    0.1993138  28.88 0.0007612796    1.426    0.299
       218 -10.5080    121.7620    145.0508   3.9650726878e+01   2.8081177970e+01    0.1880649    0.1269275 -52.29 0.0003404099    1.527    0.345
       219 -11.9339     61.8059    154.5826   5.9096491905e+01   3.5503372941e+01    0.3038697    0.1915065  55.85   0.00114146    1.639    0.390
       220 -10.5981    186.8294    143.8280   2.4790354312e+01   1.6566992672e+01    0.1676642     0.152317 -55.67 0.0002323059    1.276    0.216
       221 -12.8450    143.0970    143.3823   3.3920452723e+01   2.4500456144e+01    0.3302108    0.2715039 -14.15  0.000509268    1.349    0.259
       222 -12.9100     50.3227    141.6989   6.1049173488e+01   4.0393365170e+01    0.5256132    0.2453663  26.36  0.002065594    2.154    0.536
       223 -12.2996     52.0409    139.0031   6.0070408602e+01   4.0898661525e+01    0.2790246      0.21084  28.92  0.001379369    1.333    0.250
       224 -11.6570     37.8581    143.1052   6.5493440103e+01   4.1469180918e+01    0.2240907    0.1804674  65.75 0.0004082021    1.186    0.157
       225 -11.5591    178.9879    141.4905   2.5784327429e+01   1.8341109820e+01    0.2735799    0.1797373 -24.50  0.001291762    1.640    0.390
       226 -11.1530     30.2751    142.3793   6.8013582785e+01   4.2446951409e+01    0.1500597    0.1000896 -44.80 0.0007001836    1.703    0.413
       227 -12.6207     53.3061    135.1837   5.9050886212e+01   4.1761345166e+01    0.3383456    0.2686128 -85.44  0.001702687    1.274    0.215
       228 -12.6268     96.8128    138.1927   4.5321187317e+01   3.4207837792e+01    0.3175691    0.2260535 -18.77 0.0008996756    1.965    0.491
       229 -12.5459     60.0376    139.9461   5.7485593390e+01   3.9584412998e+01    0.3476432    0.2484944 -44.89  0.000731404    1.544    0.352
       230 -13.3365     60.1372    136.1253   5.6832680856e+01   4.0587325468e+01    0.6302108    0.3343504  71.11  0.001809871    2.864    0.651
       231 -11.2926    234.3419    139.8897   1.6368229036e+01   9.7552808432e+00    0.1757209   0.09146801 -28.15 0.0005815111    1.726    0.421
       232 -13.0385     72.9269    139.2141   5.3063398111e+01   3.7899010203e+01    0.3934751    0.2667772  38.97 0.0003173812    1.409    0.291
       233 -13.2649     68.1735    137.1800   5.4282573135e+01   3.9149718895e+01    0.4573647    0.3492409  32.89 0.0007226919    1.292    0.226
       234 -12.6177     40.7411    137.4953   6.3794505011e+01   4.2664948275e+01    0.4297266    0.2330025  46.14 0.0006981455    1.787    0.440
       235 -11.4393    183.9346    137.0533   2.3900355146e+01   1.8271080061e+01    0.2016988    0.1804747 -24.10 0.0002985653    1.012    0.012
       236 -11.7943     31.9932    136.3652   6.6746485807e+01   4.3903729681e+01    0.2628236    0.1827287 -46.45 0.0008228992    1.581    0.367
       237 -13.4999    124.7405    134.4056   3.6576347657e+01   2.9931637264e+01    0.6245463    0.4087673  26.97  0.001672697    1.744    0.427
       238 -11.6398    146.8785    148.7227   3.4153325598e+01   2.2696946402e+01    0.2686811    0.2039575 -48.39 0.0006380051    1.346    0.257
       239 -10.4947    196.6604    134.3315   2.1045056066e+01   1.6535608041e+01    0.1303348    0.1027945 -69.39 0.0007051706    1.744    0.427
       240 -11.0626    110.8533    136.1229   4.0767861391e+01   3.2163089262e+01    0.2132904    0.1845064  -2.48 0.0005099243    1.332    0.249
       241 -12.5699     77.9790    133.0533   5.0254464468e+01   3.8702897503e+01    0.3344743    0.2752352 -22.80 0.0007208004    1.457    0.314
       242 -12.7838     82.0686    131.0231   4.8507135293e+01   3.8552312818e+01    0.3323759    0.2598486  87.86  0.001465345    1.471    0.320
       243 -12.2194     83.5425    127.4709   4.7291717357e+01   3.9213372372e+01     0.267957    0.2498708 -18.04 0.0008680484    1.186    0.157
       244 -11.2472     45.0414    134.4697   6.1860023565e+01   4.2986424367e+01    0.2279339    0.1462819  24.74  0.001034967    1.610    0.379
       245 -12.0166     13.4851    134.4926   7.3145464783e+01   4.6024741064e+01    0.2429745    0.1704663 -70.65 0.0009830525    1.349    0.259
       246 -12.4647     19.9548    131.9689   7.0598459897e+01   4.6203044159e+01    0.3017712    0.2675154 -85.80 0.0007064486    1.059    0.056
       247 -12.1803     15.8120    131.4024   7.2047503990e+01   4.6687072688e+01    0.2751567    0.1924753 -40.53 0.0009936173    1.630    0.387
       248 -10.9056      7.2776    134.6451   7.5350022817e+01   4.6416302118e+01    0.1507087   0.08707282  60.83  0.000287384    1.652    0.395
       249 -10.7905    210.3419    133.6876   1.8665027733e+01   1.4362889178e+01    0.1236734   0.09732319 -65.12 0.0007046477    1.701    0.412
       250 -11.8813     31.5369    131.5452   6.6338090380e+01   4.5262565653e+01    0.2387651    0.2223297  74.71   0.00047492    1.015    0.015
       251 -12.7957     49.4621    130.6303   5.9703232217e+01   4.3484866533e+01    0.4105246    0.2639661  19.79  0.001617439    1.710    0.415
       252 -11.2701    247.0103    130.0000   1.2806452312e+01   9.3903980710e+00    0.1590428   0.06762949  47.68 0.0008083197    2.983    0.665
       253 -12.8366    177.2658    126.9273   2.2940182439e+01   2.1321270720e+01    0.3828268    0.2485365  32.94  0.001246295    1.769    0.435
       254 -12.1277     97.2095    127.0794   4.2839678364e+01   3.6878948132e+01    0.3498532    0.1798292 -51.02  0.001357929    1.956    0.489
       255 -12.7818     58.3198    127.2476   5.5951452600e+01   4.3218648580e+01    0.4437167    0.2352929 -47.32  0.001770278    2.037    0.509
       256 -12.0620     42.0871    127.0457   6.1848730587e+01   4.5354982078e+01    0.3320801    0.2693205 -59.87   0.00171727    1.229    0.186
       257 -11.7547    122.8228    127.8994   3.5612995257e+01   3.1777337840e+01    0.2452839    0.2155901  -8.19  0.001245113    1.289    0.224
       258 -10.9917     35.8068    127.1425   6.4196785557e+01   4.6027213462e+01    0.1995283    0.1672143 -44.01 0.0004234186    1.292    0.226
       259 -12.9546      9.4636    125.4523   7.3873169254e+01   4.8757410401e+01    0.2807713    0.2337541  59.32   0.00160058    1.143    0.125
       260 -10.7481    115.5174    126.4757   3.7293150399e+01   3.3538338970e+01    0.1524957    0.1506392  11.14 0.0008097127    1.033    0.032
       261 -12.2070     26.8617    125.2914   6.7316495690e+01   4.7425001393e+01    0.2836775    0.2258662 -77.56 0.0004554649    1.184    0.156
       262 -12.7767     75.7931    123.3547   4.9038155960e+01   4.1580825079e+01    0.3215176    0.2774416  18.82 0.0008223025    1.259    0.206
       263 -10.3640     49.3197    124.2501   5.8721702065e+01   4.5235461808e+01    0.1461656    0.1148101 -25.18 0.0002672632    1.531    0.347
       264 -14.1189     14.0836    119.8171   7.1612874964e+01   4.9977551539e+01       0.5828    0.4399771  66.85  0.002939506    1.281    0.219
       265 -13.0537      9.3137    117.9175   7.3291819506e+01   5.0820390225e+01     0.331161    0.2803403  62.96 0.0007545882    1.134    0.118
       266 -10.8949    164.1756    122.7893   2.4594652045e+01   2.4616710282e+01    0.1944041    0.1636764 -10.68  0.000259925    1.317    0.241
       267 -12.2614      3.3424    122.4320   7.5934919368e+01   4.9950412821e+01    0.2716216    0.1566458 -87.80 0.0007263719    1.584    0.368
       268 -11.6579    193.4632    121.4971   1.8811009249e+01   1.9295129893e+01    0.2309525    0.1195534 -29.92 -2.884823e-05    2.023    0.506
       269 -11.5864    179.0116    121.9239   2.1478385104e+01   2.1906895926e+01    0.2089123    0.1904604 -28.78  0.000384955    1.026    0.026
       270 -11.3148    109.7364    127.9875   3.9290241322e+01   3.4302229143e+01    0.2037276     0.134784 -51.81 0.0005993507    1.529    0.346
       271 -11.1051    188.9814    121.0248   1.9475795315e+01   2.0197965244e+01    0.1624132    0.1483764 -31.39 0.0003435139    1.019    0.019
       272 -12.0374    104.8814    121.1308   3.9132518222e+01   3.6876815802e+01    0.3849832    0.2377252  60.13  0.001355689    2.046    0.511
       273 -11.9557    100.1685    119.3073   4.0137319168e+01   3.8228042467e+01    0.2884357    0.1937373  34.08   0.00125571    1.533    0.348
       274 -12.8758     67.9318    114.1100   4.9858807131e+01   4.5282038073e+01    0.5248396    0.2543302 -54.54 0.0008397513    2.009    0.502
       275 -13.3956     62.7092    110.8843   5.1106699693e+01   4.6953822218e+01    0.7850204    0.6269836 -21.01  0.003759859    1.518    0.341
       276 -11.5700     77.5237    113.4473   4.6253506063e+01   4.3856683817e+01    0.2389312    0.2279811 -85.01 7.952228e-06    1.039    0.037
       277 -13.4625     82.4139    115.9114   4.5123864848e+01   4.2367242125e+01    0.4735313    0.3855712 -53.85  0.001027671    1.236    0.191
       278 -12.2537     82.2602    111.9931   4.4255050168e+01   4.3392395341e+01    0.3363675    0.2771268 -47.21  0.001308187    1.246    0.197
       279 -10.8966     28.9948    119.2631   6.5730935374e+01   4.8881477263e+01    0.4783673    0.1546405 -62.28  0.001678397    2.651    0.623
       280 -10.8637    211.0166    119.0008   1.5472377748e+01   1.6613409583e+01    0.1622056    0.1288968 -34.81 0.0003942933    1.073    0.068
       281 -10.5571    232.2887    118.3407   1.2372087376e+01   1.3240300874e+01    0.1213559   0.08573893 -10.94 0.0002883306    1.644    0.392
       282 -11.9720    100.7855    113.8054   3.8609382947e+01   3.9441802504e+01    0.3072451    0.2311903  21.39  0.001222314    1.576    0.365
       283 -11.8827     96.6106    116.1348   4.0492212084e+01   3.9685990723e+01    0.3346527    0.2370362 -22.78 0.0003629244    1.943    0.485
       284 -12.4244     93.4914    116.4604   4.1569009327e+01   4.0198868445e+01    0.2838909    0.2603463  47.76 0.0005353962    1.074    0.069
       285 -12.2337    201.7990    114.2797   1.5852500228e+01   1.9002533658e+01    0.2348105    0.2019142 -43.54 0.0002687304    1.083    0.077
       286 -12.2483     20.5833    113.5360   6.8343789110e+01   5.1205488805e+01    0.2745942    0.2247138 -77.52 5.789783e-05    1.136    0.120
       287 -12.7098     20.3777    109.9090   6.7973949905e+01   5.2220364932e+01    0.3271006    0.2715459 -70.48   0.00041573    1.127    0.113
       288 -11.9320     64.5276    118.4937   5.2031987825e+01   4.4653173670e+01    0.2598991    0.2489696  76.96  4.65189e-05    1.011    0.011
       289 -10.9174    121.9490    114.0071   3.2491238639e+01   3.5095743645e+01    0.1921012    0.1709162  45.77 0.0006076204    1.126    0.112
       290 -13.5709     10.6516    111.8009   7.2185476466e+01   5.2407440963e+01    0.4348837    0.3150767  37.66  0.001471245    1.403    0.287
       291 -11.3225     87.7046    108.8155   4.1611074107e+01   4.3189070563e+01    0.2496237    0.1814734  89.46  0.001060704    1.814    0.449
       292 -11.9913      2.2251    109.3985   7.5404186097e+01   5.3545852227e+01    0.2534618    0.1626765  32.77  0.001291084    1.602    0.376
       293 -10.4276     91.9785    107.9991   3.9973373932e+01   4.2575045507e+01    0.1851199     0.175924 -65.17  0.000951544    1.053    0.051
       294 -11.3143    139.7587    107.0446   2.6151056702e+01   3.2822674737e+01    0.2679253    0.2253193  49.08  0.000916451    1.215    0.177
       295 -12.1901     12.7150    104.2538   7.0515458606e+01   5.4339725052e+01       0.2498     0.223279 -56.59  0.000398145    1.114    0.103
       296 -14.3506     74.3792    114.8779   4.7695306123e+01   4.4023241266e+01      1.00188    0.6223774  79.09  0.002736881    2.518    0.603
       297 -11.2811    104.9996    102.7741   3.4445031194e+01   4.1204403584e+01    0.2627882    0.1823203  72.34  0.000752298    1.948    0.487
       298 -12.0804     79.0115    101.9257   4.2898527845e+01   4.6528077567e+01    0.3646196    0.2371889  50.04  0.001011468    1.602    0.376
       299 -11.8146     55.9746    101.4530   5.1645590494e+01   5.0470735958e+01    0.2802949    0.2219242 -66.96 0.0005268912    1.254    0.203
       300 -11.9791     57.6814     97.5615   5.0032705348e+01   5.1241066573e+01    0.3155092    0.2601593  45.15 0.0009276525    1.221    0.181
       301 -10.5080     29.4871    102.5372   6.3032546857e+01   5.3433317718e+01    0.1462857    0.1366692  84.23 -8.036757e-05    1.041    0.040
       302 -13.0788      5.4658     99.8728   7.3184763803e+01   5.5969920706e+01    0.4528645    0.4063051  18.82  0.002388742    1.226    0.184
       303 -12.3858      8.9799     96.7663   7.1288981263e+01   5.6619327690e+01    0.5376807    0.2661541  49.07 0.0002747368    2.153    0.536
       304 -12.4329    129.4867    100.5249   2.6960481288e+01   3.6428114546e+01    0.2722887    0.2498537 -88.91  0.000162564    1.138    0.121
       305 -10.7737    116.4787    100.3059   3.0395280497e+01   3.9321548576e+01    0.2278686     0.147537 -60.91 0.0006915183    1.770    0.435
       306 -10.6163     85.5663    100.2207   4.0117629547e+01   4.5723045733e+01    0.2168609    0.1471245 -42.38 0.0006706438    1.565    0.361
       307 -12.4143     94.1398     98.4311   3.6712700745e+01   4.4462157929e+01    0.3878578    0.2762076  56.24 0.0009055819    1.504    0.335
       308 -10.9173    176.4985     94.4625   1.5358569240e+01   2.7337542767e+01    0.1415043    0.1298956 -48.17 7.282554e-05    1.006    0.006
       309 -13.0787    121.0590     91.7263   2.6710946161e+01   4.0171337157e+01    0.4635536     0.376079  -5.65  0.001394183    1.637    0.389
       310 -11.4369     58.1367     91.4131   4.8300186359e+01   5.2769934661e+01    0.2569941    0.2275705 -14.10 0.0007719109    1.259    0.206
       311 -10.7545     41.1549     91.7185   5.5771501799e+01   5.5074447952e+01    0.2363174    0.1682265  49.43 0.0006864648    1.488    0.328
       312 -11.4804     25.8272     91.9290   6.2840262715e+01   5.6671789272e+01    0.2786923    0.2166816   4.67 0.0008307982    1.433    0.302
       313 -11.6414    154.1487     90.1578   1.8461293080e+01   3.2985503560e+01     0.229332    0.2099994   4.14  0.001241761    1.277    0.217
       314 -12.0882      3.0645     88.4278   7.3083524972e+01   5.9187101228e+01    0.4642828    0.2245566 -81.79  0.002034952    1.921    0.479
       315 -11.0597      6.8850     87.4695   7.1144618054e+01   5.9255671477e+01     0.254612    0.1743064  71.31  0.001141667    1.534    0.348
       316 -13.9215     75.7390     91.8474   4.1387700396e+01   4.9642028149e+01    0.8401555    0.5674763 -84.61  0.003405642    2.129    0.530
       317 -14.1063     94.7780     83.7397   3.2189582838e+01   4.7732447579e+01    0.5399422    0.4570606  64.69 0.0009662121    1.235    0.191
       318 -11.8257     90.2190     79.0021   3.2235055597e+01   4.9767871338e+01       0.4116    0.2608411  38.62  0.001127068    1.629    0.386
       319 -12.2031     54.6333     85.5056   4.8230020591e+01   5.4829597116e+01    0.5269904    0.4336198  -2.17   0.00262358    1.417    0.294
       320 -10.9077    144.4864     82.8255   1.8456444670e+01   3.6566458991e+01    0.2169858    0.1442782 -41.67 0.0006060022    1.463    0.316
       321 -11.8787     65.5542     81.9450   4.2545808339e+01   5.3918337092e+01    0.3097679    0.2222013  16.91   0.00138402    1.689    0.408
       322 -11.8032      9.3768     78.6318   6.8674771256e+01   6.1485316386e+01    0.5299277    0.1819344 -81.02  0.001829817    3.131    0.681
       323 -11.6916      4.4169     80.0033   7.1413420259e+01   6.1380889931e+01    0.3856708    0.2688338  58.52  0.002021472    1.549    0.354
       324 -10.7075    230.0326     78.9805   4.3595524240e+00   1.9340419129e+01    0.1485982    0.1216796 -45.49 0.0003647403    1.024    0.024
       325 -11.6271    112.3435     79.0876   2.5317749506e+01   4.4805588315e+01    0.3817281    0.2144055  67.76  0.001009019    2.559    0.609
       326 -11.6474    163.4187     78.2560   1.3435301643e+01   3.3027410143e+01    0.2522612    0.1769906  89.00  0.001061793    1.786    0.440
       327 -11.1129     74.8058     77.6122   3.7460210742e+01   5.3237738156e+01    0.2080335    0.1421371  50.32 0.0001233678    1.512    0.339
       328 -10.8618    192.2716     74.3394   7.8565273099e+00   2.7334666191e+01    0.1279285    0.1053774  -1.13 0.0005759508    1.606    0.377
       329 -12.1099      1.5722     73.4912   7.2045240090e+01   6.3230580965e+01    0.2767465    0.1453236 -64.57  0.001307138    1.634    0.388
       330 -11.2943    106.0213     73.0851   2.5221828071e+01   4.7498005383e+01    0.2411378    0.2245799  75.35 0.0005207063    1.062    0.058
       331 -10.7529     45.5031     73.4752   4.9030083115e+01   5.9220571622e+01    0.1455598    0.1431689  86.61 0.0001939365    1.052    0.050
       332 -12.0397     52.1370     71.7007   4.5315657117e+01   5.8661988271e+01     0.273688    0.2660718 -53.97 0.0003404592    1.030    0.029
       333 -11.6095     55.3087     69.2918   4.3055763485e+01   5.8727180561e+01    0.2610033    0.2012601  19.80 0.0005648027    1.410    0.291
       334 -11.5872     71.2410     69.4005   3.6146123495e+01   5.5813831982e+01    0.5058965    0.3153961 -10.02  0.001704293    3.468    0.712
       335 -10.8630     79.6045     70.1770   3.3125799885e+01   5.3956012149e+01    0.2140737    0.1442278 -36.14 0.0004332691    1.642    0.391
       336 -12.1954     59.7591     66.5788   4.0098339961e+01   5.8598269237e+01      0.35738    0.2713853  71.86  0.001209765    1.710    0.415
       337 -11.9723      7.7766     67.8726   6.7769824263e+01   6.4407408595e+01    0.3492175    0.2302687 -77.55 0.0009776155    1.456    0.313
       338 -10.9035    124.7081     66.9149   1.8152923891e+01   4.4235954334e+01    0.2087613    0.1892386 -57.20 0.0003352527    1.089    0.082
       339 -11.9234     48.9760     66.2877   4.5081029344e+01   6.0459910516e+01    0.2870642    0.2493481 -42.53 0.0005802644    1.137    0.121
       340 -11.7798     46.5197     62.6847   4.5090848006e+01   6.1692134928e+01    0.3239163      0.20192  35.47  0.000664098    1.600    0.375
       341 -12.6857     13.4610     59.8721   6.2817369600e+01   6.6106663613e+01     0.451515    0.2978951  23.23  0.001580804    1.583    0.368
       342 -11.6896     21.1321     60.6902   5.8450670221e+01   6.5281956535e+01    0.3251445     0.193055 -63.80 0.0005425456    1.595    0.373
       343 -11.1631    183.7942     60.1004   5.3706022962e+00   3.1333242835e+01    0.2069675     0.161874 -60.67 0.0003874991    1.176    0.150
       344 -10.5828     27.4866     60.5260   5.4709296515e+01   6.4694233036e+01    0.1387086    0.1334816 -40.04 3.671002e-05    1.033    0.032
       345 -13.0240     37.3982     54.3541   4.7027817226e+01   6.4961559046e+01    0.7084542    0.4438838 -44.82  0.003086327    1.557    0.358
       346 -11.0503    179.8187     56.1183   4.8467546527e+00   3.2813644938e+01    0.2070594    0.1619433 -62.58 0.0003344152    1.182    0.154
       347 -11.1689     96.9561     56.4898   2.2158456372e+01   5.2857621286e+01    0.2316034     0.145647  52.27 0.0006309842    1.534    0.348
       348 -13.0537    106.7496     51.5486   1.7458850175e+01   5.1369219872e+01    0.5089513    0.3496319 -85.70 0.0006483481    1.974    0.494
       349 -11.8222     25.0211     54.3332   5.4272118162e+01   6.6466487911e+01    0.1959801    0.1759962   5.23 0.0005698858    1.122    0.108
       350 -11.0271    195.3689     52.2048   1.9130630234e+00   2.9925016729e+01    0.1847298    0.1419438 -49.68 0.0006535268    1.113    0.101
       351 -11.4541    174.1078     50.6627   4.1291157701e+00   3.4916653972e+01    0.2525508     0.167592 -50.30  0.001123715    1.367    0.269
       352 -11.0512    151.0077     51.2518   7.7937150411e+00   4.0371183564e+01    0.2019824    0.1818212 -84.94  0.000459194    1.040    0.038
       353 -11.0037    197.2262     58.3771   3.2460468546e+00   2.8660928626e+01    0.1660864    0.1200087  88.43 0.0002827754    1.499    0.333
       354 -13.0266     29.7906     49.7003   4.9796580019e+01   6.7023392753e+01    0.3782649    0.3357441 -59.71  0.001260543    1.172    0.147
       355 -11.4356     18.4460     48.2082   5.6474373936e+01   6.8577182065e+01    0.8736361    0.3524635 -25.98   0.00276324    4.353    0.770
       356 -11.6493     99.0576     49.0367   1.8688997845e+01   5.3683227262e+01    0.2470403    0.1817588 -78.77 0.0008455688    1.724    0.420
       357 -12.7371     89.3555     45.2036   2.0161961812e+01   5.6674279170e+01    0.2749699    0.2663755  -7.07 0.0005471184    1.114    0.102
       358 -13.1739    153.3209     57.1202   9.1740064945e+00   3.8901478248e+01    0.3074379    0.2755522 -59.47 0.0006334581    1.048    0.046
       359 -11.8116     49.7053     43.9937   3.6140067743e+01   6.5282789397e+01    0.2394687    0.1986848  40.86 0.0003544684    1.202    0.168
       360 -13.3801     34.1100     40.3412   4.3399094553e+01   6.8535327650e+01    0.4741309    0.3039393  48.89   0.00183962    1.866    0.464
       361 -10.7439    155.1497     41.1206   4.0365767444e+00   4.0813400588e+01    0.1966922    0.1489848 -68.41  0.000350349    1.273    0.215
       362 -12.4205    120.6348     39.3762   9.6004351992e+00   4.9792904224e+01    0.2939691    0.2481834  73.52 0.0005630682    1.113    0.102
       363 -10.3708      1.3104     40.2808   6.6191804626e+01   7.1630442374e+01    0.1381388   0.08060085 -37.28 0.0001859898    1.565    0.361
       364 -10.6235     83.8532     37.8794   1.8874923354e+01   5.9194392524e+01    0.1931144    0.1684717 -83.53 0.0003897774    1.278    0.217
       365 -12.0075     79.9764     36.3865   1.9540587274e+01   6.0347408279e+01    0.4264296    0.2266155 -42.31   0.00165643    1.995    0.499
       366 -12.5438      9.7957     36.8950   5.8835188741e+01   7.1935734591e+01    0.2464909    0.2157924  -6.98 0.0003579801    1.114    0.102
       367 -11.6907    140.3127     36.0462   4.7433750597e+00   4.5225880224e+01    0.2725189    0.2274148  19.81 0.0009313053    1.575    0.365
       368 -11.7116    190.1108    249.1092   4.1861477195e+01  -1.5555964835e-01    0.1592801    0.1169601   4.10 0.0003238849    1.025    0.024
       369 -11.4908    127.4984     32.5771   5.7857313028e+00   4.8970802885e+01    0.2380262    0.2223665  80.76 0.0004835378    1.064    0.060
       370 -11.3912     14.9778     33.4758   5.3642080248e+01   7.2282612045e+01    0.1997995    0.1249483  18.36  0.001036284    1.604    0.376
       371 -12.5745     29.9140     31.3991   4.1953234713e+01   7.0974979368e+01    0.3974725    0.2255955  43.05  0.001883354    1.936    0.484
       372 -11.2542     71.3946     31.5345   2.0429760588e+01   6.3094933912e+01    0.3414482   0.08915332  41.22 0.0008079865    6.048    0.835
       373 -11.0291    137.6162     30.1623   3.2108721742e+00   4.6682444754e+01    0.1868816     0.138837 -13.02 0.0005767433    1.719    0.418
       374 -11.7069     96.5104     29.9918   1.1652482924e+01   5.7263475952e+01    0.2083041    0.1457416 -30.46 0.0004432504    1.558    0.358
       375 -11.2645     64.4554     30.4492   2.2692673890e+01   6.4812462505e+01    0.1408637     0.131947  40.18 4.635764e-05    1.017    0.017
       376 -11.4198      2.9044     30.1635   6.2028065895e+01   7.3917188394e+01    0.2615942    0.1629733  13.91  0.001425482    1.635    0.388
       377 -12.2563      1.7314     25.6673   6.1479698271e+01   7.4994058396e+01     0.241981    0.1644536 -64.58  0.000547195    1.446    0.308
       378 -10.9631     52.4827     29.5174   2.7730772333e+01   6.7461566369e+01    0.1387815    0.1298088  26.31 6.936112e-05    1.022    0.022
       379 -10.6762    116.5382     26.4305   5.6016305230e+00   5.2594328890e+01    0.1436666    0.1293744  83.19  7.87895e-05    1.008    0.008
       380 -12.4096     85.7953     34.0789   1.6564619500e+01   5.9321360792e+01    0.4188901    0.1721467  54.00  0.001592934    2.222    0.550
       381 -10.9894    124.6619     24.7594   3.4670767658e+00   5.0691678969e+01    0.2016096    0.1211671 -40.55 0.0009483826    1.666    0.400
       382 -12.3343     84.8008     24.2638   1.2397546672e+01   6.0952604498e+01    0.2961617     0.200603 -73.68   0.00135968    1.999    0.500
       383 -10.4122     73.6716     24.7138   1.6243348400e+01   6.3575295498e+01    0.1459936    0.1025625  29.73 0.0002820202    1.612    0.380
       384 -10.5930     19.0261     23.5144   4.5885449047e+01   7.3959517401e+01    0.1816242    0.1214822  23.07 0.0003640499    1.454    0.312
       385 -11.2056     70.6658     20.9743   1.5419822454e+01   6.4789542565e+01    0.1884441     0.179377 -15.57 0.0005366062    1.132    0.117
       386 -10.6562     35.0186     20.5225   3.2629742030e+01   7.2201999790e+01    0.1892115    0.1234425  37.71 0.0009853692    1.456    0.313
       387 -11.4931    139.9104     19.0984   3.5913239297e+02   4.7406758712e+01    0.4419592    0.1344609  60.28  0.001608376    2.861    0.650
       388 -11.9135     96.9567     15.7228   5.3137102995e+00   5.8910427316e+01    0.2229096    0.1970551 -47.08 0.0002766583    1.210    0.174
       389 -10.6372    127.4463     15.5615   3.5965416623e+02   5.1007087574e+01    0.1392943     0.122718  89.65 7.852255e-05    1.006    0.006
       390 -10.8184     34.0070     15.2272   3.0000742370e+01   7.3243201928e+01    0.1792992    0.1511224  26.57 0.0001997572    1.084    0.078
       391 -10.8563    120.9771    248.7162   5.5400189398e+01   7.8133690329e+00    0.1689549    0.1249243  25.39 0.0003892444    1.053    0.050
       392 -12.0649     50.2255    246.2493   7.0682870630e+01   1.6376511143e+01     0.432754    0.1987418 -70.41  0.002087039    2.597    0.615
       393 -11.2989    162.7865    247.3220   4.6738664961e+01   3.1007964067e+00    0.1624377    0.1453078  -3.58 0.0006004066    1.289    0.224
       394 -11.2961     68.4889    247.0523   6.6682631573e+01   1.4239530202e+01    0.2721706    0.1575747  64.26   0.00153177    2.012    0.503
       395 -10.6119     58.4670    248.4663   6.8997243806e+01   1.5091117925e+01    0.1204059   0.09301716  37.59 0.0001306806    1.021    0.020
       396 -10.7708    214.6729    247.3048   3.7369514243e+01  -2.4501792372e+00   0.08990259    0.0761781  22.56 0.0007034924    1.648    0.393
       397 -11.4387    178.1048    247.1878   4.3805933700e+01   1.3935848759e+00    0.1732039    0.1167562   3.88 0.0003619441    1.255    0.203
