#   1 NUMBER                 Running object number                                     
#   2 MAG_AUTO               Kron-like elliptical aperture magnitude                    [mag]
#   3 X_IMAGE                Object position along x                                    [pixel]
#   4 Y_IMAGE                Object position along y                                    [pixel]
#   5 X_WORLD                Barycenter position along world x axis                     [deg]
#   6 Y_WORLD                Barycenter position along world y axis                     [deg]
#   7 A_WORLD                Profile RMS along major axis (world units)                 [deg]
#   8 B_WORLD                Profile RMS along minor axis (world units)                 [deg]
#   9 THETA_WORLD            Position angle (CCW/world-x)                               [deg]
#  10 FWHM_WORLD             FWHM assuming a gaussian core                              [deg]
#  11 ELONGATION             A_IMAGE/B_IMAGE                                           
#  12 ELLIPTICITY            1 - B_IMAGE/A_IMAGE                                       
         1 -13.4930    171.3025     71.7965   5.0778446663e+01   3.2719136316e+01     2.283148     1.727508 -11.79  0.008213057    1.806    0.446
         2 -13.2031     83.2753     76.8259   7.4789958360e+01   5.1210451016e+01     2.192961      1.37849 -20.15  0.009467128    2.076    0.518
         3 -13.1954     29.3879     67.7762   9.3002946225e+01   6.0704157572e+01     2.159714     1.600361 -68.67   0.01221452    1.644    0.392
         4 -11.6341      6.4995     51.5876   9.8850358610e+01   6.5873344828e+01     1.622601    0.4747702 -44.92  0.007102847    2.473    0.596
         5 -12.1266      4.9247     34.1299   9.4073569789e+01   6.9330206504e+01     0.881446     0.555833 -37.67  0.005625297    1.250    0.200
         6 -14.2993    137.4588     72.4305   5.7918147531e+01   4.0542897461e+01     4.223476      1.17517  46.17  0.008070685    3.741    0.733
         7 -12.3178     82.1194     54.9480   6.7763497308e+01   5.5471025610e+01     1.001577    0.6291979 -41.17 0.0003635669    1.664    0.399
         8 -14.7283    134.0303     51.5522   5.2348985778e+01   4.4714059691e+01     7.020673     2.719905  49.78   0.02684269    2.415    0.586
         9 -13.9135    112.1188     94.7668   7.1188703725e+01   4.1823406243e+01     2.308749     1.953672  68.20  0.004060222    1.370    0.270
        10 -14.2242     54.4129     85.3008   8.7846426953e+01   5.3982340694e+01     4.208488     2.271029 -31.37   0.01799355    2.113    0.527
        11  99.0000     60.2582     36.2363   6.8540760254e+01   6.2340376196e+01     3.152681     2.068437 -24.03    0.0174398    1.528    0.346
        12 -12.9720     96.5136     43.9458   5.9251919203e+01   5.4274261673e+01     2.056392     1.530522 -89.29   0.00940019    2.146    0.534
        13  99.0000     45.5090     17.9831   6.6619673210e+01   6.7197873924e+01     1.004137    0.5561872  -4.45  0.004998764    2.336    0.572
        14  -9.9703     38.4048     22.3165   7.1819507560e+01   6.7701551127e+01    0.5747672    0.4241567  55.55   0.00332958    2.279    0.561
        15  -9.4428     91.1544     18.0563   5.1033423719e+01   5.8580728419e+01    0.3418342    0.2251365 -17.66  0.001340019    1.707    0.414
        16 -11.1947     87.9606     47.8503   6.3273009171e+01   5.5463630027e+01     0.450508    0.3948117  22.71   0.00125284    1.050    0.048
        17  -9.7205    212.7411    250.4962   8.0793486928e+01  -7.9880835319e+00    0.3196061    0.1030577  30.41  0.001371955    2.887    0.654
        18  -9.1545    139.4936    250.0425   9.5464277272e+01   2.2745806038e+00    0.1745812    0.1279071 -49.60  0.001030711    1.583    0.368
        19  -9.8717      6.3091    166.0724   1.1723437951e+02   3.8456812402e+01    0.2700462    0.1885881  76.88 0.0005144012    1.308    0.236
        20  -9.7721      9.9867    165.7735   1.1626223160e+02   3.8246668472e+01    0.2003946    0.1562017 -59.12 0.0004499139    1.283    0.221
        21  -8.7974     18.2471    164.6124   1.1398717572e+02   3.7854338314e+01      0.15262    0.1302327   0.72 0.0003099108    1.518    0.341
        22  -9.7972      3.6874    161.3200   1.1750054166e+02   3.9832745327e+01    0.2054634    0.1710278 -61.39 0.0008034577    1.224    0.183
        23 -10.1088      6.4655    158.9939   1.1656574071e+02   4.0212490215e+01    0.2553027    0.1853247 -86.32  0.001332111    1.154    0.133
        24  -9.1465     38.2393    158.1745   1.0774852322e+02   3.7579004361e+01    0.3988611    0.1409248 -62.42  0.001538311    2.348    0.574
        25  -9.4356     31.8019    155.8499   1.0926871846e+02   3.8840815773e+01    0.2640266    0.1951461  24.05  0.001446618    1.575    0.365
        26 -10.0193      2.5756    146.7633   1.1647079826e+02   4.3552778310e+01    0.5454888    0.2659951 -63.17  0.002739506    1.666    0.400
        27  -9.8589     35.2557    146.1122   1.0695188249e+02   4.1019286339e+01    0.2462751    0.1940209  45.05 0.0004080084    1.370    0.270
        28  -9.9386     39.5085    141.3974   1.0496711639e+02   4.1805513513e+01    0.3076614    0.1532634 -42.81  0.001288008    2.201    0.546
        29  -8.5237     49.2964    139.3639   1.0162264376e+02   4.1239969675e+01    0.1545016   0.09899954 -38.81   0.00047813    1.716    0.417
        30  -9.2567     15.5900    136.4769   1.1155627906e+02   4.5246573247e+01    0.3346782    0.1935987  89.67  0.001626229    1.793    0.442
        31  -8.1620     24.5109    134.5082   1.0856081103e+02   4.5029254889e+01     0.137853     0.118151 -72.83 0.0001383641    1.022    0.021
        32  -8.0479    102.3908    133.4520   8.4166848818e+01   3.4707249050e+01    0.1555381    0.1475695 -58.42  7.02555e-06    1.032    0.031
        33  -9.0138     61.5067    132.9633   9.6614686017e+01   4.1363098168e+01    0.2257883    0.1366375 -60.31 -0.0002635919    1.518    0.341
        34  -9.5217     30.3537    132.6447   1.0645771386e+02   4.4985939653e+01    0.2941447    0.1939075  82.83  0.001257337    1.742    0.426
        35 -10.1114      8.8626    131.6093   1.1299738611e+02   4.6965190341e+01    0.2931116    0.2179296 -59.02 0.0004324524    1.173    0.147
        36 -10.3270     83.2432    129.2972   8.8997605510e+01   3.9066952267e+01    0.3563859     0.277258  88.51  0.001379758    1.595    0.373
        37  -9.8237     73.8375    130.1905   9.2140573617e+01   4.0316995996e+01    0.2223798    0.2017994  81.90 0.0004459822    1.188    0.158
        38 -10.5621      3.5928    125.0325   1.1382968543e+02   4.8953934222e+01    0.4362863     0.285544 -55.00  0.001996346    1.323    0.244
        39 -10.2983      8.2787    103.6311   1.0929973176e+02   5.3991984050e+01    0.3913182    0.2883959 -82.07  0.002299041    1.342    0.255
        40 -11.9980     15.0249    110.1691   1.0798129717e+02   5.1942117917e+01     1.597329    0.4898651 -56.25  0.006400767    2.375    0.579
        41  -8.9748     20.2781    107.4360   1.0567724846e+02   5.2236876733e+01    0.2312706    0.1357632  16.28 0.0006135217    2.003    0.501
        42 -10.6320      4.0310    107.5851   1.1138632825e+02   5.3265400930e+01    0.5480251    0.3902722  76.17  0.001875649    1.607    0.378
        43  -9.9314      2.9880    118.7082   1.1324040789e+02   5.0569578731e+01    0.2649547    0.2201322 -55.32 0.0008497474    1.117    0.105
        44 -10.3479      3.0318    114.7236   1.1270987710e+02   5.1557706877e+01    0.3703447    0.3390345 -88.22  0.001470024    1.166    0.143
        45 -10.2518     50.7441    124.2389   9.8381881675e+01   4.4982869810e+01     0.347572    0.2267798  86.87 0.0008135541    2.070    0.517
        46 -10.6842     64.7184    121.4311   9.3179622604e+01   4.3876849638e+01    0.2997998    0.2175042  55.02   0.00143601    1.625    0.385
        47  -9.5837    188.3020    249.1378   8.5304617824e+01  -4.5663229014e+00    0.2247445    0.1492572  17.20   0.00131879    1.351    0.260
        48 -11.2617    179.4676    242.9648   8.6123989478e+01  -2.3504454117e+00    0.5167718    0.2545361  24.08  0.002453849    2.037    0.509
        49 -10.1090     94.4345    119.9093   8.3308078814e+01   3.9485041045e+01    0.3034365     0.272034 -22.92  0.001559509    1.162    0.139
        50 -10.0576     91.2319    116.5947   8.3475201625e+01   4.0862076681e+01    0.3299659    0.1808353  49.42  0.001003581    2.125    0.529
        51 -10.8591     88.8468    120.3947   8.5162634795e+01   4.0349884537e+01     0.444757    0.2670133  46.02  0.001877284    1.811    0.448
        52 -12.0124     11.9948     72.9409   1.0188656003e+02   6.0979107032e+01     1.371794    0.7777113 -50.93  0.003417803    1.401    0.286
        53 -11.0332    175.6364    238.8794   8.6269989615e+01  -1.1202928201e+00    0.3182427    0.2699211  47.18 0.0009435533    1.435    0.303
        54 -11.3768     32.6387     97.5482   9.9208000608e+01   5.3602573456e+01    0.8953059    0.5348278  72.25 0.0008040691    3.011    0.668
        55 -11.1135     72.3775     88.7996   8.2243588324e+01   5.0545701829e+01    0.5379156    0.4557349 -65.31  0.002869924    1.353    0.261
        56 -10.8344     81.2356    114.5592   8.6154614082e+01   4.3067456619e+01    0.5696763    0.2575783 -51.13  0.001383671    2.063    0.515
        57  -9.8670     90.9210    112.9992   8.2658923167e+01   4.1785003120e+01    0.2656645    0.2283685   4.65 0.0004789813    1.293    0.227
        58  -9.9425     22.7285    112.3381   1.0567360893e+02   5.0821996852e+01    0.4446684    0.2158028   3.29  0.001868903    2.968    0.663
        59  -9.4071     96.5527    115.2625   8.1483911523e+01   4.0224228075e+01    0.2237357    0.1404948 -39.68 0.0009413231    1.626    0.385
        60  -9.0097     32.5116    112.5007   1.0230206121e+02   4.9925787378e+01    0.2047671    0.1342772  -1.22 0.0005953316    1.928    0.481
        61 -10.8051    119.9625    110.4741   7.3334012844e+01   3.6740434729e+01    0.3808701    0.2950612  65.93  0.001174082    1.550    0.355
        62  -7.9807    212.3196    241.6694   7.9452179328e+01  -6.6469580284e+00    0.1056628    0.0985881  51.27 0.0007048261    1.691    0.409
        63 -11.3069     99.3118    109.9509   7.9248204083e+01   4.0968995865e+01    0.3992337    0.3497143  62.82  0.002025736    1.283    0.221
        64  -9.4979    221.3205    239.8783   7.7470253790e+01  -7.5385016897e+00    0.2202748    0.1858328  14.25  0.001179098    1.248    0.199
        65  -9.7330    244.8417    242.7562   7.3733443712e+01  -1.0764725156e+01      0.20453   0.09978388  -6.42 0.0009532792    2.833    0.647
        66  -9.8318      1.8805    100.5827   1.1110558353e+02   5.5087602629e+01    0.3147381    0.2232718 -26.85  0.001010393    1.504    0.335
        67  -8.4738      3.4934     97.4440   1.1003531321e+02   5.5762574200e+01    0.1835671    0.1264707  11.46 0.0005635447    1.732    0.423
        68 -10.4460     14.3752     86.1189   1.0381413768e+02   5.7807928866e+01    0.6951016    0.4458088 -48.71  0.003911382    1.271    0.213
        69 -10.3071     23.1321     90.1545   1.0122772388e+02   5.6208170958e+01    0.8225171    0.3444883 -28.91  0.003123493    3.242    0.692
        70 -10.9314     11.9399     97.4507   1.0692845144e+02   5.5269638399e+01    0.5803852    0.4158168 -31.88  0.002376566    1.388    0.280
        71  -9.1408     21.8248     96.6507   1.0308380288e+02   5.4758869454e+01    0.3488783     0.172025  29.06  0.001158361    2.261    0.558
        72  -9.9909     34.0422    123.1738   1.0371712260e+02   4.7071085212e+01    0.2236863    0.1711483 -41.76  0.000705975    1.282    0.220
        73  -9.5930    191.9891    233.5211   8.2077620513e+01  -2.5937310263e+00    0.2196796    0.1881563 -55.58  0.001188144    1.617    0.382
        74  -9.0404      1.8078     88.5937   1.0919552014e+02   5.7956828007e+01    0.2462586    0.1774279 -58.03   0.00145756    1.103    0.094
        75 -11.6282     77.0245    121.1862   8.9109967726e+01   4.2105294248e+01    0.5588716    0.3943076  37.94  0.001539278    1.494    0.331
        76  -8.8977      7.7433     87.4654   1.0669268444e+02   5.7906297687e+01    0.1982616    0.1228661  18.92 0.0004048872    1.874    0.466
        77 -14.5567     74.4711    101.0744   8.4937561739e+01   4.7402696916e+01     4.073967     1.848614  23.38  0.008043069    3.103    0.678
        78 -10.7791    161.7838     84.3381   5.5980961198e+01   3.2744224248e+01    0.5039128    0.2760337  51.19  0.001272087    1.842    0.457
        79 -11.4119    185.1526     77.7423   4.9906367588e+01   2.8526157483e+01     0.513708    0.2226612 -42.17   0.00205999    2.154    0.536
        80  -8.6421      1.6795     80.1156   1.0770936311e+02   5.9936238945e+01    0.1943287    0.1391577 -76.54 0.0008308208    1.417    0.294
        81  -9.9578    219.7955    218.6435   7.4110919005e+01  -4.0791460880e+00    0.2093257    0.1649205 -23.79 0.0005695552    1.151    0.132
        82  -9.6608    201.0470     76.5284   4.7087059955e+01   2.5178598707e+01    0.2282527    0.1724429 -45.81  0.001048383    1.221    0.181
        83 -10.0794    201.5311     71.9560   4.5923073503e+01   2.5817805211e+01    0.2051018    0.1771915  82.91 0.0004364827    1.153    0.133
        84  -9.8585     70.6664    119.9573   9.0893604153e+01   4.3387731825e+01    0.2148343    0.1850912 -55.63 0.0004043296    1.091    0.083
        85 -10.0395    212.6926    216.3609   7.5049473890e+01  -2.7151259523e+00    0.2365326    0.1879361  -4.13 0.0004186916    1.093    0.085
        86  -8.7270     44.2187     69.0959   8.7100140198e+01   5.8798967486e+01    0.3048432    0.1838209   3.02  0.001430825    2.085    0.520
        87  -9.9104    222.8409    214.3058   7.2768133649e+01  -3.7989390990e+00    0.1860077    0.1595291  33.93  0.001193609    1.442    0.307
        88  -8.7489      3.0780     63.3573   1.0354139182e+02   6.3604031543e+01    0.1639652    0.1408739 -16.41  0.001125935    1.202    0.168
        89  -8.9195    219.7221    210.0448   7.2576965565e+01  -2.6660509281e+00    0.2342959    0.1465593 -28.32 0.0007575048    1.450    0.310
        90  -9.5792     23.6455     43.6399   8.7819283635e+01   6.6048055252e+01    0.2583076    0.2043683 -26.42 0.0007188169    1.057    0.054
        91 -10.0289     30.5124     37.6639   8.2192064042e+01   6.6368937631e+01    0.2486029    0.1934792 -16.22 0.0006158435    1.066    0.062
        92  -9.7168     25.1471     38.8001   8.5268259454e+01   6.6762558021e+01    0.2610623    0.1809328 -13.26 0.0004271613    1.304    0.233
        93  -9.1805     30.7075     42.9154   8.4134936237e+01   6.5436482510e+01    0.2894591     0.163078  16.73 0.0008183307    1.833    0.455
        94  -8.2152    202.4727    208.5113   7.5621160765e+01   1.2352505683e-01    0.1345849    0.1156301  -6.65 0.0008099386    1.008    0.008
        95 -10.8466    111.9585     35.7264   5.2234106401e+01   5.1985209250e+01    0.6458874     0.521613  22.17  0.002850718    1.333    0.250
        96  -8.8442    229.5060    203.4744   6.9570536213e+01  -2.9561946735e+00    0.1302133    0.1057587 -13.60 2.949117e-05    1.007    0.007
        97  -9.4193     41.7358     27.3431   7.2554300034e+01   6.6524443649e+01    0.2777033    0.1735591 -36.04 0.0009022822    1.633    0.388
        98  -9.2428     21.8224    176.7923   1.1426314815e+02   3.4471173088e+01    0.1785271    0.1550613  74.16 0.0002887452    1.094    0.086
        99 -11.6760     41.7280     61.3534   8.5667620991e+01   6.0679299924e+01    0.5925817    0.4006946   7.27  0.001109872    1.578    0.366
       100 -11.3451     42.9743     53.1816   8.2317056640e+01   6.2095251992e+01    0.4406603    0.3006805 -16.49 0.0006391006    1.473    0.321
       101  -8.9311    102.1860     24.6085   5.0677140138e+01   5.5487089088e+01    0.2134053    0.1828507 -19.03 0.0004579931    1.285    0.222
       102  -8.5375     85.1181     22.1017   5.4295090773e+01   5.9426492737e+01    0.2487502    0.1537617  63.00 0.0009438984    1.817    0.450
       103  -9.0494     89.6001     23.2507   5.3471189393e+01   5.8362084667e+01    0.2559111    0.2271356  33.26  0.001058692    1.030    0.029
       104 -10.1218     20.4970    173.5358   1.1428638663e+02   3.5407567701e+01    0.2978341    0.1503288 -83.89  0.001393611    1.853    0.460
       105  -9.4792    115.0052     22.7460   4.7067386124e+01   5.2794233764e+01    0.1893194    0.1542055  55.92 0.0004385107    1.081    0.075
       106  -9.0682     77.5888     22.2353   5.6623609956e+01   6.0942784648e+01    0.2402366     0.154412  40.09 0.0006932048    1.356    0.263
       107  -8.9304     75.0777     18.1802   5.5732358131e+01   6.1884722926e+01    0.2410905    0.1686503 -19.65 0.0009785489    1.527    0.345
       108  -8.3362    109.3662     21.2853   4.7793815938e+01   5.4233161065e+01     0.160198    0.1199072 -38.37  0.000290975    1.514    0.340
