#   1 NUMBER                 Running object number                                     
#   2 MAG_AUTO               Kron-like elliptical aperture magnitude                    [mag]
#   3 X_IMAGE                Object position along x                                    [pixel]
#   4 Y_IMAGE                Object position along y                                    [pixel]
#   5 X_WORLD                Barycenter position along world x axis                     [deg]
#   6 Y_WORLD                Barycenter position along world y axis                     [deg]
#   7 A_WORLD                Profile RMS along major axis (world units)                 [deg]
#   8 B_WORLD                Profile RMS along minor axis (world units)                 [deg]
#   9 THETA_WORLD            Position angle (CCW/world-x)                               [deg]
#  10 FWHM_WORLD             FWHM assuming a gaussian core                              [deg]
#  11 ELONGATION             A_IMAGE/B_IMAGE                                           
#  12 ELLIPTICITY            1 - B_IMAGE/A_IMAGE                                       
         1 -13.3313    231.5140      6.4391   3.5057189075e+01   2.6749302960e+01    0.9087479    0.4662756  71.06  0.004742128    2.067    0.516
         2 -18.8011    235.4916     63.3543   4.8865700075e+01   1.9396723443e+01     7.191712     5.049409 -25.33   0.02942648    1.288    0.224
         3 -14.2920    193.9940     41.6487   4.8000903003e+01   3.1465717629e+01     1.455896    0.9189063  22.16   0.00481729    2.401    0.584
         4 -14.3707     62.0304    137.9392   1.0563448177e+02   3.9729357699e+01     1.876476     1.430623  18.17  0.005572715    1.568    0.362
         5 -12.1338    169.6484     30.9510   4.7989169230e+01   3.8930022875e+01    0.6371301     0.391232 -30.41  0.002962403    1.581    0.368
         6 -10.2912    155.9512      9.4374   4.2522968714e+01   4.4937378904e+01    0.4232077    0.2150258 -10.22  0.001363165    2.485    0.598
         7 -11.0229    120.3373      9.0214   4.7840579089e+01   5.4448011444e+01    0.3770229    0.3397367 -22.39  0.001145787    1.164    0.141
         8 -11.2759    212.1789      5.9456   3.6175228540e+01   3.1142732909e+01    0.2331474    0.1809208 -86.56 0.0002944112    1.264    0.209
         9 -10.2582    182.1984      3.8648   3.7916089666e+01   3.8644141460e+01    0.3015897    0.2215106 -82.24  0.001642955    1.313    0.238
        10 -10.0566    173.9842    194.1702   8.7347644525e+01   1.1034674255e+01    0.1869699     0.165329  -2.68 0.0003669427    1.139    0.122
        11 -11.8465    206.0229    184.6509   7.9775638762e+01   7.5112254719e+00    0.3458994    0.2304218  27.48  0.001218466    1.329    0.247
        12 -12.4724    210.8812    190.5001   7.9927700215e+01   6.0157813212e+00    0.4395871    0.3056388 -29.49  0.002812872    1.476    0.323
        13 -12.4372    219.2165    190.0077   7.8416157008e+01   4.8815815399e+00    0.5918959    0.2531967 -23.50  0.002506102    2.732    0.634
        14 -11.8831    203.3661    189.7191   8.1119282300e+01   7.2221623963e+00    0.4186257    0.2280189  26.78  0.002280029    1.709    0.415
        15  -8.8852     58.6105    186.2620   1.1189195673e+02   2.9262675371e+01    0.1479292     0.110957 -66.31 0.0002691035    1.476    0.323
        16 -11.3379    246.1015    182.3542   7.2773302994e+01   2.0952730497e+00    0.4860604    0.2526902  48.52  0.001457102    2.907    0.656
        17  -9.4167    135.5484    240.7054   1.0093624849e+02   9.7656097891e+00    0.1237729    0.1086403  85.07 0.0009409881    1.581    0.367
        18  -9.5166    218.4808    231.5085   8.5005110673e+01   1.6028507338e-01    0.1087714    0.0793867  13.52 -3.860725e-07    1.021    0.021
        19 -10.9465    188.9565    150.2362   7.6446107831e+01   1.5437550513e+01    0.3242454    0.3192403   1.29 0.0006847586    1.223    0.183
        20 -10.4183    159.3168    158.2011   8.4092401833e+01   1.9383939941e+01    0.2590678    0.2398375 -87.84 0.0008444494    1.359    0.264
        21 -10.0194    176.0426    157.3493   8.0423176269e+01   1.6560160192e+01    0.2123355    0.1902076 -73.69  0.000505814    1.518    0.341
        22 -10.6925    177.4839    174.4961   8.3340333505e+01   1.3511730408e+01    0.2552427    0.1158499  41.74 0.0008819829    2.077    0.519
        23 -11.1967    215.8002    212.7341   8.2680168635e+01   2.5914121133e+00    0.3091375    0.2436731  68.68  0.001808331    3.183    0.686
        24 -10.5534    203.9312    152.4023   7.4099490301e+01   1.2480096427e+01    0.2675434    0.2398099  34.37 0.0009173238    1.247    0.198
        25 -10.5207    154.5211    152.4817   8.4034983604e+01   2.1290625059e+01    0.2832658    0.2082101  81.24 0.0008623327    2.277    0.561
        26 -11.3527    133.4774    145.0803   8.7462996542e+01   2.6584294796e+01     1.111311    0.3169643 -54.54  0.003131091    4.988    0.800
        27 -10.3243    173.4362    150.0279   7.9495281609e+01   1.8276244023e+01    0.2614805    0.1813067  22.54 0.0007263308    1.528    0.346
        28  -9.9996    219.4352    149.0558   7.0734957490e+01   1.0356654063e+01    0.2035533    0.1755688  49.48 0.0004129677    1.483    0.326
        29 -11.2405    145.3993    147.1316   8.5042509197e+01   2.3980524856e+01      0.69459    0.4216204 -77.59  0.002389151    4.169    0.760
        30 -11.6602    142.9883    137.0628   8.3531276517e+01   2.6419363460e+01     0.545274     0.345603 -67.13 0.0008903519    2.363    0.577
        31 -10.2580    180.8111    211.0131   8.8621896780e+01   7.6262171820e+00    0.2763734    0.1387222  47.55  0.001386437    2.423    0.587
        32 -10.5280    197.7827    143.9190   7.3473616761e+01   1.4866392875e+01    0.4105904    0.2767412  68.73  0.001873822    2.746    0.636
        33 -12.8676      9.1013    160.8088   1.2235305651e+02   3.9718903862e+01     1.164021    0.3761209  50.13  0.005369036    2.458    0.593
        34 -12.4808    212.9374    137.2351   6.9370237888e+01   1.3190117447e+01     0.960446    0.5176784  37.14  0.004719645    1.911    0.477
        35 -10.0953    155.7108    138.0916   8.0812617403e+01   2.3772082565e+01    0.2815683    0.2216239 -68.45 0.0009239714    1.662    0.398
        36 -10.0412    192.0824    144.0548   7.4568036364e+01   1.5874115295e+01    0.2295246    0.1822909  28.93 0.0003248562    1.213    0.175
        37 -10.4023    166.8022    134.1316   7.7516761880e+01   2.2357874654e+01    0.2053625    0.1987902 -81.25 0.0005663729    1.205    0.170
        38 -12.4388     49.8522    141.5898   1.0967017253e+02   4.0341368005e+01    0.4104212    0.3765727  40.11 0.0008740446    1.185    0.156
        39 -11.8287    160.1020    128.9439   7.7810980502e+01   2.4644597600e+01    0.4722354    0.3929276 -16.40  0.002206429    1.276    0.216
        40 -11.0830    171.6991    125.5973   7.4549377553e+01   2.2937940766e+01    0.4386028    0.3122339  30.58  0.001754973    1.470    0.320
        41 -10.2111    171.7922    121.3820   7.3543403555e+01   2.3680445337e+01    0.2988396    0.2170853  18.94   0.00144927    1.618    0.382
        42 -10.5126    143.2673    124.7504   8.0736411614e+01   2.8842243455e+01    0.4353306     0.226508 -31.62  0.001667674    2.469    0.595
        43 -11.6299    179.5657    143.7101   7.6939078812e+01   1.8232410591e+01    0.4921645    0.2585187 -39.08  0.002247778    1.917    0.478
        44 -13.8181     22.3771    151.0049   1.1830209607e+02   4.0875143590e+01      1.16005    0.7735057  26.47  0.005173948    1.625    0.385
        45 -10.5337    206.9714    133.4801   6.9587803385e+01   1.4829892194e+01    0.3230937    0.1301821  46.80  0.001036287    2.618    0.618
        46 -11.8214    166.1950    116.7454   7.3613540693e+01   2.5683978698e+01    0.5952982    0.4624038  14.06  0.002980503    1.497    0.332
        47 -10.7981    157.8626    115.3653   7.5101840520e+01   2.7688600023e+01    0.5620359    0.3583772 -67.40  0.002241922    2.564    0.610
        48 -10.1224    173.6631    113.4199   7.1236689969e+01   2.4727373840e+01    0.3536204    0.2622762 -64.89  0.001686778    1.802    0.445
        49 -12.6976      9.5910    139.9254   1.2114224812e+02   4.4498219148e+01    0.9428881     0.445229  86.68  0.004720532    1.898    0.473
        50  -9.1200    163.9545    106.9752   7.1658462889e+01   2.7974171420e+01    0.1766508    0.1646269 -27.16 0.0003086811    1.048    0.046
        51 -10.0984    145.5495    106.4120   7.5698782730e+01   3.2065488764e+01    0.2590318    0.2538335  -8.21 0.0005462528    1.012    0.012
        52 -10.2447    249.0442    162.5305   6.8723439647e+01   4.0396250023e+00    0.2132279    0.1403984  15.84  0.001295352    1.455    0.312
        53 -10.4613    159.6954    142.8143   8.0929436927e+01   2.2124636443e+01    0.3501423    0.2709723  59.56  0.001050476    1.539    0.350
        54  -9.9782    140.9574     77.7247   6.8702936918e+01   3.8733373185e+01    0.2911412    0.2574672  20.86 0.0006790539    1.245    0.197
        55 -10.8701    136.1315     73.9436   6.8703072102e+01   4.0592115532e+01    0.4315736    0.2005652 -31.71  0.001525592    2.459    0.593
        56 -11.2043    133.4853     80.5565   7.1419953211e+01   3.9930751811e+01    0.4443941    0.2267971 -37.57  0.001134101    1.991    0.498
        57 -10.2907    136.7502     78.6083   7.0002075297e+01   3.9552383839e+01    0.2499929    0.2252164  80.65 0.0004317722    1.206    0.171
        58 -10.0040    104.9886     79.9545   7.9274208416e+01   4.6371393632e+01    0.2152866    0.2104881 -62.58  0.001160808    1.011    0.011
        59 -10.4157    164.8164     75.8594   6.2903134825e+01   3.3389053372e+01    0.3461502      0.23209 -50.08  0.001567757    1.562    0.360
        60 -11.3689    195.3197    178.2461   8.0588928608e+01   1.0060444353e+01    0.3834732    0.2599902  41.34  0.001109525    1.505    0.336
        61  -9.5630    125.9920     70.7054   7.0262683226e+01   4.3603879067e+01    0.2986211    0.2021604 -25.91  0.001289475    1.703    0.413
        62 -10.8034    140.0753     64.5217   6.4716639779e+01   4.1376754518e+01    0.4987191    0.2152532 -38.81  0.001808753    2.245    0.555
        63 -11.1826    135.5306     62.7263   6.5198765164e+01   4.2808926465e+01    0.6860498    0.2319318 -43.19  0.001833753    2.969    0.663
        64 -10.9895    143.9906     59.0537   6.2015300710e+01   4.1360708827e+01    0.4268537    0.2928113 -63.31  0.001290093    1.795    0.443
        65 -11.5578    140.3498     37.7367   5.5332591630e+01   4.5641470614e+01    0.5332231    0.3021405  70.41  0.002201655    1.943    0.485
        66 -12.0191    140.2017     44.3479   5.7753736950e+01   4.4697918356e+01    0.7934659    0.4502324  37.86  0.001781829    2.144    0.534
        67 -11.3279    148.3481     40.0264   5.4587255081e+01   4.3237565954e+01    0.3870077    0.3597154 -14.48  0.001337026    1.137    0.120
        68 -10.6097    132.2923     37.6218   5.6983321147e+01   4.7742181825e+01    0.3220248     0.222746 -47.46  0.001138539    1.498    0.332
        69 -12.4397    201.1363    174.3659   7.8821776287e+01   9.7017207366e+00    0.5744151    0.4078032  36.54  0.003046893    1.371    0.270
        70 -11.5924    169.5595     35.7715   4.9568371325e+01   3.8335640974e+01    0.5107778    0.2994431  45.78 0.0006202022    1.891    0.471
        71 -10.2443    204.6940    208.0224   8.3856030985e+01   4.6582163652e+00    0.1587406    0.1261916   4.57  0.000708017    1.077    0.072
        72 -11.1985    197.0931    159.7180   7.6801410242e+01   1.2533537529e+01    0.6551311    0.3711739  62.09  0.002503993    4.115    0.757
        73 -10.9552    192.4695    153.4693   7.6430390589e+01   1.4299786702e+01    0.3231449    0.2426844  -9.81 0.0008951346    1.359    0.264
        74 -11.1410    144.2626     32.4562   5.2646983464e+01   4.5355330926e+01    0.4705146    0.2338084 -16.62  0.001740385    2.611    0.617
        75  -9.6079    142.0031     17.4144   4.7446159028e+01   4.7807114789e+01    0.2062521    0.1934865 -32.76 0.0001290742    1.100    0.091
        76 -10.3226    235.8792    207.0512   7.8510180266e+01   6.3648504315e-01    0.1863253     0.124961  18.36  0.001298715    1.205    0.170
        77  -8.9824    115.9623     12.5116   5.0232331349e+01   5.5226578472e+01    0.2260862    0.1351274  62.96  0.001025696    1.578    0.366
        78 -11.6789    205.8663    199.8267   8.2350879182e+01   5.5301511557e+00     0.267354    0.2059421  -5.64  0.001042675    1.177    0.150
        79 -12.1777    192.7407    195.0034   8.3926266797e+01   8.0796044086e+00    0.8002892    0.4527635 -58.45   0.00338136    4.416    0.774
