#   1 NUMBER                 Running object number                                     
#   2 MAG_AUTO               Kron-like elliptical aperture magnitude                    [mag]
#   3 X_IMAGE                Object position along x                                    [pixel]
#   4 Y_IMAGE                Object position along y                                    [pixel]
#   5 X_WORLD                Barycenter position along world x axis                     [deg]
#   6 Y_WORLD                Barycenter position along world y axis                     [deg]
#   7 A_WORLD                Profile RMS along major axis (world units)                 [deg]
#   8 B_WORLD                Profile RMS along minor axis (world units)                 [deg]
#   9 THETA_WORLD            Position angle (CCW/world-x)                               [deg]
#  10 FWHM_WORLD             FWHM assuming a gaussian core                              [deg]
#  11 ELONGATION             A_IMAGE/B_IMAGE                                           
#  12 ELLIPTICITY            1 - B_IMAGE/A_IMAGE                                       
         1 -13.5083      2.0713     88.8739   1.0593389903e+02   5.7143015867e+01     9.867097    0.9892819 -70.36   0.01521846   19.645    0.949
         2 -11.8297    230.2009     25.6648   2.9180811668e+01   2.6243903646e+01    0.7110794    0.5966728 -58.30  0.002836327    1.139    0.122
         3 -12.5714    212.6145     40.5289   3.4264123384e+01   2.8162755056e+01     1.755245     1.295548  22.73  0.009370528    2.223    0.550
         4 -13.8546     37.2711    190.0730   1.0853914268e+02   2.9931626089e+01       4.9202     1.933753  72.85   0.01572463    4.827    0.793
         5 -11.0380      2.4669     21.5173   8.8809682909e+01   7.0766039849e+01     0.537582    0.1204394 -48.97  0.002342507    3.167    0.684
         6 -10.1343    249.7416      4.7779   2.3545215478e+01   2.4673176470e+01    0.5058528    0.1833397 -38.43  0.002623187    2.408    0.585
         7 -10.5844     22.8801    223.8556   1.1436264268e+02   2.3872711404e+01     0.467157    0.2171422  75.69   0.00237128    2.172    0.540
         8 -10.0587    116.0893    245.0569   9.7182160185e+01   7.4565558604e+00    0.7685884    0.2646765 -65.40  0.002686762    4.871    0.795
         9  -9.9008     82.2618    214.6836   1.0088461202e+02   1.8604154727e+01    0.2877666    0.2220938  89.92 0.0005852673    1.318    0.241
        10 -12.9879     99.3966    227.4084   9.8610475855e+01   1.3399246514e+01     4.155366      1.02955  32.48   0.01267609    4.559    0.781
        11 -12.5891     53.4048    238.2188   1.0936518855e+02   1.7442229278e+01     1.313306      0.77343  27.97  0.003793984    1.970    0.492
        12  -9.3406     28.9696    219.2738   1.1282363548e+02   2.4216897372e+01    0.2079645    0.1341834  74.24 0.0009872551    1.350    0.259
        13  -8.4584     55.1012    222.1244   1.0762135969e+02   2.0597510866e+01    0.1742629    0.1682778 -64.09 0.0007938935    1.309    0.236
        14 -10.8960     20.3497    195.1275   1.1281326581e+02   3.0463457631e+01    0.4514586    0.2786789  36.27 0.0005208924    1.696    0.410
        15  -9.4420     80.7466    247.3790   1.0469210526e+02   1.2080436268e+01    0.2530402    0.1864282  53.39 0.0009244345    1.135    0.119
        16  -8.1593     74.1308    207.6175   1.0189943365e+02   2.1316066025e+01    0.2263551    0.1674434 -89.83 0.0006758322    1.362    0.266
        17  -7.8658     68.4910    208.5078   1.0329048254e+02   2.1879698118e+01    0.1345011    0.1140184  70.28 0.0008101047    1.048    0.046
        18 -13.6241      9.1511    207.4161   1.1604512807e+02   2.8736610784e+01     3.164079    0.9400834 -79.94  0.007317658    3.046    0.672
        19 -12.6070     55.9496    209.0728   1.0617682417e+02   2.3369534380e+01     2.405079    0.5581916  51.95  0.006397706    6.532    0.847
        20  -7.3570     99.3646    181.2693   9.2103343960e+01   2.3708814593e+01    0.1431174    0.1145308 -11.39 0.0006995854    1.656    0.396
        21 -14.0449     14.7378    246.8017   1.1723492803e+02   2.0052665938e+01     2.521303     1.210248  34.74   0.01495158    2.066    0.516
        22 -10.2886     57.2087    174.3226   1.0186241404e+02   3.1432545493e+01    0.4482414    0.2912579 -32.86  0.001686427    2.150    0.535
        23 -10.3813     62.7188    169.3326   9.9750310708e+01   3.1969002542e+01    0.3424158    0.2711978 -39.11 0.0006730771    1.461    0.316
        24  -8.0682    186.8275    174.5823   6.9968691733e+01   9.4449097901e+00    0.1984463    0.1377745  48.69 0.0004811508    1.610    0.379
        25  -9.0368     90.9974    167.1767   9.1914970927e+01   2.8457604376e+01    0.2621456    0.1568485  61.09  0.001090594    2.102    0.524
        26 -12.5072     68.1657    144.8238   9.4339514240e+01   3.7403397384e+01      1.64685    0.9400953  74.31  0.004097945    2.923    0.658
        27 -10.3472     73.4264    160.1865   9.5480378772e+01   3.2810063173e+01     0.387671    0.3028869 -55.40 0.0005090612    1.234    0.190
        28 -11.2552     80.8558    153.7344   9.2320248625e+01   3.3354326231e+01    0.9081192    0.5872566 -36.11  0.001541174    1.856    0.461
        29  -9.4650     36.2183    160.7803   1.0560119229e+02   3.7145735448e+01    0.3254817    0.1980853  73.19  0.001410861    1.834    0.455
        30  -9.7637     32.8542    157.1485   1.0605069173e+02   3.8378489639e+01    0.3573504    0.2460718  66.83 0.0009536477    1.521    0.342
        31 -11.7886     60.1207    155.9707   9.8469241562e+01   3.5642151933e+01    0.5093442    0.3069541 -41.68  0.001253185    1.889    0.471
        32 -10.0818     22.8331    156.0004   1.0856535575e+02   3.9577921565e+01    0.4068597    0.1895439 -85.19   0.00180208    2.220    0.550
        33  -9.3088     23.2595    148.0553   1.0754366125e+02   4.1499883170e+01    0.2971358    0.1288192 -67.08  0.001130785    1.877    0.467
        34  -9.4020     97.1967    139.8304   8.4960499388e+01   3.4226146200e+01    0.5302559    0.3526233 -21.93  0.002202011    2.154    0.536
        35 -10.7095     83.9093    138.9714   8.8633884456e+01   3.6592419471e+01    0.3287157    0.2740543 -49.18 0.0004493965    1.152    0.132
        36  -9.4731    107.1790    130.5196   8.0027344976e+01   3.4746215955e+01    0.4162902    0.3022443  20.60  0.001364403    1.630    0.387
        37 -11.0752     54.6930    120.2765   9.3827095324e+01   4.5274826047e+01    0.8684149    0.3905111 -79.48  0.002518761    4.921    0.797
        38  -8.3598    105.4975    118.9650   7.7744885873e+01   3.7812962708e+01    0.2172897    0.2059002  23.97 0.0003321286    1.087    0.080
        39  -8.2460    205.1908    110.7811   5.1997883676e+01   1.8408889481e+01    0.1948666     0.172625   2.66  0.000960639    1.320    0.242
        40  -7.7904     73.5555    109.5306   8.5350259511e+01   4.5386280423e+01    0.1459364    0.1351869 -45.05 0.0001070048    1.019    0.018
        41  -8.3324     46.0011     91.7629   9.0550098940e+01   5.3099375543e+01    0.2148191    0.1476765  57.45  0.001064503    2.046    0.511
        42  -8.5624     52.5154     91.4805   8.8127183715e+01   5.2418958370e+01    0.1390005    0.1231895 -38.56 3.353982e-05    1.013    0.013
        43  -9.9958     13.0978     60.0974   9.5649071081e+01   6.2863004605e+01    0.2713179    0.1754793 -57.47 0.0007609498    1.385    0.278
        44  -9.0357     45.2762    222.8537   1.0974893250e+02   2.1625988930e+01    0.2792849    0.1377062  86.29  0.001334906    2.292    0.564
        45 -10.8563    221.2818     33.3832   3.1703629373e+01   2.7189615590e+01    0.4786369    0.3557755  45.41  0.001172489    1.754    0.430
        46 -11.9939    204.0317     46.4456   3.6710008685e+01   2.9288305227e+01     1.019492    0.4930228  59.51  0.004172545    2.011    0.503
        47 -10.4659     48.9238    219.4468   1.0868930610e+02   2.1929605167e+01    0.4293182    0.2830042 -82.57  0.002520477    1.433    0.302
        48  -8.5145     32.1545     54.4935   8.5751998395e+01   6.2461673612e+01     0.171759    0.1175369  16.93 0.0005693511    1.515    0.340
        49  -7.9496     42.0814    230.6562   1.1102972484e+02   2.0347925627e+01     0.160124    0.1294024  63.41 0.0006066075    1.057    0.054
        50 -10.4520      7.8564     50.5960   9.5454408036e+01   6.5108286865e+01    0.2821414    0.1737885  40.75  0.001354778    2.315    0.568
        51  -8.5354    129.0370     36.7012   4.6757711481e+01   4.8246965174e+01    0.2372165    0.1824181 -67.73 0.0008581743    1.640    0.390
        52  -9.0899     59.0166    225.5859   1.0711352976e+02   1.9366208171e+01    0.2299084    0.1597704  84.97 0.0007001147    1.391    0.281
        53 -11.6095     27.9380    200.0108   1.1154368120e+02   2.8601006379e+01    0.4868087    0.4068407 -24.47  0.001332105    1.734    0.423
