#   1 NUMBER                 Running object number                                     
#   2 MAG_AUTO               Kron-like elliptical aperture magnitude                    [mag]
#   3 X_IMAGE                Object position along x                                    [pixel]
#   4 Y_IMAGE                Object position along y                                    [pixel]
#   5 X_WORLD                Barycenter position along world x axis                     [deg]
#   6 Y_WORLD                Barycenter position along world y axis                     [deg]
#   7 A_WORLD                Profile RMS along major axis (world units)                 [deg]
#   8 B_WORLD                Profile RMS along minor axis (world units)                 [deg]
#   9 THETA_WORLD            Position angle (CCW/world-x)                               [deg]
#  10 FWHM_WORLD             FWHM assuming a gaussian core                              [deg]
#  11 ELONGATION             A_IMAGE/B_IMAGE                                           
#  12 ELLIPTICITY            1 - B_IMAGE/A_IMAGE                                       
         1 -14.5308     43.7495    201.5530   1.3588122799e+02   2.7612740248e+01     6.858812     1.976502  57.77   0.02139618    4.968    0.799
         2 -14.9096      7.1032    146.7495   1.3982945221e+02   4.4061366303e+01     4.668652       1.2501 -81.13   0.01624012    3.818    0.738
         3 -13.0818    197.1066     33.4727   6.1691136223e+01   3.1743807000e+01     1.157868    0.9722836  66.55  0.005898183    1.202    0.168
         4 -13.9258    212.4619     16.7719   5.5983490267e+01   3.0044971491e+01     1.444982     1.095228  30.67  0.008265234    1.984    0.496
         5 -10.8483      1.8531      5.3870   1.1095212522e+02   7.4718159045e+01    0.5283076    0.1500008 -47.31  0.002482712    3.087    0.676
         6 -11.6017      1.9623     15.0326   1.1536218888e+02   7.3186645653e+01    0.5820501    0.1545656 -49.59  0.002383921    2.932    0.659
         7  -9.4021     13.7915    244.0540   1.4470129196e+02   2.2151783832e+01    0.2686375    0.1713513 -55.79  0.001612688    2.255    0.557
         8 -11.2951    161.6783    249.2201   1.1612420619e+02   5.0053732909e-01    0.3577307    0.1997439  30.39  0.001908409    1.571    0.364
         9 -12.2276    140.7972    248.5861   1.2023517363e+02   3.8973607347e+00    0.5543452    0.3399002  44.55  0.003134763    1.365    0.267
        10 -11.1227    124.4591    249.8212   1.2369048936e+02   6.2581875843e+00    0.4023522    0.1240033  44.23  0.001624708    2.625    0.619
        11 -11.7047     93.1776    249.5906   1.2995971743e+02   1.1047453477e+01    0.5111291    0.3097603  57.56  0.002953423    1.478    0.323
        12 -11.3579    101.0879    248.6737   1.2828229214e+02   1.0038510449e+01    0.3283168    0.2765359 -69.53  0.001432764    1.411    0.291
        13  -8.9187     62.9540    250.5076   1.3596719131e+02   1.5107051544e+01    0.1770143   0.09343976  42.82 0.0004164877    1.523    0.344
        14 -10.8938     30.6155    248.2782   1.4188379553e+02   1.9517984509e+01    0.3723257    0.3394914  20.07   0.00285154    1.685    0.406
        15  -8.7709      8.0491    250.5289   1.4599245255e+02   2.1528702709e+01     0.157067   0.08142053  44.14  0.001023226    1.583    0.368
        16 -10.5493      2.0593    248.2366   1.4692590829e+02   2.2548161786e+01    0.3613097    0.1638677 -86.52  0.001260214    1.935    0.483
        17 -10.7704     13.0327    239.1625   1.4460550085e+02   2.3166929648e+01    0.2664532     0.250013  83.62  0.001925865    1.473    0.321
        18 -10.4682     95.1445    241.9080   1.2878977963e+02   1.2163586001e+01    0.2017415    0.1430429  60.52 0.0005624319    1.267    0.211
        19 -10.0119     55.4977    240.3003   1.3663267943e+02   1.8019266219e+01     0.227664    0.1608809  60.72 0.0007111344    1.109    0.098
        20  -9.5392     53.8345    235.8369   1.3661710840e+02   1.9108577842e+01     0.307605    0.1380975  67.32  0.001453304    2.424    0.587
        21 -14.5697    100.1275    228.6091   1.2628381902e+02   1.3948053591e+01     6.061293      0.31004  39.90   0.01439536    7.136    0.860
        22 -11.0829    183.9898    249.4604   1.1176606601e+02  -2.9913210030e+00    0.3986883    0.1019441  35.40  0.001451377    3.396    0.706
        23 -10.7791     39.0714    246.9781   1.4024624531e+02   1.8776632858e+01    0.3441909    0.2952815  65.83  0.002482621    1.232    0.188
        24  -8.9641     41.2954    229.7120   1.3866147469e+02   2.1895639570e+01    0.3097445    0.1317415  64.48  0.001047411    2.341    0.573
        25 -10.4619      5.9332    224.9998   1.4523577839e+02   2.6669461021e+01    0.2135843    0.1268085  88.56 0.0005862573    1.391    0.281
        26  -9.4647     19.7769    235.1588   1.4316126206e+02   2.3242570806e+01    0.1766461    0.1508364 -10.77 0.0008752138    2.086    0.521
        27 -13.1147     10.2364    207.1763   1.4346040323e+02   2.9965551139e+01      0.76465    0.5883631  33.07  0.002813173    1.560    0.359
        28 -12.5253     31.9597    224.8857   1.4018987065e+02   2.3972966182e+01    0.2917689    0.2596015  83.89  0.000748208    1.268    0.211
        29  -9.2598     48.5213    237.0022   1.3775828045e+02   1.9551226270e+01      0.28377    0.1404674  69.84  0.001256142    2.012    0.503
        30 -10.7351    226.7361    202.3084   9.5671074769e+01  -2.6295168277e+00    0.4507273    0.2857752 -58.29 0.0009878237    3.013    0.668
        31  -9.6720    192.7474    194.1910   1.0074943785e+02   4.4389562433e+00    0.6012666    0.3083788 -64.12  0.001387929    9.753    0.897
        32 -11.4880     59.7855    192.4342   1.3126304272e+02   2.7656821733e+01    0.4152235    0.2716835 -43.98  0.001801819    2.039    0.510
        33  -8.2139    181.5172    192.4565   1.0276511515e+02   6.7918499609e+00    0.1418487    0.1285207  18.59 7.937012e-05    1.004    0.004
        34 -11.6797     65.7782    185.2701   1.2897136312e+02   2.8511465539e+01     0.299897    0.2489845 -54.89 0.0006717221    1.362    0.266
        35 -10.8678     75.9802    173.5651   1.2481975461e+02   2.9833468596e+01    0.2514015    0.2399542  66.58 0.0004213706    1.117    0.105
        36 -13.1766     62.7728    170.8450   1.2786787805e+02   3.2378042546e+01    0.5452265    0.2946904 -46.34  0.001632129    2.239    0.553
        37 -11.8727     83.7225    164.7876   1.2142441958e+02   3.0774001577e+01    0.8566151    0.5836468  56.58   0.00416522    1.490    0.329
        38 -12.8366     66.1835    142.4999   1.2257223297e+02   3.8932079159e+01     2.127271     1.074948  85.85  0.004679773    4.273    0.766
        39 -11.5341     22.5537    156.1996   1.3666785070e+02   4.0525362336e+01    0.3242664    0.2154738  81.63  0.001425385    1.393    0.282
        40  -9.7600     96.9459    149.7462   1.1511011117e+02   3.2255955800e+01    0.2742958    0.2527813 -45.30 0.0007625673    1.158    0.136
        41  -8.9716     99.9638    145.7677   1.1347301399e+02   3.2694352518e+01    0.2733149    0.2053665 -32.33  0.001157925    1.612    0.379
        42 -11.9413     85.3685    148.4981   1.1812461109e+02   3.4522246892e+01    0.3141234    0.2609978 -45.23 0.0005691267    1.286    0.222
        43 -13.7146     38.5270    216.6090   1.3825754244e+02   2.4946793610e+01    0.9053259    0.7130115  62.51  0.003501053    1.072    0.067
        44  -9.2380    109.0222    135.4551   1.0870842060e+02   3.3514138584e+01    0.3367875    0.2298418 -18.82   0.00134379    2.289    0.563
        45 -10.4156     96.1260    132.4490   1.1175205521e+02   3.6643817789e+01    0.2825117      0.23542 -34.69  0.000546107    1.320    0.242
        46  -9.6611     45.5257    233.5017   1.3809394384e+02   2.0617826785e+01    0.2984666    0.1396006  65.91   0.00151509    2.075    0.518
        47  -9.1224    106.3149    122.8383   1.0653457764e+02   3.7061513648e+01    0.2070127    0.1896131 -41.96 0.0003690644    1.109    0.098
        48 -10.0793    167.9040    112.8981   8.7985620567e+01   2.5691633173e+01    0.3964866    0.2995035 -80.04  0.001304067    1.738    0.425
        49  -9.9749     52.6970    111.5676   1.2092356525e+02   4.8410522265e+01    0.2494988    0.1690389 -85.59  0.001101306    1.792    0.442
        50  -9.1477    204.0311    111.2407   8.0318738206e+01   1.7684371372e+01    0.3054176    0.1661146  33.38   0.00115202    2.666    0.625
        51 -11.0690    242.2435    101.3148   7.1961460787e+01   1.1305593855e+01    0.2928989     0.212088  23.19  0.001501049    2.004    0.501
        52 -10.7471    242.6631     93.4913   7.0169041645e+01   1.2490885211e+01    0.2545815    0.1127355 -37.48  0.001095903    1.995    0.499
        53 -12.3156      2.4649     77.6121   1.3259852586e+02   6.0678960567e+01     1.069747    0.1279719 -65.97  0.003396231    4.625    0.784
        54 -10.3900     13.0985     61.3616   1.2471972577e+02   6.3666302796e+01    0.2326097    0.1322682 -48.61  0.001059375    1.391    0.281
        55  -8.8944    159.3102     78.3004   8.0387110681e+01   3.4444818507e+01    0.1535969    0.1212445  21.10 0.0004954597    1.603    0.376
        56 -10.9387    125.3153    244.6644   1.2290281617e+02   7.0088267739e+00    0.1961105    0.1568502  76.21  0.001221097    1.452    0.311
        57 -11.5487    106.9043    243.8675   1.2658834901e+02   1.0020894285e+01    0.3616029    0.2274599 -64.01  0.001315521    1.891    0.471
        58 -10.1612     19.7868    243.5851   1.4360095447e+02   2.1607800006e+01    0.4581983    0.1274558  59.20  0.002002222    3.182    0.686
        59  -9.7247     16.8272     25.3061   1.1108024209e+02   7.0343450827e+01    0.1645767    0.1378961  25.62  0.001163947    1.486    0.327
