#   1 NUMBER                 Running object number                                     
#   2 MAG_AUTO               Kron-like elliptical aperture magnitude                    [mag]
#   3 X_IMAGE                Object position along x                                    [pixel]
#   4 Y_IMAGE                Object position along y                                    [pixel]
#   5 X_WORLD                Barycenter position along world x axis                     [deg]
#   6 Y_WORLD                Barycenter position along world y axis                     [deg]
#   7 A_WORLD                Profile RMS along major axis (world units)                 [deg]
#   8 B_WORLD                Profile RMS along minor axis (world units)                 [deg]
#   9 THETA_WORLD            Position angle (CCW/world-x)                               [deg]
#  10 FWHM_WORLD             FWHM assuming a gaussian core                              [deg]
#  11 ELONGATION             A_IMAGE/B_IMAGE                                           
#  12 ELLIPTICITY            1 - B_IMAGE/A_IMAGE                                       
         1  99.0000     24.4966     38.9223   8.4948527805e+01   6.6581882917e+01     1.141183    0.8112805  80.26  0.004849319    4.811    0.792
         2 -12.7458     43.6332     46.1205   7.8749951177e+01   6.3051559554e+01     1.384297    0.7613597  45.10  0.005884245    2.369    0.578
         3 -12.3726    125.2344     27.8001   4.6308544894e+01   4.9651976558e+01     0.778915    0.4754994  51.48  0.001913771    1.458    0.314
         4 -12.0774    119.4744     57.1530   5.7003125665e+01   4.7037170726e+01     2.666499     1.460294 -69.19  0.007937663    5.290    0.811
         5 -11.3521    105.9062     20.5169   4.8019046092e+01   5.4848106403e+01    0.5223967    0.4216627 -61.72  0.002320193    1.534    0.348
         6 -12.2540    106.4110     32.5655   5.2106844246e+01   5.3384813150e+01    0.7863194    0.4521247  17.93  0.003116284    2.777    0.640
         7 -11.5013    145.6645     46.8983   4.8124919971e+01   4.2455177543e+01    0.9832034    0.4356046 -26.89  0.003480077    2.870    0.652
         8 -11.4997    157.7677     42.9129   4.4833302277e+01   4.0132137943e+01    0.9680232    0.6117157  70.80  0.003872222    1.534    0.348
         9 -11.6052    165.5758     17.4829   3.6856285693e+01   4.1300935923e+01    0.6932576    0.4021387  28.21  0.003168516    3.048    0.672
        10 -12.6817    119.5595     37.8925   5.0778325997e+01   4.9751154998e+01    0.8438554    0.5853112 -74.25  0.002934819    2.045    0.511
        11  99.0000     86.1304     30.8077   5.7005869826e+01   5.7942281190e+01    0.9592667    0.4252563 -16.89  0.003615181    3.682    0.728
        12 -11.2193    183.3250     25.7205   3.6760996537e+01   3.6303069524e+01    0.5841048    0.4509363  30.65  0.003189435    1.839    0.456
        13 -10.8509    124.7639     20.6265   4.4111752883e+01   5.0533908845e+01     1.460324    0.5180548 -50.57  0.004783657    4.976    0.799
        14 -11.0034    139.4600     30.2989   4.4384239286e+01   4.6033385718e+01    0.6065369    0.3215134 -13.01  0.001668939    3.023    0.669
        15 -10.8762    145.8494     23.8536   4.1411970869e+01   4.5251183915e+01    0.7960786    0.2920091  47.29  0.003120696    2.935    0.659
        16 -10.4871    147.9723     16.3277   3.8938392900e+01   4.5535705406e+01    0.6235574    0.2754707  37.81  0.002439136    3.550    0.718
        17 -11.8808    135.4036     23.1164   4.2943623125e+01   4.7788841715e+01     1.520752      0.92404 -66.30  0.007423909    2.165    0.538
        18 -12.0317    133.9834     15.3030   4.0817515102e+01   4.8915274032e+01     1.361555    0.5567066  77.22  0.005229867    3.121    0.680
        19 -10.7470     59.8451     23.7411   6.3004547203e+01   6.3831087742e+01      0.42172    0.1993983 -24.03  0.001769137    2.390    0.582
        20 -10.3422     47.0679     19.0925   6.6065344273e+01   6.6543370302e+01    0.3291855    0.2320639 -18.84  0.001517216    1.390    0.281
        21 -12.3040     36.1691     17.4506   7.0161607518e+01   6.8393866855e+01    0.6502392    0.3922161 -30.65  0.002369489    1.654    0.396
        22 -11.9510     48.3378     12.8475   6.2676658173e+01   6.7065383928e+01    0.6684582    0.3014289  46.53   0.00336258    2.141    0.533
        23 -11.7929     27.2295     27.9605   7.9199762140e+01   6.8073450201e+01    0.5580059    0.4150522  -5.67  0.002431512    1.132    0.117
        24 -12.0584     20.1917     21.7428   8.0136559758e+01   6.9808947453e+01    0.6147864    0.2555207 -38.61  0.002074253    2.209    0.547
        25 -12.7792     16.9324     12.6956   7.7726126772e+01   7.1456350794e+01      0.82924    0.4963126 -12.82  0.003851377    1.571    0.363
        26 -12.1792     23.1402     11.2916   7.3684410182e+01   7.0915335389e+01     0.501418    0.3446658   5.10  0.003350606    1.229    0.186
        27 -10.4820     86.7473      7.4598   4.7816108318e+01   6.0246018819e+01    0.6369199    0.2948462  60.61  0.002987592    1.970    0.492
        28 -11.0486     91.0104     21.0341   5.1914538159e+01   5.8044314631e+01    0.5683647    0.3456167 -31.99  0.002615005    1.836    0.455
        29 -11.0799     74.7643      3.5779   4.9460836271e+01   6.3048399885e+01    0.5036883    0.2624066  50.86  0.002758531    1.557    0.358
        30 -10.9821    178.7936     20.9959   3.6138429357e+01   3.7872111325e+01     0.511227    0.2378919  48.77  0.001784264    2.540    0.606
        31 -10.4186     65.8672     10.4820   5.5142074466e+01   6.4181836416e+01    0.4047638    0.1784243  41.02   0.00199857    1.923    0.480
        32 -11.8938     68.1447     18.1835   5.7678326956e+01   6.2958416302e+01    0.4919065    0.4010355  41.01  0.001403716    1.152    0.132
        33 -11.0246    232.8244      7.4269   2.8381879006e+01   2.7756062066e+01    0.4470284    0.2270504  71.09  0.002674016    1.865    0.464
        34 -11.7388    246.9594      6.6436   2.7339770736e+01   2.5114409456e+01    0.6273988    0.4464586  -5.43  0.003774554    3.024    0.669
        35 -10.9383    242.2239      3.5629   2.7066651491e+01   2.6342143333e+01     0.505865    0.1750999  64.68  0.002595023    2.890    0.654
        36 -10.3797    233.5571      3.0260   2.7501629628e+01   2.8077367043e+01    0.2760065    0.1392711 -78.83  0.001113255    1.800    0.444
        37 -11.9398    237.1156     16.0765   2.9733255025e+01   2.5955541672e+01     0.723975    0.3195858  75.52  0.003969996    2.146    0.534
        38 -10.7024    183.7511      5.3572   3.1864672290e+01   3.8358800417e+01    0.4707566    0.3787857  40.15  0.003102658    1.638    0.390
        39  -9.5905    191.3770     16.8509   3.3782589992e+01   3.5479117676e+01    0.2513323    0.2349684 -18.78  0.001755911    1.421    0.296
        40 -11.6418    192.1875      8.1985   3.1728547456e+01   3.6202614409e+01     0.714538    0.4878819 -24.75  0.003809501    1.862    0.463
        41  -9.4890     78.2484      7.4325   5.0074975894e+01   6.2015668551e+01    0.2388552     0.183556  73.85 0.0008513472    1.590    0.371
        42  -9.8079    211.2682     16.8305   3.1915961895e+01   3.1147697961e+01     0.252189     0.137835 -40.69  0.001062274    1.747    0.427
        43 -11.5621    227.7067     15.6209   3.0336292944e+01   2.7877513103e+01    0.4345922    0.2599604 -82.98  0.001279812    1.499    0.333
        44 -12.3107    105.1252     12.9611   4.5534894145e+01   5.5758154941e+01    0.4872901    0.4075939 -19.78  0.001671177    1.376    0.273
        45  -9.8024     98.8300     11.4244   4.6391703929e+01   5.7292636803e+01    0.3422011    0.1998838  25.76  0.001753611    2.045    0.511
        46 -10.9988    114.9629      2.4199   3.9992774330e+01   5.4427804049e+01    0.5111143    0.2249187  70.53  0.002313583    2.119    0.528
        47 -10.3102      5.2515     12.7527   8.4514856298e+01   7.2595772075e+01      0.31688    0.1774656  22.13  0.001911245    1.717    0.418
        48  -9.3091      5.4465      9.4686   8.2845606289e+01   7.3054004279e+01    0.1776162    0.1244807  -9.87 0.0008425525    1.096    0.087
        49 -11.4447    211.7299      9.9425   3.0430031100e+01   3.1798640921e+01    0.4551558     0.338649   9.66  0.002715261    2.512    0.602
        50 -10.7745    218.7657      3.1727   2.8519164214e+01   3.1036451067e+01     0.351145     0.236452 -40.93  0.001080525    1.520    0.342
        51 -10.1801    228.2411      3.0017   2.7840096261e+01   2.9133153224e+01    0.2622285    0.1786537 -43.07  0.001305407    1.461    0.315
        52 -10.7608    224.0100      2.1813   2.7962602059e+01   3.0068092101e+01    0.2912046    0.1826919 -73.44  0.001723953    1.305    0.234
        53 -11.6144     85.8440     14.5930   5.0839361382e+01   5.9786964655e+01     0.526671    0.3101847  -7.54  0.002230289    2.132    0.531
        54  -9.8392    168.4560      9.9953   3.4588934894e+01   4.1387090031e+01     0.371068    0.1236445  57.61  0.001588973    2.626    0.619
        55  -9.4481    163.0007     10.0311   3.5236362269e+01   4.2643223141e+01    0.2415314    0.1859547   1.14  0.001463461    1.856    0.461
        56  -9.0684    162.9973      6.2900   3.4267845072e+01   4.2994723434e+01     0.167429    0.1342172  84.04 0.0003026793    1.043    0.041
        57  -9.6153      1.2264      7.5275   8.4519081233e+01   7.3693562218e+01    0.1761299   0.07580877 -41.77 0.0005746335    2.099    0.524
        58 -11.1851      2.6916      1.9548   8.0783422190e+01   7.4331983415e+01    0.3429924    0.1714901  10.14  0.001844725    1.946    0.486
        59  -9.8105     13.0964      1.8217   7.4378052782e+01   7.3281166176e+01     0.386032    0.1364622  31.47  0.001959468    2.577    0.612
        60  -9.3533    157.6537      7.0555   3.5101065822e+01   4.4160481572e+01    0.1986311    0.1705841  12.09 0.0004966674    1.547    0.354
        61 -10.1149    157.5041      2.0867   3.3806067833e+01   4.4635662466e+01     0.300557    0.2025755  68.48  0.001830054    1.254    0.202
        62  -9.2736    153.6269      7.2465   3.5652570395e+01   4.5077985199e+01    0.2214206    0.1166143  54.98 0.0008357893    1.750    0.429
        63  -9.6053     62.7202      6.8384   5.4587910584e+01   6.5119660753e+01    0.2349331    0.1506772  21.38  0.001386563    1.525    0.344
        64 -10.9395    176.8645      5.8587   3.2660866780e+01   3.9862443624e+01    0.3480808    0.1770637  81.73  0.001059983    1.791    0.442
        65 -10.3154     41.4495      4.0852   6.1345102669e+01   6.9108398874e+01    0.3671246    0.1963562   9.14  0.001904035    2.318    0.569
        66 -11.6955    134.4590      2.9930   3.7046419339e+01   4.9899032895e+01    0.5528287    0.2723104  77.31  0.002572146    1.951    0.487
        67 -10.0008    142.9089      3.5537   3.6027322945e+01   4.7891781234e+01    0.3995908    0.1838337  76.69  0.001898819    2.043    0.511
        68 -10.9919    205.5633      2.5499   2.9367652634e+01   3.3862713077e+01    0.4972449    0.2234454  83.74  0.002197738    2.043    0.510
        69  -9.2157     33.6514      1.6366   6.3565973384e+01   7.0570372942e+01    0.1793708    0.1059741  14.42  0.001068258    1.636    0.389
        70  -9.3335    151.9460      1.2876   3.4248311188e+01   4.5987009227e+01    0.2425319   0.09744649  78.08 0.0008963627    2.398    0.583
        71 -10.9852    105.5956      1.8667   4.1542204971e+01   5.6583274872e+01    0.5704434    0.2435351  70.90   0.00168783    2.373    0.579
        72 -10.4657     82.1616      1.3221   4.6552112451e+01   6.1706169479e+01    0.1933196   0.09303587  56.55 0.0003172905    1.706    0.414
        73  -9.5816    234.1307    150.3640   5.7529171885e+01   5.8240434584e+00    0.2033589    0.1640643   6.14  0.001010568    1.444    0.307
        74  -9.9435    142.8257    249.8218   9.3726129217e+01   2.0865863886e+00    0.1787881    0.1396479  48.09  0.001077787    1.341    0.254
        75 -10.6303     41.3839    149.0713   1.0467135781e+02   3.9699116158e+01    0.2905768    0.2361527  12.11 0.0003646837    1.458    0.314
        76 -10.7897     46.4889    145.9340   1.0265923097e+02   3.9936789471e+01    0.6393727    0.2450226 -58.37  0.002041755    2.228    0.551
        77 -10.2568     49.7274    145.9990   1.0168978057e+02   3.9541210680e+01    0.2454153    0.2411483 -63.01  0.001465967    1.091    0.083
        78  -9.1878     33.5031    154.5107   1.0773759350e+02   3.9125661768e+01    0.2546311    0.2139504 -58.27  0.000885033    1.146    0.128
        79 -10.9900    249.1082    142.7862   5.3709994651e+01   4.7413978952e+00    0.4875578    0.2258283 -31.75   0.00220635    2.162    0.537
        80 -10.1086    239.5504    146.5665   5.5904112013e+01   5.6106249984e+00    0.2339984    0.1928643 -36.22 0.0006888261    1.019    0.019
        81 -10.9278     33.4756    144.4249   1.0636179224e+02   4.1717462191e+01    0.4325218    0.2848755  51.67  0.001587298    1.666    0.400
        82  -8.9932    233.9499    143.4510   5.6152624417e+01   7.0783750526e+00    0.1630274    0.1179418  83.98  0.000805665    2.355    0.575
        83  -8.9473    104.6399    142.2425   8.4570681955e+01   3.2178553391e+01    0.2112091    0.1407818 -45.81 0.0005144042    1.485    0.327
        84  -8.9531     59.0424    142.7412   9.8294333932e+01   3.9219868899e+01    0.1737964    0.1270164  32.13 0.0007322812    1.459    0.315
        85  -9.6135    132.8616    140.3796   7.6432212211e+01   2.7224233858e+01    0.2815891    0.2169872 -58.38  0.001009531    1.358    0.264
        86 -10.5185    217.0089    138.3811   5.7889757205e+01   1.0953136021e+01     0.332889     0.254645 -47.89  0.001157336    1.219    0.180
        87  -8.6729     53.6911    139.7502   9.9415555466e+01   4.0671579990e+01      0.22634    0.1025952  40.94 0.0008954117    2.329    0.571
        88  -9.4989     32.5350    137.5364   1.0563789504e+02   4.3576980022e+01    0.2676013    0.2168806  62.08  0.001174374    1.337    0.252
        89 -11.4560     22.9345    135.7133   1.0835133393e+02   4.4914129847e+01     0.694438     0.444904  39.99  0.003660214    1.715    0.417
        90 -11.5665     30.0942    132.9336   1.0570398183e+02   4.4985934570e+01    0.4739679    0.3676118 -84.37 0.0004574087    1.271    0.213
        91  -9.8932     80.2556    137.3371   9.0733533320e+01   3.7546912718e+01    0.4460347    0.2878808 -26.32  0.001858667    2.083    0.520
        92 -10.4192     46.5219    134.8081   1.0080001097e+02   4.2798327901e+01    0.4676012    0.3455851  81.80  0.002131882    1.565    0.361
        93  -9.9932     39.5679    137.6983   1.0347229132e+02   4.2822687773e+01    0.3812838    0.1827858  45.30  0.001604642    2.351    0.575
        94  -9.6161     38.6334    133.1473   1.0302550519e+02   4.4088140001e+01    0.2613674    0.2018961  67.83 0.0007668018    1.460    0.315
        95  -9.9652     93.1586    134.9663   8.6318374211e+01   3.6011990848e+01    0.2479538    0.1759951 -85.43  0.000485895    1.928    0.481
        96  -9.6173    245.2984    134.6764   5.2651000839e+01   6.7325383917e+00    0.1281794   0.09201865 -61.83 0.0003579408    1.627    0.385
        97 -10.4341     74.1569    132.5218   9.1611776976e+01   3.9706497041e+01    0.3364852    0.2204411 -27.84  0.001449137    1.936    0.484
        98 -10.0719     61.4530    132.3933   9.5601024323e+01   4.1555103159e+01    0.4285938    0.2894894  10.99  0.001899338    1.867    0.464
        99  -9.5459    103.8187    130.9082   8.2238017964e+01   3.5104525413e+01    0.2292091    0.2056827 -16.77 0.0003383085    1.200    0.167
       100 -10.7657      9.4361    128.4216   1.1158466896e+02   4.7778191024e+01    0.4376927    0.2559189 -64.42  0.002319509    1.396    0.284
       101  -9.9170    240.8629    128.4289   5.2032938516e+01   8.5443264670e+00    0.2485999    0.1660413  -9.62  0.001208314    2.319    0.569
       102 -10.0024     81.5333    125.5453   8.7764753973e+01   4.0299606546e+01    0.2614318    0.1937109   0.62 0.0007911767    1.746    0.427
       103 -10.7340     22.7628    127.0409   1.0715409738e+02   4.7128817911e+01    0.2206152     0.198111 -62.44 0.0003104717    1.046    0.044
       104  -9.3796     56.7785    122.1922   9.5060105844e+01   4.4757704523e+01    0.2070962    0.1615293 -31.55 0.0009096203    1.350    0.259
       105  -9.6513     53.4998    125.4212   9.6799128881e+01   4.4359393276e+01    0.3240737    0.1562511 -54.65  0.001352535    1.834    0.455
       106 -10.3588     48.8216    112.5324   9.5727276203e+01   4.8156184685e+01    0.3951788    0.2868637 -29.02  0.002015404    1.475    0.322
       107 -10.1256     49.6037    123.2036   9.7650794333e+01   4.5395648105e+01    0.3164903    0.2499092  -0.31  0.001081027    1.483    0.325
       108 -11.2450     44.5596    118.4150   9.8404368846e+01   4.7185557903e+01    0.6219125     0.403292 -79.81  0.002239475    1.801    0.445
       109  -9.6663      1.9348    125.7560   1.1360211595e+02   4.8908581350e+01    0.2579271    0.1628347 -82.16  0.001109076    1.426    0.299
       110  -9.3594     92.8749    129.1177   8.5079217002e+01   3.7507937024e+01    0.2452957    0.2138518  72.23  0.001236382    1.298    0.230
       111 -12.9569    103.8209    122.4192   8.0199097411e+01   3.7146561152e+01    0.4159166     0.378076  -0.84 0.0004731605    1.184    0.155
       112  -9.7997     18.9801    122.8340   1.0775428893e+02   4.8492141603e+01    0.2922537    0.1588308 -64.12  0.001009822    1.531    0.347
       113  -8.5978     77.6569    123.3205   8.8487508053e+01   4.1471086212e+01    0.1557675    0.1176981  73.04 0.0007049923    1.724    0.420
       114  -8.7661    143.4697    122.4397   6.9414707236e+01   2.9104032651e+01    0.1535607    0.1510135 -33.25 0.0003265337    1.013    0.013
       115  -9.2682     71.3294    120.9223   8.9986621057e+01   4.3039786735e+01    0.2127631    0.1826625 -48.71 0.0005290128    1.096    0.088
       116  -8.8729    221.4824    120.5047   5.3313551719e+01   1.3401471002e+01    0.1386826    0.1204033 -47.81 8.520594e-05    1.030    0.029
       117 -10.1529     33.8487    118.7329   1.0210751140e+02   4.8227792602e+01    0.2408385    0.1132095 -33.90 0.0008167627    2.708    0.631
       118  -9.2165     57.8052    118.1528   9.3861299345e+01   4.5634583210e+01    0.2038819    0.1646749 -29.85 0.0005385223    1.286    0.222
       119  -9.4577    113.7112    116.1157   7.5733910175e+01   3.6701904939e+01    0.3066271    0.1902247 -44.11  0.001300143    1.593    0.372
       120  -9.1619    109.4132    116.7347   7.7131487955e+01   3.7408976085e+01    0.2046833    0.1448921 -38.24 0.0001916935    1.448    0.309
       121 -11.9956      7.2557     89.0459   1.0632256772e+02   5.7494875522e+01    0.6575412    0.4185254  14.37  0.002034227    1.803    0.445
       122 -10.6453     16.1834    109.7053   1.0663833162e+02   5.1963878114e+01    0.3890431    0.2277871  50.70 0.0009399877    2.150    0.535
       123 -10.3846     18.5539    106.0081   1.0517020410e+02   5.2695503943e+01     0.284291    0.2038724  29.03 3.259843e-05    1.594    0.373
       124 -11.9532      9.4349     97.2524   1.0696332972e+02   5.5429210216e+01     0.551461    0.4491577  -2.85 0.0004796259    1.384    0.277
       125 -11.8693     42.1390     85.6892   9.1842944748e+01   5.5297625848e+01     1.021928    0.5757599  17.46   0.00433899    2.007    0.502
       126 -11.7747     17.1903    100.7736   1.0472693240e+02   5.4065705517e+01    0.3933562    0.2797534 -42.62 0.0006117334    1.261    0.207
       127 -11.8313     35.8924     93.2508   9.6128633964e+01   5.4232086621e+01     1.147082     0.647521 -65.07  0.004315567    1.817    0.450
       128 -11.3298     26.5520     86.1133   9.8107138966e+01   5.6774637707e+01    0.7380356    0.5074927  19.53  0.002955252    1.591    0.372
       129 -11.4969     22.8519     94.7951   1.0144845002e+02   5.5060634689e+01    0.4358848    0.2916437  -3.91    0.0011933    1.728    0.421
       130 -11.3324     18.3381     90.4153   1.0228373205e+02   5.6443185097e+01    0.4683037    0.2932583 -59.81  0.001287194    1.375    0.273
       131 -12.6964     24.7275    106.6315   1.0307147961e+02   5.2053758612e+01     1.218575    0.9451576 -42.84   0.00548655    1.175    0.149
       132 -11.5988     22.2168    113.9564   1.0525326650e+02   5.0454039076e+01    0.4865973    0.2897622   1.61  0.001884589    2.143    0.533
       133 -11.3483     28.1702    113.3150   1.0308050965e+02   5.0108901147e+01    0.4604562    0.2784579   3.47  0.002234118    2.096    0.523
       134 -12.5808      2.2735    111.6303   1.1170870319e+02   5.2366158664e+01    0.5535403     0.390354  68.93 0.0005938484    1.653    0.395
       135 -11.0772      4.1379    104.7547   1.1008672010e+02   5.3934772080e+01    0.4080286    0.3344823  35.41  0.001926054    1.456    0.313
       136  -9.3660     79.0964    114.3618   8.5906932723e+01   4.3432820176e+01    0.2771947    0.1941729 -42.55  0.001301571    1.389    0.280
       137  -9.5326     67.3974    114.6001   8.9835749832e+01   4.5180228340e+01    0.2969716    0.2163994  55.37  0.001423514    1.648    0.393
       138 -10.3390     66.5485    110.2993   8.9104984955e+01   4.6350847322e+01    0.4154038    0.3322018 -22.98  0.001745933    1.341    0.254
       139  -8.8723    126.5451    113.5300   7.1507032372e+01   3.4654013679e+01    0.1546649    0.1507381 -19.41 0.0008079628    1.032    0.031
       140 -10.2340    108.0478    112.2579   7.6373430538e+01   3.8707536624e+01    0.3903632    0.3325229  70.71  0.001933789    1.373    0.272
       141 -10.8751    102.7696    109.4750   7.7211401609e+01   4.0370069903e+01    0.6447811    0.5443926 -17.46  0.003227738    1.304    0.233
       142 -10.0023     94.6063    112.2209   8.0425897046e+01   4.1265173055e+01    0.3404764    0.3001813   8.35  0.001756562    1.220    0.180
       143 -10.6371    170.5031    110.5317   6.0275021838e+01   2.5742943283e+01    0.4225472    0.3058059 -40.75  0.001261337    1.341    0.254
       144 -10.5282    133.4754    111.0123   6.9022946017e+01   3.3734253374e+01     0.354608    0.3194511 -44.99  0.001828447    1.097    0.088
       145 -10.3330    120.9492    109.0954   7.1862721455e+01   3.6804203584e+01    0.4598354    0.2977865  27.14  0.001520949    1.885    0.469
       146 -11.6700     79.1315    108.1527   8.4345146440e+01   4.4910315104e+01    0.6480895    0.3426572  28.90  0.002627918    2.101    0.524
       147  -9.2056     59.6397    110.0897   9.1426557607e+01   4.7375473824e+01    0.3225292    0.1646948  48.57  0.001275391    2.503    0.600
       148 -10.3906    147.4309    111.2097   6.5603145154e+01   3.0664321161e+01    0.3244435    0.2264626 -22.18    0.0013981    1.832    0.454
       149 -10.5024    143.3047    106.0037   6.5241192071e+01   3.2657801499e+01    0.3218378    0.2677795  63.03   0.00123759    1.286    0.223
       150 -11.5117    145.5637    100.2444   6.3171406428e+01   3.3335333750e+01    0.5821679    0.3776744 -27.28   0.00166428    1.878    0.467
       151 -11.6484     88.8082    104.5007   8.0233572371e+01   4.4101526481e+01    0.4885044    0.3498654  28.71 0.0002267106    1.478    0.323
       152 -10.8567     49.5917     90.3641   9.0197967339e+01   5.3345634043e+01    0.5989342    0.4302494 -32.19  0.003145874    1.353    0.261
       153 -10.1131     52.5104     96.0104   9.0557796695e+01   5.1673565305e+01    0.3659157    0.2055823 -66.47  0.001449907    2.130    0.531
       154  -9.4560     45.6807    105.6981   9.5343569982e+01   5.0198186559e+01    0.2106899    0.1733767 -35.64  0.000351934    1.154    0.133
       155 -10.7867     49.4014    102.6566   9.3308903661e+01   5.0490569832e+01    0.5570431     0.359755 -17.39  0.001964531    1.951    0.487
       156  -8.8114    189.3241    105.0047   5.5256814892e+01   2.2733485270e+01    0.2351862    0.1198875 -21.60 0.0007049771    4.302    0.768
       157  -9.6459    181.4773    104.0133   5.6481216429e+01   2.4615049624e+01    0.2322185      0.13828 -42.62 0.0009882025    1.591    0.371
       158 -10.2720     57.3278    102.7758   9.0493279930e+01   4.9448135302e+01    0.3357702    0.2147678 -57.82  0.001112104    1.514    0.339
       159  -9.3903    120.5813    101.2290   6.9835716308e+01   3.8586303764e+01    0.2177438    0.1451582 -33.41 0.0008211205    1.629    0.386
       160 -11.3856     89.5824     89.7511   7.5859487318e+01   4.7225969489e+01    0.6351352    0.3494789 -33.73  0.002158192    2.055    0.513
       161 -11.2176     80.2281     92.9677   7.9891634078e+01   4.8198715940e+01    0.8254161       0.3704  40.10  0.003215694    2.279    0.561
       162 -10.7835     80.7593     98.2464   8.1183005094e+01   4.6929532843e+01    0.3997938    0.2858859  40.16  0.001938344    1.452    0.311
       163  -9.4262     77.6848     96.6969   8.1795854364e+01   4.7796926098e+01    0.2330879    0.1738579 -30.14 0.0004904222    1.388    0.279
       164  -9.9980    211.0132     97.3784   4.9845459207e+01   1.9566016160e+01    0.4346878    0.2799203  27.94    0.0019418    2.587    0.613
       165 -11.5043     68.0453     96.1373   8.4983928294e+01   4.9461992983e+01    0.6812167    0.5144649 -13.21  0.002923368    1.515    0.340
       166 -11.3847    125.0385     94.0200   6.6620666623e+01   3.9131426318e+01    0.6060418    0.3639416  47.60  0.001667427    1.665    0.399
       167 -11.2588    120.9855     89.0237   6.6285267654e+01   4.1016717356e+01     0.360205    0.2803626 -20.75   0.00126044    1.485    0.326
       168 -10.4538     42.9223     94.7903   9.3827725199e+01   5.3115579553e+01    0.3459681    0.3128378  21.38  0.001478378    1.204    0.169
       169  -9.2208    142.7580     95.3971   6.2532647243e+01   3.4931465081e+01    0.2071258    0.1421507  39.69  0.000291518    1.543    0.352
       170  -9.4576    160.5591     93.8937   5.8126146845e+01   3.1198823389e+01    0.3082225    0.2018404  73.22  0.001317837    1.990    0.497
       171  -9.1749    104.3662     93.5574   7.2341847406e+01   4.3561915769e+01     0.297321    0.1341845 -57.52 0.0009531775    3.281    0.695
       172 -10.7686    153.0879     92.0063   5.9242109649e+01   3.3254205213e+01    0.4590293     0.299666  46.97  0.001080874    1.555    0.357
       173 -11.4096     98.4601     91.0553   7.3420862176e+01   4.5259423301e+01    0.2980273    0.2679987  26.20 7.278224e-06    1.110    0.099
       174 -10.1393     66.2119     88.9169   8.3649411899e+01   5.1364424003e+01    0.4059444    0.2558785   5.80  0.001331723    2.196    0.545
       175 -10.4368    183.7404     86.0839   5.1655492450e+01   2.7391065273e+01    0.6774204    0.2555438 -47.26  0.002462739    2.642    0.621
       176 -10.4698    104.3491     87.5038   7.0584143494e+01   4.4822026635e+01    0.4753611     0.303898 -19.73  0.001956666    2.187    0.543
       177 -11.8814    112.4150     83.0564   6.6909960899e+01   4.4032308309e+01    0.7524419    0.4701033  58.29  0.003256615    1.872    0.466
       178 -10.8794    142.5415     84.5089   5.9579579448e+01   3.7071922546e+01    0.5339992    0.3141424  41.25 0.0009433654    1.818    0.450
       179  -9.9202     75.8098     75.4836   7.6194583623e+01   5.2636534332e+01    0.4479823    0.2897088 -62.41  0.002000596    2.162    0.537
       180 -10.6807     80.2488     83.3845   7.7085058380e+01   5.0251336662e+01    0.4618024    0.2999076 -37.77  0.002182432    1.529    0.346
       181 -11.6939     75.1735     80.3023   7.7913403669e+01   5.1766267023e+01     0.802815    0.5585354  68.78   0.00207968    2.427    0.588
       182 -10.3678     67.0557     82.1679   8.1388375665e+01   5.2697628221e+01    0.3862833    0.3187723 -29.85  0.001794332    1.150    0.130
       183 -11.0571     60.6140     83.5795   8.4180831146e+01   5.3366437751e+01    0.2842305    0.2563157 -44.14 0.0002532869    1.125    0.111
       184  -9.6702     47.0071     75.3494   8.7044983033e+01   5.6978707187e+01    0.4258772    0.1664921 -42.99  0.001056926    2.366    0.577
       185 -11.7287     53.1086     76.1386   8.4862466294e+01   5.6012871367e+01     0.637121    0.4715362 -50.42  0.002867786    1.349    0.259
       186 -10.9781     58.3655     77.6653   8.3287529832e+01   5.4955204860e+01    0.3282645    0.2625375 -37.88  0.000786895    1.166    0.143
       187  -9.5604    127.3339     83.0759   6.2886347822e+01   4.0776959772e+01    0.2737057    0.1934681  63.32  0.001205228    1.598    0.374
       188  -9.5602    103.0000     79.9958   6.8731998692e+01   4.6593029844e+01    0.3046207    0.1799194 -42.24 0.0007851277    1.715    0.417
       189 -10.7961    103.4316     75.0550   6.7076531938e+01   4.7447883997e+01    0.4601909    0.3667371 -66.28  0.002315754    1.578    0.366
       190  -9.3709      1.2744     79.9957   1.0700278634e+02   5.9895850270e+01    0.3469605   0.09696423 -66.33 0.0009449884    2.961    0.662
       191 -11.5165      2.1306     71.4207   1.0492822617e+02   6.1770275758e+01    0.5605654    0.1826195 -62.25   0.00243988    2.431    0.589
       192 -13.1368      4.3154     61.8061   1.0177144122e+02   6.3728515104e+01    0.3785045    0.2749046 -49.50 0.0006147699    1.139    0.122
       193 -12.0425     10.2078     62.4074   9.9237966353e+01   6.3243952376e+01    0.6371065    0.2938689 -40.22 0.0007090961    1.803    0.445
       194 -11.5490     13.9004     74.2705   1.0053949327e+02   6.0437005046e+01    0.5453432    0.4255631 -70.27  0.002719592    1.387    0.279
       195 -10.0179     14.0475     67.4434   9.8809305076e+01   6.1912727150e+01    0.4642355    0.2321332   9.99  0.002326323    2.246    0.555
       196  -9.7877    233.3171     77.7278   4.2518089972e+01   1.8357187986e+01     0.230737    0.2076678 -68.17  0.001093674    1.102    0.093
       197 -10.1359     93.7141     75.0029   7.0044926042e+01   4.9420086879e+01    0.6546835    0.5429694 -67.54  0.003415771    1.516    0.340
       198 -11.7717     85.3504     73.1491   7.2176571410e+01   5.1379064912e+01     0.645443    0.5244824  51.58  0.002221315    1.367    0.268
       199 -11.2377     78.1078     66.7068   7.2546940254e+01   5.3924252953e+01    0.6856318    0.5150557 -82.41  0.003208729    2.344    0.573
       200 -12.8891     74.4931     52.3156   6.8838754691e+01   5.7100775497e+01    0.9606394    0.7768797 -45.82  0.001922795    1.421    0.296
       201 -11.6402     91.7132     62.9572   6.6765863727e+01   5.2017735883e+01     1.030391    0.4008059  47.08  0.003879574    2.547    0.607
       202 -10.8022     87.8021     56.3645   6.5773288213e+01   5.3911270621e+01    0.8893147    0.4453306 -26.55  0.003629396    2.521    0.603
       203 -10.9919     92.0386     56.8442   6.4595308383e+01   5.2986924581e+01    0.5379995    0.3378528 -27.33  0.002532539    1.755    0.430
       204  -9.2343    134.7809     77.6015   5.9445671989e+01   4.0109131536e+01     0.211437    0.1395746  63.06 0.0009454989    1.668    0.400
       205 -10.3361    126.8023     77.0182   6.1244334541e+01   4.2021052773e+01    0.2619568    0.2095987  42.43            0    1.235    0.191
       206 -12.2053    186.1067     70.2063   4.7329129009e+01   2.9522387123e+01     1.056821    0.5466128 -44.11  0.004272975    1.832    0.454
       207 -10.1438    165.6057     83.5991   5.4393395849e+01   3.1940810851e+01    0.3310002    0.2641748 -57.71  0.001175908    1.263    0.208
       208  -9.3228     24.6909     74.1583   9.5934811566e+01   5.9616705798e+01    0.5149038    0.3311425 -51.52  0.002446533    1.352    0.260
       209 -11.6217     40.8117     71.5052   8.8434576171e+01   5.8540812811e+01    0.4936487    0.3071039 -58.34  0.001766231    1.740    0.425
       210 -11.4655     35.0899     71.9389   9.0945192031e+01   5.9087381990e+01    0.7544964    0.2509679  29.04  0.002954705    3.056    0.673
       211  -9.1223    197.6353     74.6935   4.6632527871e+01   2.6232221037e+01    0.1339657    0.1084936  23.21  0.000703769    1.744    0.426
       212 -10.3211    153.8010     72.5064   5.3776729157e+01   3.6600400271e+01     0.344988    0.2315226  43.71 0.0009413232    1.579    0.367
       213  -9.6852    122.4904     72.5062   6.0996977456e+01   4.3797414001e+01    0.2827592    0.2231469  66.59 0.0006918922    1.394    0.282
       214 -11.6449    123.1898     68.6776   5.9652907059e+01   4.4308689427e+01    0.5153673    0.3801181  46.76  0.001440578    1.304    0.233
       215  -9.4203     61.6487     73.2900   8.0693263019e+01   5.5374329897e+01    0.1329244    0.1116947  68.75 0.0007026859    1.671    0.401
       216  -9.3249    161.9292     71.1136   5.1787811028e+01   3.4938404599e+01    0.2291318    0.1883377 -79.25 0.0008367831    1.296    0.228
       217  -9.6257    172.0194     68.9469   4.9364589566e+01   3.2948753610e+01    0.2467617     0.209876  -5.11 0.0009357518    1.525    0.344
       218 -10.3614    170.0691     63.7575   4.8348291074e+01   3.4225190076e+01    0.5048091    0.3232879 -75.19  0.001925248    2.033    0.508
       219 -11.2613    219.9226     66.7845   4.1801411144e+01   2.2724175004e+01    0.4923173    0.2798983  65.89  0.002040631    1.854    0.461
       220 -11.4123    233.3843     61.1628   3.9059716005e+01   2.0843078739e+01    0.6877487    0.3361446  59.29  0.003502187    2.222    0.550
       221  -9.7334     65.0098     61.1915   7.5445693496e+01   5.7187787597e+01    0.4253498    0.1488014 -45.45  0.001584941    2.913    0.657
       222  -9.5852    192.4311     65.7776   4.5275514007e+01   2.8798407627e+01     0.260208    0.1900182 -75.58 0.0008066248    1.439    0.305
       223 -11.8228     60.3007     46.7872   7.2088169940e+01   6.0452556626e+01     0.990961    0.5599023 -39.46  0.004988825    1.799    0.444
       224 -10.9573     61.0148     36.0424   6.7640665146e+01   6.1984411570e+01    0.4170623    0.2730708 -10.60  0.001235043    1.720    0.419
       225  -9.0870     67.2698     31.4008   6.3444075479e+01   6.1524719334e+01    0.4957841    0.4188763 -70.27  0.002947339    1.864    0.463
       226 -11.0331     13.8928     46.3786   9.2826343471e+01   6.6193242893e+01    0.8527757    0.2584581 -31.68  0.002859229    4.652    0.785
       227 -11.0597     20.7885     45.8461   8.9258484508e+01   6.5702750350e+01    0.4206457    0.2806134 -34.85  0.001353764    1.264    0.209
       228  -9.5991    174.8079    246.5457   8.6588556548e+01  -1.9838286825e+00    0.2496154      0.10982  29.31  0.001145381    2.079    0.519
       229  -9.3663    163.3766    243.8441   8.8546116788e+01   1.1176775274e-01    0.1743059    0.1671017 -71.21 0.0007667689    1.378    0.275
       230 -11.8263     25.8553     58.1743   9.0887926282e+01   6.2853959652e+01    0.9807503    0.6844684 -11.35  0.005754957    1.402    0.287
       231 -11.6574     26.4062     47.7029   8.7197779477e+01   6.4812783302e+01    0.3700016     0.215241 -18.91 0.0002003129    1.805    0.446
       232 -11.2595     40.5216     56.9964   8.3973261059e+01   6.1481070970e+01     0.495416    0.2795526  30.34  0.001008444    1.804    0.446
       233 -12.5071     44.4854     61.0811   8.3639028239e+01   6.0198586727e+01    0.7186397    0.3959058 -20.43   0.00134269    2.318    0.569
       234 -11.5511     52.0143     61.7405   8.0738784125e+01   5.9059334535e+01    0.4099566    0.3632406 -55.83  0.002484018    1.377    0.274
       235  -9.9474     21.1398     65.1602   9.5060039955e+01   6.1847330494e+01    0.1982861    0.1811658 -42.31 0.0005163296    1.180    0.153
       236 -10.2106    199.9799     63.6788   4.3695143587e+01   2.7447165508e+01    0.4528418    0.2600387  89.63   0.00201871    2.342    0.573
       237  -9.8660    106.4371     63.9028   6.2655413230e+01   4.8809066712e+01    0.3267851    0.2278609  28.80  0.001580142    1.577    0.366
       238 -11.0231    106.4642     58.4900   6.0882941463e+01   4.9701436557e+01    0.5912966    0.3893234  77.76  0.002509549    2.524    0.604
       239 -10.1663    159.0950     62.4991   4.9986012900e+01   3.6988151456e+01    0.5296787    0.2038012  48.62  0.001964847    2.674    0.626
       240  -9.2790    205.8171     61.8296   4.2480182934e+01   2.6453251179e+01    0.1801471    0.1685659 -74.70 0.0004460484    1.125    0.111
       241 -11.1586    127.5825    242.0803   9.5954686991e+01   5.7445948192e+00    0.4043679    0.3289161  23.62  0.002436203    1.153    0.133
       242  -9.8479     67.9697    240.5047   1.0877632781e+02   1.4549454117e+01    0.1921839    0.1122392  35.22 0.0006441617    1.565    0.361
       243 -11.2368    113.9678     37.9894   5.2112033542e+01   5.1012621022e+01    0.4644854    0.2681723  58.34 0.0003600639    1.620    0.383
       244 -12.4061    117.4415     44.5221   5.3436298887e+01   4.9355073016e+01    0.9065162     0.628509  65.27   0.00349394    1.492    0.330
       245 -11.1608    147.9559    237.7134   9.0916519033e+01   3.4868852769e+00    0.4962463    0.2433785  33.77  0.001878743    1.804    0.446
       246 -10.1093    167.5200    238.0053   8.6791727841e+01   5.0525151058e-01    0.1838645    0.1265151 -42.23 0.0008820623    1.581    0.367
       247 -12.1304    114.9547     24.9006   4.7503758715e+01   5.2340678158e+01    0.6492251    0.2668701  57.99  0.001680819    2.086    0.521
       248  -9.6238    150.9638     61.2967   5.1217731740e+01   3.9086944336e+01    0.2514822    0.2044241  64.16 0.0006510949    1.178    0.151
       249  -9.2775    146.9738     60.7777   5.1872494234e+01   4.0105734901e+01    0.2058327    0.1951721  47.49 0.0006020602    1.095    0.087
       250  -9.6653    113.4005     60.5042   5.9642580922e+01   4.7859796193e+01    0.2802466    0.1801607 -31.76  0.001330294    1.677    0.404
       251  -9.1329    233.3953    235.8088   7.3571210043e+01  -8.1128222913e+00    0.1696038   0.09231062 -25.62 0.0009449669    1.679    0.404
       252 -10.3367    136.5348     56.7622   5.2896319764e+01   4.3171121835e+01    0.6722904    0.4279861  -6.76  0.002828127    2.628    0.619
       253 -10.0160    135.3921     50.8054   5.1352125131e+01   4.4321498653e+01    0.2408475    0.2232824 -38.70  0.001309815    1.156    0.135
       254  -9.9340    138.7733     49.3573   5.0211156089e+01   4.3735571385e+01    0.2861387    0.1935674  47.99 0.0008617079    1.432    0.302
       255 -11.2301    156.6173     53.0053   4.7826139379e+01   3.9002073243e+01    0.8523914    0.4686469 -46.07  0.003297368    1.877    0.467
       256 -10.2207    205.7358    234.6997   7.8533057767e+01  -4.3908551357e+00    0.2206266    0.1977991  12.97 0.0007107101    1.246    0.197
       257 -10.6307    198.0265    233.0253   7.9763222162e+01  -3.0626571057e+00    0.3470462    0.3048874  42.40  0.002247412    1.479    0.324
       258 -12.0975    153.0758     35.9202   4.3667927424e+01   4.2139623157e+01    0.3221399    0.2863892  19.86 0.0003137285    1.375    0.272
       259 -11.8969    159.9934     29.9624   4.0937950750e+01   4.1226136208e+01    0.4692648    0.3910598  74.65  0.002645456    1.067    0.063
       260 -11.6336    164.1876     27.5965   3.9697718732e+01   4.0516254449e+01    0.3208702    0.2885851 -83.83 0.0007279411    1.060    0.056
       261  -9.3965    238.1739     55.8362   3.7472582451e+01   2.0669394549e+01    0.1815323     0.134561 -61.74 0.0002569891    1.118    0.106
       262 -10.0698     66.9115     54.6365   7.2434077155e+01   5.8039189871e+01    0.3310526    0.1879013 -45.32  0.001553421    1.902    0.474
       263  -9.6111      7.0897     54.5652   9.8594299951e+01   6.5063672272e+01    0.2580106    0.1059086 -45.18  0.001278395    1.878    0.468
       264  -9.4465    211.8921     53.1245   3.9756584148e+01   2.6416567814e+01      0.21637    0.1514003 -68.46  0.001231684    1.352    0.261
       265 -11.3009    201.3529     48.4428   3.9966451717e+01   2.9358161921e+01    0.7929621    0.3430834 -39.19  0.003612401    2.171    0.539
       266 -10.2915    240.3365     50.5798   3.6206185905e+01   2.0983520571e+01    0.2530196    0.2074789 -46.60 0.0009698578    1.235    0.190
       267 -10.5213     59.1919     63.1552   7.8351514916e+01   5.7737776696e+01    0.5429754    0.3320506 -38.72  0.002539692    1.569    0.363
       268  -9.9911    245.0051     51.3137   3.5913776025e+01   1.9988789099e+01    0.1692555    0.1359756 -75.80 0.0007936324    1.110    0.099
       269 -10.9058    174.6895     48.1777   4.3544265747e+01   3.5445247723e+01    0.5369319    0.3327301  73.17  0.002283702    1.604    0.377
       270  -9.4684    176.6352     43.4183   4.2038738800e+01   3.5641130924e+01    0.2375612     0.157874  71.04  0.001043625    1.418    0.295
       271  -9.6622     91.4194     48.5031   6.1883791823e+01   5.4428390288e+01    0.2821392    0.2231627 -61.24 0.0008980799    1.688    0.407
       272  -9.6963      2.2779     48.8630   9.9344410038e+01   6.6493498540e+01    0.7381846    0.2067874 -44.33  0.003252357    2.547    0.607
       273  -9.5703      6.3871     30.9945   9.1415221562e+01   6.9565867254e+01    0.7061787     0.323218   1.29  0.003219592    2.550    0.608
       274 -10.1264      3.6780     39.3070   9.5745390448e+01   6.8250545068e+01    0.3970325    0.2771797  76.29  0.002099287    3.196    0.687
       275 -10.3635      5.9779     36.4674   9.3583651215e+01   6.8621355326e+01    0.3122871    0.1920058  15.99  0.001530014    1.658    0.397
       276  -9.0096    187.9042     48.4305   4.1708483396e+01   3.2370053263e+01    0.1912279    0.1046497 -85.67 0.0008054675    2.501    0.600
       277  -9.3585     15.2997    233.9818   1.1925264144e+02   2.2049897183e+01    0.1675043    0.1282107  86.67  0.001139615    1.152    0.132
       278  -8.6253    222.6492     47.3167   3.7297644960e+01   2.4966932424e+01    0.1362724   0.07953387 -68.09 0.0003331701    1.734    0.423
       279 -10.6462     93.8670     41.2453   5.8564845229e+01   5.4972061308e+01     0.556996    0.2611205  47.58  0.002472652    1.925    0.480
       280 -10.2736    247.6248    231.9154   7.0435329325e+01  -9.2418057943e+00    0.2517241     0.207459 -48.06  0.001516932    1.873    0.466
       281 -11.1349     79.4137     34.1286   6.0369260654e+01   5.8866727488e+01    0.8241857    0.4799266 -26.95  0.002933157    1.856    0.461
       282  -9.9485     81.0000     30.0025   5.8270165832e+01   5.9080162831e+01     0.250616    0.1719023 -29.60  0.000804022    1.573    0.364
       283 -10.7022    188.9944     39.8514   3.9485051691e+01   3.3275949265e+01    0.3817655    0.1929812 -30.34 0.0007805328    2.269    0.559
       284  -9.6013    231.5464     39.0868   3.4716552212e+01   2.4254441031e+01    0.2742128    0.1366939 -46.73   0.00125085    1.694    0.410
       285  -9.7341    217.0508     39.0679   3.6115468118e+01   2.7234797023e+01    0.2973329    0.1145916 -48.75  0.001348665    2.298    0.565
       286  -9.5003    183.7492     38.0901   3.9730698883e+01   3.4698517858e+01    0.1975742    0.1512585 -72.20  0.001154951    1.237    0.191
       287 -10.9725    176.8452     36.2766   4.0197074532e+01   3.6518736237e+01    0.3791628    0.3107738 -78.43  0.001841441    1.129    0.114
       288 -10.7187    175.6716     30.8014   3.8969670656e+01   3.7463450835e+01    0.7741344    0.1953694  52.78  0.002609877    4.055    0.753
       289 -10.3639    242.7443    232.0527   7.1296635337e+01  -8.6927661040e+00      0.26371    0.2370027 -53.86  0.001837994    1.887    0.470
       290  -9.8678    133.1880     36.8452   4.7550917959e+01   4.6718820260e+01    0.4338436    0.2651932 -86.05  0.001899739    2.469    0.595
       291  -9.6233     23.7823    231.8088   1.1739603979e+02   2.1640534238e+01    0.1765455    0.1114988  61.54 0.0007621829    1.340    0.254
       292  -9.1976    181.3182    228.3108   8.2361535840e+01   1.3811398905e-01    0.1360359    0.0928212  -3.33 0.0007034391    1.642    0.391
       293  -8.8823    209.2287    223.9576   7.6040867455e+01  -3.1559736207e+00    0.1565233   0.09707227 -37.26 0.0003162383    1.568    0.362
       294  -9.9906    233.9893    223.2834   7.1334989535e+01  -6.3392668121e+00    0.1739432    0.1368315   1.35 0.0005995056    1.093    0.085
       295 -11.1018    152.8812     25.4429   4.0765055293e+01   4.3418616839e+01    0.6857557    0.3601484  47.76  0.003300323    1.987    0.497
       296 -10.2351    157.6409     20.3245   3.8663860277e+01   4.2855496573e+01    0.3379188     0.166511  64.03  0.001628947    1.748    0.428
       297  -8.9479     21.5112    219.5234   1.1703357556e+02   2.4557882837e+01    0.1248788   0.09963007  72.19 0.0001199514    1.021    0.021
       298  -9.2980     10.2213    218.0396   1.1932910683e+02   2.5992880904e+01    0.1597271   0.08451608 -79.93 0.0008737849    1.675    0.403
       299 -10.2025    127.0058     16.5321   4.2400221535e+01   5.0422834995e+01    0.2590241    0.1777385  55.15 0.0008176999    1.267    0.210
       300  -9.1997    206.6570     37.0914   3.6774419876e+01   2.9711654806e+01    0.1720185     0.145331 -59.06 0.0008728484    1.124    0.111
       301  -9.5081     12.2925     36.4840   9.0256799040e+01   6.8142221024e+01    0.1995765    0.1584922 -82.77 0.0008411558    2.256    0.557
       302  -9.5058     94.0285     35.8598   5.6574154160e+01   5.5659210060e+01    0.1937746    0.1742621  79.58 0.0006505578    1.340    0.254
       303 -10.9094    136.7111     45.1396   4.9367086109e+01   4.4807052847e+01     0.727171    0.2659529  50.02  0.002778622    2.533    0.605
       304  -9.3220    148.4507     32.4596   4.3457472086e+01   4.3655086534e+01    0.1331854    0.1182975  79.64 1.569423e-05    1.027    0.026
       305 -10.3563    239.8254     32.8428   3.2756064281e+01   2.3418320015e+01     0.288518    0.1866711  74.50  0.001296761    1.541    0.351
       306 -10.3091    164.6962    212.2377   8.3183188679e+01   5.6673021359e+00    0.2592354    0.2077844  32.58 0.0006335727    1.193    0.162
       307 -12.2588     58.3343     29.7966   6.6132430070e+01   6.3311407322e+01    0.3763596    0.2563821  12.81  0.000776349    1.503    0.335
       308 -11.6820     49.5124     30.4297   6.9972199363e+01   6.4660146768e+01      0.65643    0.2653845  36.00  0.002983684    2.318    0.569
       309 -10.7027    198.8510     29.2573   3.5848742859e+01   3.2397419543e+01    0.3959049     0.358983 -36.74  0.002443375    1.335    0.251
       310  -9.2490     35.8340     31.7719   7.6629920702e+01   6.6421692070e+01    0.1524456    0.1394762  20.28 0.0004939399    1.356    0.262
       311  -9.9767     13.9271     23.4057   8.4249035663e+01   7.0190992112e+01    0.2344933    0.1729754   6.05 0.0005262918    1.201    0.167
       312  -9.8306    153.3378    207.5360   8.4901768170e+01   8.4610338439e+00    0.2848655    0.2458817  78.51 0.0009536891    1.516    0.340
       313  -9.3447     61.1569    206.6275   1.0681508304e+02   2.2926343288e+01    0.1866232    0.1626097  47.10 0.0007455729    1.127    0.113
       314  -9.8192    123.9895    205.9795   9.1482762320e+01   1.3658732033e+01    0.2018063    0.1901315  19.53  0.001165994    1.052    0.049
       315 -10.5198    238.3294    204.5892   6.7256810129e+01  -4.0027976793e+00    0.2567879    0.1358498 -35.37  0.001361735    1.636    0.389
       316  -9.1961    196.2589    204.9445   7.5216141649e+01   2.0105734515e+00    0.1698624    0.1101137 -40.41 0.0006906287    1.511    0.338
       317 -11.0838      6.0279    198.9636   1.1901079867e+02   3.0703427399e+01    0.4438026    0.1722852 -65.59  0.002098539    2.269    0.559
       318 -10.4704    233.8582    196.8847   6.6623493918e+01  -2.1498182750e+00    0.3197594    0.2266139 -28.34 0.0009905839    1.199    0.166
       319 -10.0179    230.3931     28.0029   3.2584557504e+01   2.5883471860e+01     0.353405    0.1406319 -46.46  0.001780426    2.078    0.519
       320 -10.9058    189.2838     27.6520   3.6534002531e+01   3.4725718991e+01     0.328908    0.2930678  20.40  0.001787349    1.561    0.359
       321  -9.7833    240.7347     26.9705   3.1548566941e+01   2.3967751702e+01    0.2314042    0.1417741 -42.33  0.001081896    1.504    0.335
       322  -9.5451    250.5172     26.9913   3.0820130793e+01   2.2104046043e+01    0.1351544    0.1008971  -8.98  0.000594117    2.536    0.606
       323  -9.6277     97.0745     26.2129   5.2227006098e+01   5.6177008102e+01    0.2107116    0.1682154 -49.69 0.0008326002    1.531    0.347
       324 -10.1291    213.7089     23.9766   3.3214752770e+01   2.9811407769e+01    0.2776743    0.2462548 -82.63   0.00196338    1.164    0.141
       325  -8.8960    216.5177     20.5169   3.2236799643e+01   2.9622388133e+01    0.1197585   0.09734873 -76.58 7.146438e-05    1.032    0.031
       326  -9.4634     85.9274     23.8770   5.4417395089e+01   5.8800431228e+01    0.1894027    0.1548331  36.28  0.001168711    1.058    0.054
       327 -10.8014    245.9125    201.0210   6.5316601608e+01  -4.4339423834e+00    0.1944793    0.1550769 -14.99 0.0007271914    1.023    0.023
       328  -8.6059    195.2896    199.6556   7.4433236917e+01   3.1269307585e+00    0.1254244    0.1114912 -83.36 0.0004438645    1.654    0.395
       329  -8.8728     83.5180    195.9897   9.9939642457e+01   2.2341275197e+01    0.1987105    0.1853652  76.57 0.0005419664    1.021    0.021
       330  -9.4095    169.2519     23.8025   3.8021115992e+01   3.9764015096e+01    0.2673774    0.1494305  60.39  0.001386976    1.627    0.385
       331 -10.6349    246.6169    193.0150   6.3734332492e+01  -3.2582380453e+00    0.2942243    0.1007872 -39.17  0.001259991    2.478    0.596
       332  -9.2012    223.7401     21.9449   3.1918765535e+01   2.7958889237e+01    0.1957798    0.1373792  73.25 0.0007177958    1.396    0.284
       333 -12.1301      4.6983    184.3275   1.1829072234e+02   3.4268914549e+01    0.6817706    0.4695229  78.41  0.004123588    1.263    0.208
       334  -9.8262    169.9079    191.3634   7.8243030154e+01   8.9437587689e+00    0.3797298    0.2170833  21.15  0.001593257    2.174    0.540
       335  -9.7425      5.7655     21.1946   8.7919675887e+01   7.1252962163e+01    0.1899186    0.1398484 -14.39 0.0004407564    1.049    0.047
       336  -8.9596     16.4671    191.5085   1.1605596333e+02   3.1533952855e+01     0.126942    0.1074774 -89.52 -1.308764e-05    1.058    0.054
       337 -10.1184    239.7290    184.7271   6.3336367301e+01  -9.5975716830e-01    0.2789422    0.1916926 -17.98 0.0008489637    1.391    0.281
       338 -10.0473    214.5068    185.0217   6.7881729789e+01   2.7571902848e+00    0.1842065    0.1147487 -60.39 0.0008103868    2.573    0.611
       339 -10.0953    250.4243    178.6001   6.0429125453e+01  -1.4432637649e+00    0.4338757   0.09761726 -36.64  0.001399877    4.231    0.764
       340 -10.3958     51.9756    173.6765   1.0512006744e+02   3.2163885715e+01    0.5552662    0.2662638 -88.37  0.002019007    3.035    0.670
       341  -8.5840    120.2823     20.6523   4.4991451495e+01   5.1567807455e+01    0.1280839   0.09534538 -69.94 0.0002019992    1.646    0.392
       342  -8.6166      1.2811     20.6889   9.0329101056e+01   7.1671813649e+01   0.09124717   0.08839968   9.93 0.0003004021    1.567    0.362
       343 -10.0166    186.5274     15.2858   3.3914498148e+01   3.6733012173e+01    0.3073218    0.1847916  79.71 0.0006384701    1.479    0.324
       344  -9.6457     28.0434    175.9300   1.1174488670e+02   3.4241379676e+01     0.206462    0.1818109  89.80  0.000780416    1.028    0.027
       345 -10.2490    247.2653    174.1724   6.0093807395e+01  -2.7277479417e-01    0.4196671    0.2074748  21.25  0.001776445    3.391    0.705
       346  -9.5770    230.4379    175.4983   6.3150401144e+01   1.9791608395e+00    0.2213433    0.1291762  37.44  0.000504109    1.916    0.478
       347  -9.7565     39.0012    173.5029   1.0858809910e+02   3.3710541790e+01    0.2743088    0.1959603  61.13  0.001471339    1.409    0.290
       348 -10.7506     35.2799    170.0098   1.0917264320e+02   3.4991894873e+01    0.3838488    0.2518836 -73.83  0.001512917    1.372    0.271
       349  -8.9855    198.4185     17.7543   3.3292226824e+01   3.3821615900e+01    0.1376747    0.1179555 -29.14 0.0003136336    1.466    0.318
       350  -9.1904    205.2255     17.4140   3.2578348563e+01   3.2376704687e+01    0.1655926   0.09886197  89.31 0.0005765349    1.544    0.352
       351  -8.9803    170.5306    172.0039   7.4272925941e+01   1.2844761319e+01    0.2200899    0.1412728 -44.08 0.0006901571    1.517    0.341
       352 -10.2323      9.5784    155.7077   1.1460130835e+02   4.0917620270e+01    0.2701428    0.1998088  83.60  0.001154935    1.246    0.198
       353 -11.7754      9.8310    166.4538   1.1555381539e+02   3.8220443894e+01    0.5704397    0.4178475 -71.02  0.002795815    1.186    0.157
       354 -10.6597     13.8855    158.0119   1.1365698504e+02   4.0005118048e+01    0.4619316    0.2264592 -70.57  0.002230544    1.703    0.413
       355  -9.7224     74.3628     19.4838   5.6180293786e+01   6.1617449127e+01    0.2337532    0.1532961  46.45 0.0007755184    1.339    0.253
       356  -9.3425    198.1382    167.8876   6.7612021490e+01   8.6960643441e+00    0.2079842    0.1929325 -48.42 0.0008252672    1.181    0.153
       357  -9.7858    187.4921    167.5070   6.9693486937e+01   1.0672075001e+01    0.3441161    0.1715414 -36.41  0.001288084    2.015    0.504
       358  -9.1713    156.4798    166.4728   7.6336281615e+01   1.6660859516e+01    0.1503496     0.144696 -13.44 6.672158e-05    1.001    0.001
       359  -8.8848    152.4367    166.5355   7.7304831104e+01   1.7411995382e+01    0.1500351    0.1451169 -17.67 0.0001290492    1.008    0.008
       360 -10.2892     19.0662    164.9805   1.1297367660e+02   3.7820360165e+01    0.3358787      0.27554 -22.08  0.001706907    1.553    0.356
       361 -10.1697     39.3686    162.1195   1.0706862657e+02   3.6564384813e+01    0.4966226    0.2425633  63.88  0.001938627    2.795    0.642
       362 -10.5610     28.0566    162.1428   1.1021872034e+02   3.7712832543e+01    0.4121563    0.2555715 -56.80  0.002129176    1.506    0.336
       363 -10.0381    204.9683    162.9564   6.5261976116e+01   8.4506653053e+00     0.248997    0.2167462   3.32 0.0005910016    1.185    0.156
       364  -9.7900    208.4687    160.4983   6.4089255651e+01   8.3080687335e+00    0.2652275    0.1682519 -40.73  0.001297137    1.427    0.299
       365 -10.5459    246.9357    159.3694   5.7291868635e+01   2.2599059289e+00    0.4305163    0.1598839 -42.39  0.001846388    2.270    0.559
       366  -9.1747     79.1083    160.2084   9.5466058106e+01   3.1894284430e+01    0.2109845    0.1719217  70.85 0.0007042073    1.331    0.249
       367  -9.5480    224.2998    157.4150   6.0604879051e+01   6.1810086772e+00    0.3517072    0.1721414 -49.97  0.001524381    2.168    0.539
       368  -9.4007    215.3875    157.7959   6.2256402386e+01   7.6183604246e+00    0.2058506    0.1172024 -32.40 0.0009493214    1.699    0.411
       369  -8.9802     53.3310    156.6709   1.0230794453e+02   3.6349739302e+01    0.1524564    0.1030163  68.51 0.0002561749    1.715    0.417
       370 -10.4045    105.0839    154.1130   8.6960299861e+01   2.9162747682e+01    0.4241566    0.3428031 -28.18   0.00205814    1.394    0.283
       371 -10.7905     31.0044    151.7076   1.0809165689e+02   4.0091099268e+01    0.3647993    0.2575392 -54.28  0.001344225    1.338    0.253
       372 -12.3007     22.8218    149.0519   1.1012968484e+02   4.1525093751e+01    0.7201073    0.3713311 -36.14  0.001721538    2.502    0.600
       373 -10.6993     16.0111    147.8956   1.1196098421e+02   4.2387350661e+01     0.325633    0.2913466 -81.12 0.0007833967    1.057    0.054
       374 -11.8063     13.1928    139.1025   1.1175368438e+02   4.4827331597e+01    0.7965156    0.4572286 -84.78  0.003984061    1.683    0.406
       375  -9.3354     74.8705    154.1245   9.5602773468e+01   3.4083396230e+01    0.2326418    0.1999638  80.24 0.0008347077    1.229    0.186
       376 -10.7303      3.5018    153.1763   1.1601563804e+02   4.1985090388e+01    0.4481077    0.3539823 -66.70  0.002824171    1.138    0.121
       377 -10.6655      3.4840    147.4536   1.1547299559e+02   4.3411096467e+01    0.3968613    0.2617599  29.50  0.001950821    1.735    0.424
       378 -11.9719      1.8907    142.4286   1.1542513167e+02   4.4765969137e+01     0.625901    0.4165581  47.96  0.000907268    1.640    0.390
       379 -10.5929     63.1841    150.5543   9.8415040774e+01   3.6655215211e+01     0.469251    0.3097931   8.80   0.00157334    2.049    0.512
       380 -10.0336     73.1258    148.2676   9.5044298962e+01   3.5842477566e+01    0.7294914    0.2362849 -43.76  0.002108403    3.999    0.750
