#   1 NUMBER                 Running object number                                     
#   2 MAG_AUTO               Kron-like elliptical aperture magnitude                    [mag]
#   3 X_IMAGE                Object position along x                                    [pixel]
#   4 Y_IMAGE                Object position along y                                    [pixel]
#   5 X_WORLD                Barycenter position along world x axis                     [deg]
#   6 Y_WORLD                Barycenter position along world y axis                     [deg]
#   7 A_WORLD                Profile RMS along major axis (world units)                 [deg]
#   8 B_WORLD                Profile RMS along minor axis (world units)                 [deg]
#   9 THETA_WORLD            Position angle (CCW/world-x)                               [deg]
#  10 FWHM_WORLD             FWHM assuming a gaussian core                              [deg]
#  11 ELONGATION             A_IMAGE/B_IMAGE                                           
#  12 ELLIPTICITY            1 - B_IMAGE/A_IMAGE                                       
         1 -14.4104    218.5728      6.2275   3.9787390502e+01   2.9585115648e+01     2.287549     1.160306  66.11  0.006644784    1.846    0.458
         2 -15.1492    193.8683     35.1374   5.0355189888e+01   3.2373558951e+01     3.142893     1.918742  23.84   0.01285575    2.641    0.621
         3  -8.2235     50.1513    216.7067   1.2195207335e+02   2.3731708447e+01      0.30288     0.228884  -0.59  0.001757556    2.887    0.654
         4 -11.8028    249.2546    247.4114   8.8903535204e+01  -1.1252584250e+01    0.5677078    0.1694526 -29.35  0.002597844    3.760    0.734
         5 -19.5232     16.3470    143.6833   1.2279707124e+02   4.3091313294e+01     18.84141     5.485368 -79.20   0.07258133    3.285    0.696
         6 -10.6020     55.2280    210.2472   1.2046216159e+02   2.4380421261e+01    0.4963774    0.2359712  68.56  0.002511898    2.176    0.540
         7 -13.3616     56.4053    200.5985   1.1937566448e+02   2.6199768115e+01    0.4193659    0.2946405 -68.51  0.001778168    1.449    0.310
         8 -11.5683     38.0536    212.0027   1.2385889987e+02   2.6088648791e+01    0.1760492    0.1270344  58.15 0.0007991816    1.186    0.157
         9 -12.0575     67.1744    206.3230   1.1775714603e+02   2.3618811996e+01    0.3273582    0.2749774 -18.09 0.0003236773    2.056    0.514
        10  -9.8337     72.7515    203.2406   1.1632385248e+02   2.3487097174e+01     0.359832    0.2313662  71.26  0.002080896    1.457    0.314
        11 -10.3455     43.6882    210.2828   1.2267387732e+02   2.5778455380e+01    0.2106674    0.1203388  60.79 0.0008533281    1.450    0.310
        12 -10.5238     42.5057    206.4863   1.2260732563e+02   2.6681243436e+01    0.2817287    0.1976583 -51.56  0.001784258    1.980    0.495
        13 -11.4032     33.5837    207.2140   1.2435615701e+02   2.7546957343e+01    0.3825838    0.1431128  61.67  0.001252819    2.576    0.612
        14 -12.4935    197.0604    197.7286   8.9870846864e+01   3.4254155950e+00     1.317915     1.043737  57.59  0.007519749    1.539    0.350
        15 -10.4054     96.3250    201.6658   1.1127657370e+02   2.0347357768e+01    0.2509555    0.1751844  76.40 0.0008694411    1.462    0.316
        16 -11.1828     98.8311    199.8380   1.1052287163e+02   2.0327925182e+01    0.2765393    0.1872932  64.15 0.0008412743    1.412    0.292
        17  -9.3419     93.8568    205.9575   1.1230397124e+02   1.9862725448e+01    0.2742692    0.1980293 -31.18  0.001169168    2.345    0.574
        18  -9.4832     87.6208    202.6540   1.1320533330e+02   2.1469174096e+01    0.1657113    0.1500173 -25.20 0.0006597345    1.610    0.379
        19 -12.2723    140.7347    199.3650   1.0160900582e+02   1.3360243616e+01     0.404298    0.2338951 -54.37  0.001991306    1.948    0.487
        20  -9.4473    161.2094    200.1350   9.7477266676e+01   9.5322486923e+00    0.1753272    0.1523842  73.87 0.0004090546    1.327    0.247
        21  -9.8406     37.1584    224.7670   1.2488679501e+02   2.3717924816e+01    0.1316755    0.1240466 -58.69 0.0008138491    1.660    0.397
        22 -12.4425     30.8576    197.7489   1.2419801527e+02   2.9776949539e+01    0.2133586    0.1529499  60.50  0.001380719    1.197    0.164
        23 -11.2594     35.2618    197.4559   1.2331576721e+02   2.9358768349e+01    0.1886542    0.1226852  58.61  0.000561902    1.301    0.232
        24 -11.6137    151.8575    196.2174   9.8770786478e+01   1.1947945784e+01     0.338453    0.2259216  39.89 0.0008685609    1.357    0.263
        25 -10.0320     82.2590    195.1640   1.1345677466e+02   2.3810963893e+01    0.2395122    0.1947999  53.06    0.0014843    1.162    0.140
        26  -9.7825     57.6778    193.2838   1.1841902361e+02   2.7575271738e+01    0.2977584    0.1044228  48.98   0.00131638    2.523    0.604
        27 -11.4796     96.6949    190.5418   1.0977400169e+02   2.2591942705e+01    0.3776151    0.3411239  -6.15  0.001006773    1.562    0.360
        28 -10.6944     43.4302    236.6490   1.2455583050e+02   2.0791147708e+01    0.1220698    0.1032488  77.83  0.000953921    1.274    0.215
        29 -13.1952     66.5922    187.0601   1.1588130161e+02   2.7746200903e+01    0.6861103    0.6313363 -61.02  0.003080878    1.361    0.265
        30 -16.1662     69.7478    145.5582   1.0962482138e+02   3.6829137850e+01     10.62707     4.902495  79.19   0.02494675    8.428    0.881
        31 -10.9560    141.5599    188.7653   9.9728032560e+01   1.5256059086e+01    0.2505972    0.1347278 -46.94  0.001136589    2.059    0.514
        32 -10.3863    153.5128    184.5089   9.6417126301e+01   1.3864586864e+01    0.2303822    0.1370144 -61.75  0.001023141    2.171    0.539
        33  -9.5710    168.9763    235.2686   1.0129926401e+02   2.4682710714e+00    0.1651188    0.1339179  36.54 0.0004059392    1.007    0.007
        34 -12.1641    146.2664    183.1585   9.7749371216e+01   1.5491736552e+01    0.4328663    0.2997942  51.45  0.001430254    1.385    0.278
        35 -10.7763    204.4170    175.9243   8.4253930401e+01   5.6582894946e+00    0.3813125    0.2814024 -43.58  0.001203117    1.487    0.328
        36 -11.4120     99.3867    180.8326   1.0782760544e+02   2.4243315114e+01    0.2706935    0.2546486  53.64 0.0006235251    1.171    0.146
        37 -10.2935    196.9274    176.2845   8.5804738473e+01   7.0294954330e+00    0.3112125    0.2710657  53.51  0.001290224    1.288    0.223
        38  -9.6284     59.2219    176.8296   1.1635079176e+02   3.0969937937e+01    0.1827089     0.144385  81.68 0.0004893632    1.071    0.067
        39  -9.8959    188.6944    175.2105   8.7250508582e+01   8.8134154997e+00    0.2394217    0.1713303 -42.79 0.0006441896    1.490    0.329
        40  -9.6498     61.8010    219.9475   1.2002925952e+02   2.1631656422e+01    0.3260801    0.1602428  77.84  0.001653383    2.307    0.567
        41 -11.1244     42.8527    172.2544   1.1950275333e+02   3.3969275878e+01    0.5109032    0.1947713  57.78  0.002156304    2.922    0.658
        42  -8.7267     33.6679    217.9198   1.2506579886e+02   2.5423024358e+01    0.1611355    0.1507353 -56.66  0.001001628    1.652    0.395
        43 -10.8376     66.9855    175.0761   1.1439951155e+02   3.0342331889e+01    0.2583407    0.1447814  79.93  0.001217649    2.090    0.522
        44 -10.9781    143.6796    169.5694   9.5856058484e+01   1.8746484426e+01    0.4272601    0.1376339  37.13   0.00131889    3.558    0.719
        45 -10.9651    230.0977    166.2313   7.7423516675e+01   2.4326106869e+00     0.249846    0.1758045 -56.58  0.001092009    2.073    0.517
        46  -9.1466     72.5920    217.4718   1.1775396524e+02   2.0669598744e+01    0.1220821    0.0940911  69.26 0.0001599096    1.042    0.040
        47  -9.9591    236.6780    158.3046   7.4572242242e+01   2.4792535579e+00    0.1267771    0.1102288 -68.55 0.0002269572    1.637    0.389
        48 -11.6065    133.9813    145.7448   9.3361154748e+01   2.5802078262e+01     1.253302    0.3303683 -55.48  0.003007731    5.760    0.826
        49  -9.9007    113.3663    151.0709   9.9517128980e+01   2.8528086720e+01    0.2973544     0.184734  74.98  0.001194933    2.404    0.584
        50 -10.4781    174.3796    148.8594   8.4704515141e+01   1.6738392947e+01    0.3149021    0.2689868  82.21 0.0009585224    1.434    0.303
        51 -11.0939    143.9506    146.4107   9.1104939319e+01   2.3637416943e+01    0.3921137    0.2491317 -72.54  0.001556277    2.341    0.573
        52 -11.5297    106.7713    138.9908   9.8800981156e+01   3.2522440561e+01    0.5951639    0.3332091 -41.34  0.002481668    2.062    0.515
        53  -9.5124    110.8062    140.6154   9.8090702250e+01   3.1413434798e+01    0.2089973    0.1704302  80.64 0.0004498052    1.335    0.251
        54 -11.4698     60.7958    233.5338   1.2130041702e+02   1.9213174185e+01    0.1912022      0.13353  69.66 0.0004023727    1.130    0.115
        55 -12.5576     94.8905    138.6897   1.0184856861e+02   3.4646306662e+01    0.2920004    0.2788051  46.78 0.0006546124    1.146    0.127
        56  -9.4101    102.5034    133.4455   9.8777825294e+01   3.4586294921e+01    0.2265804      0.14415  42.15 0.0001431407    1.617    0.382
        57 -11.2111    105.9505    130.8259   9.7304046393e+01   3.4590149480e+01    0.3887061    0.3125296 -70.04  0.001175591    1.254    0.202
        58 -11.1550    135.8360    128.2564   8.8962293556e+01   2.9336983458e+01    0.5873835    0.2001991 -50.58  0.001832407    3.069    0.674
        59 -11.0343    114.3863    129.7553   9.4832503124e+01   3.3279582807e+01    0.3217196     0.286934 -30.90 0.0006586514    1.244    0.196
        60 -10.2312    160.9264    127.8886   8.2818570494e+01   2.3983504122e+01    0.3557786    0.2267793 -49.08  0.001522834    1.608    0.378
        61 -11.0546    120.1451    123.2487   9.1810675036e+01   3.3670925372e+01    0.5662081    0.3255308 -26.34  0.001988481    2.987    0.665
        62 -11.1966    101.9943    125.6017   9.7229714700e+01   3.6531856086e+01    0.2950789    0.2435828 -15.22  0.000771833    1.564    0.361
        63 -10.2083    109.8874    118.8921   9.3531110818e+01   3.6663006310e+01    0.2196783    0.2119272 -65.45 0.0004482673    1.019    0.019
        64 -10.1689    167.7057    112.4730   7.7349166547e+01   2.5640838229e+01    0.3786719    0.2664748 -82.31  0.001510117    2.221    0.550
        65 -10.5108    135.0000    112.1000   8.5141693661e+01   3.3111838123e+01    0.4346897   0.08804353 -45.34  0.001041921    4.849    0.794
        66 -11.5730    118.4962    110.6514   8.9134973524e+01   3.6883434087e+01    0.6565298    0.4312499  62.60  0.002784712    1.919    0.479
        67 -10.2198    205.4742    110.1547   6.8973109494e+01   1.7286540375e+01    0.3116385    0.2174903  41.32  0.000760801    1.522    0.343
        68  -9.5277    134.5775    106.2856   8.3705506627e+01   3.4479498807e+01    0.3043437    0.1490639 -48.90  0.001124574    2.061    0.515
        69 -10.9004     53.9278    231.6919   1.2238722066e+02   2.0420116290e+01      0.21686    0.1284619  81.52  0.001374393    1.536    0.349
        70  -9.0816    155.4009     81.4618   7.1442595063e+01   3.4743077113e+01    0.1550636    0.1511964 -27.90 0.0001323261    1.023    0.023
        71  -9.4917     67.7999     71.1748   9.3710237238e+01   5.4558589461e+01     0.194589    0.1745015 -54.85 0.0003834909    1.152    0.132
        72 -11.5871    158.7369     60.6114   6.4268321390e+01   3.7637715065e+01    0.5492815    0.3532187 -80.65 0.0007510387    2.547    0.607
        73  -8.7494    168.2541    248.2795   1.0318397778e+02   7.2720516306e-01    0.1083825   0.08072667  17.69            0    1.465    0.318
        74 -13.5485    178.5948     49.7007   5.7051086268e+01   3.4271858399e+01    0.9202632    0.7833899  14.79 0.0008205718    1.384    0.278
        75 -11.1327    158.1587    237.1415   1.0358205354e+02   3.9582305873e+00    0.3592929     0.221035 -55.54  0.002066734    2.111    0.526
        76 -11.2640    160.9426     54.3829   6.1835976328e+01   3.8087197398e+01    0.2875942    0.2812483 -69.69  0.000571795    1.032    0.031
