#   1 NUMBER                 Running object number                                     
#   2 MAG_AUTO               Kron-like elliptical aperture magnitude                    [mag]
#   3 X_IMAGE                Object position along x                                    [pixel]
#   4 Y_IMAGE                Object position along y                                    [pixel]
#   5 X_WORLD                Barycenter position along world x axis                     [deg]
#   6 Y_WORLD                Barycenter position along world y axis                     [deg]
#   7 A_WORLD                Profile RMS along major axis (world units)                 [deg]
#   8 B_WORLD                Profile RMS along minor axis (world units)                 [deg]
#   9 THETA_WORLD            Position angle (CCW/world-x)                               [deg]
#  10 FWHM_WORLD             FWHM assuming a gaussian core                              [deg]
#  11 ELONGATION             A_IMAGE/B_IMAGE                                           
#  12 ELLIPTICITY            1 - B_IMAGE/A_IMAGE                                       
         1 -11.5740    208.4928     27.3696   6.9089680693e+01   2.9059964138e+01    0.8828323    0.5433686 -57.12  0.002948973    1.713    0.416
         2  -9.8177      9.0302     32.3623   1.3910385504e+02   7.0622627795e+01    0.4059737    0.1884311  85.50  0.001425991    3.016    0.668
         3 -11.6175    217.8226      6.2676   6.2398738668e+01   2.8893540268e+01     1.114416    0.5431393  57.95  0.005185276    2.135    0.532
         4  -9.4912    217.3163     17.4077   6.5462488806e+01   2.7947039458e+01    0.2564622    0.2333658 -38.35  0.000419981    1.068    0.064
         5 -11.3109    230.4068     16.1403   6.4054836970e+01   2.4996671496e+01    0.4874096    0.4019619 -28.51 0.0005498119    1.164    0.141
         6 -11.4136    222.7499     13.3104   6.3909261091e+01   2.7053951043e+01    0.9199272    0.5565884 -31.55  0.004802558    1.498    0.332
         7 -10.2529    235.7784     13.8906   6.3084004649e+01   2.3999933604e+01    0.3272533    0.2587647 -64.20 0.0003612545    1.198    0.165
         8 -12.5644    235.0768      3.8706   6.0617446443e+01   2.5091812456e+01     1.405668    0.8519269 -82.90  0.007630936    1.713    0.416
         9 -10.9842    247.0827      2.0115   5.9474189389e+01   2.2628187347e+01    0.4049371    0.3063813 -86.41 0.0008578643    1.344    0.256
        10 -10.0124    189.2531     15.0792   6.7514639346e+01   3.5281335965e+01    0.3101673    0.2499933  13.49  0.001006743    1.463    0.317
        11 -10.1265     50.2853     11.6845   1.0307646716e+02   7.0839006690e+01    0.3054895    0.2740473 -63.87   0.00125094    1.545    0.353
        12  -8.7931     80.3388     12.6280   8.9233630650e+01   6.4669861356e+01    0.3140407      0.20225 -53.20   0.00115711    2.178    0.541
        13  -8.1705    169.4241     10.7997   6.8427197669e+01   4.1056163317e+01    0.1881424     0.142329   2.23 0.0003856971    1.553    0.356
        14  -9.2197     40.3037      7.5958   1.0676774962e+02   7.3114807480e+01    0.2962072    0.2000668  54.56  0.001051062    2.295    0.564
        15  -9.5579    178.6555      5.2725   6.5532715766e+01   3.9047115087e+01     0.409552    0.2321114 -33.79  0.001885082    1.720    0.419
        16 -10.3040     14.2822      3.6893   1.2483637782e+02   7.6750400887e+01    0.5228503    0.2126492 -46.91  0.002531284    1.939    0.484
        17  -8.7528    105.3369      3.1573   7.6408624968e+01   5.9515210413e+01     0.283388    0.1393216  -6.62  0.001090526    2.548    0.608
        18  -8.6310    187.4880      3.4475   6.4085668294e+01   3.6841292521e+01    0.1409804    0.1273373 -74.37 4.369688e-05    1.029    0.028
        19 -10.3709     60.0808      2.8277   9.2106150739e+01   7.0346094523e+01    0.2355355    0.2074434  26.15 0.0002817698    1.093    0.085
        20  -8.4684    167.5178      2.5074   6.5809567193e+01   4.2334848301e+01    0.1443494    0.1336165  84.94 4.987568e-05    1.005    0.005
        21  -8.2741    159.3529      5.6759   6.7903602100e+01   4.4323930388e+01    0.1610313    0.1011474 -61.70 0.0007047424    1.760    0.432
        22  -8.6484     39.9090      2.0000   1.0328026645e+02   7.4104215227e+01    0.2044124   0.07087608  39.09 0.0007984998    2.915    0.657
        23  -7.7439    146.6973    242.3168   1.2702535022e+02   9.0980171484e+00    0.1090558   0.07110168  49.36 0.0002984342    1.621    0.383
        24  -9.5385    248.8129    249.7807   1.1019488895e+02  -4.7289263208e+00    0.2616668    0.1189111  22.87  0.001732929    1.577    0.366
        25  -9.0557    230.5088    250.5234   1.1319131695e+02  -2.6677431318e+00     0.142984   0.08053271  -8.86 0.0007075734    1.789    0.441
        26  -9.8939    182.7811    249.5250   1.2119192906e+02   3.4255154616e+00    0.3843467    0.1084249  31.06  0.001706734    2.883    0.653
        27  -7.8534     77.5712    250.5359   1.4092137404e+02   1.6791700545e+01    0.1087455   0.07413308  44.57 0.0001305619    1.032    0.031
        28  -7.9142     52.9691    249.9862   1.4547552178e+02   1.9607870787e+01    0.1255145   0.08396908  45.61 0.0004003024    1.022    0.021
        29  -8.3886     39.8523    249.2653   1.4784762169e+02   2.1067813473e+01    0.1588369    0.1213431 -43.87  0.001234898    2.195    0.544
        30  -8.6776     36.1871    247.7849   1.4845998432e+02   2.1656173499e+01    0.1699071   0.09070284  44.00 0.0005119675    1.248    0.199
        31  -7.9956     26.5269    250.5126   1.5028352287e+02   2.2171080304e+01    0.1019397   0.06653894  49.87 5.423725e-06    1.016    0.015
        32  -7.9344    114.7822    242.6266   1.3319923468e+02   1.3318709676e+01        0.172    0.0722563  40.85 0.0009497203    1.691    0.409
        33  -9.8394     21.6830    240.8492   1.5088112864e+02   2.4109649360e+01    0.3039935    0.1882178  29.57  0.001189581    1.555    0.357
        34  -7.5496    136.6503    245.7018   1.2928726106e+02   1.0016646421e+01    0.1114688   0.07196764  15.74 0.0007035841    1.686    0.407
        35  -8.9507    164.9178    246.2656   1.2405001610e+02   6.1579276550e+00     0.164268    0.1018307  29.95 0.0004064054    1.129    0.114
        36  -7.7492    134.5348    241.5857   1.2927776916e+02   1.0837846690e+01    0.1161813   0.08082705  36.77  9.94748e-05    1.066    0.062
        37  -8.2362     33.0932    241.4983   1.4880557764e+02   2.2930906039e+01    0.1492103   0.07567582  35.45 0.0005638278    1.502    0.334
        38  -9.0075    234.4273    239.7822   1.1109237017e+02  -2.1901063812e+00    0.1340808    0.0791784  -4.29 0.0006129714    1.572    0.364
        39  -7.8993    206.4986    240.4689   1.1587468560e+02   1.2663253269e+00    0.1142578   0.07571596  19.33 0.0001159803    1.069    0.064
        40  -9.3547    188.8031    239.7596   1.1890795454e+02   3.6818413721e+00     0.376689    0.1085035  40.00  0.001291554    2.875    0.652
        41  -9.9483    246.0335    243.6456   1.0978145706e+02  -3.9056752693e+00      0.20344   0.09465663 -23.55  0.001339412    2.249    0.555
        42  -7.5416     85.5067    240.4982   1.3873592816e+02   1.7327736477e+01    0.1134111   0.07949892  43.58  -0.00019638    1.026    0.025
        43  -9.1292      9.0232    239.3167   1.5313120456e+02   2.5468993816e+01    0.2357483     0.120902 -57.37  0.001527014    3.124    0.680
        44  -8.2314     69.7537    239.2228   1.4172278237e+02   1.9388509434e+01    0.1304884    0.1046754  33.71 0.0002986605    1.259    0.206
        45  -7.9399     36.5376    239.5320   1.4809230493e+02   2.2902764528e+01    0.1064481   0.07147695  50.02 8.524563e-05    1.029    0.028
        46  -8.5312    248.2911    238.3398   1.0867840443e+02  -3.7197090091e+00    0.1094748   0.05690619   9.18 0.0007025049    1.647    0.393
        47  -8.1260     81.7592    238.2263   1.3930991953e+02   1.8125644188e+01    0.1338923    0.1042357  31.26 0.0003244095    1.253    0.202
        48  -8.8885     27.8773    237.5874   1.4964204481e+02   2.4050779712e+01    0.1734024    0.1110247  61.75 0.0004431173    1.241    0.194
        49  -8.2590      3.4530    238.0768   1.5410226371e+02   2.6130890506e+01     0.126918   0.07922271  81.46  0.001006504    1.533    0.348
        50  -8.2217    167.3463    237.2753   1.2254378121e+02   6.8929092172e+00    0.1163711   0.07000348  16.71 0.0002387787    1.628    0.386
        51  -7.6039    106.7084    237.3327   1.3431489760e+02   1.5126517065e+01    0.1142687   0.06735363  53.62 0.0005950268    1.632    0.387
        52  -8.7087     18.9689    237.2888   1.5128104786e+02   2.4921091119e+01    0.1443348   0.09375533  45.24  0.000431176    1.114    0.102
        53  -7.7370    136.3240    236.2797   1.2838110971e+02   1.1304982451e+01    0.1119738   0.07457913  16.40 0.0002501214    1.590    0.371
        54  -8.1532    244.3004    235.3093   1.0887199244e+02  -2.9845822726e+00    0.1099596   0.05810405  10.68 0.0002529104    1.601    0.375
        55 -10.3213    188.0111    233.2642   1.1820753975e+02   4.5119620819e+00    0.4450441    0.3192123   9.84  0.003174827    1.252    0.202
        56  -9.1798     34.0077    233.6893   1.4834981336e+02   2.4088946697e+01    0.1630609    0.1202412  60.67 0.0004910164    1.141    0.123
        57  -9.2102    248.8502    233.2009   1.0784799346e+02  -3.3426054498e+00    0.1521278   0.08656424  11.81 0.0004830065    1.329    0.247
        58  -8.3362     80.5402    233.5202   1.3921985978e+02   1.9000979447e+01    0.1140834   0.08210188  44.33 4.940578e-05    1.010    0.010
        59  -9.7057     13.0167    227.4983   1.5213903150e+02   2.7044410175e+01    0.2305099    0.1192814  62.07 0.0008459812    1.472    0.321
        60 -10.7070      5.6740    229.7503   1.5355430760e+02   2.7291869974e+01    0.3131587     0.234689  13.08 0.0006236841    1.864    0.464
        61 -10.2485      7.5392    221.1410   1.5303194714e+02   2.8578638619e+01    0.4286604    0.2365996  85.04  0.002860243    1.722    0.419
        62  -9.0255     11.1378    231.8425   1.5259021249e+02   2.6489585629e+01    0.2264203    0.1185138  60.77 0.0005367574    1.418    0.295
        63  -8.1777    159.9585    235.5072   1.2372906881e+02   8.1338428636e+00    0.1759428   0.07973814  20.83 0.0008091019    2.742    0.635
        64  -9.0268     24.9360    229.4439   1.4993302824e+02   2.5652156980e+01    0.1552021   0.06461661  42.32 0.0006529567    1.603    0.376
        65  -8.3898    241.6808    229.6710   1.0846781560e+02  -2.1613814728e+00    0.1145921   0.06020414  10.35 0.0007047506    1.686    0.407
        66  -7.8423    152.0197    227.4990   1.2430792816e+02   1.0290354881e+01    0.1710927    0.0842402  19.73 0.0008099232    2.511    0.602
        67  -8.0099    112.3552    227.0019   1.3222932993e+02   1.5915460660e+01    0.1569759    0.1206564  40.22  0.000623662    1.048    0.045
        68  -8.0107     95.5459    227.5613   1.3571912326e+02   1.8056650110e+01    0.1183741   0.08506123  43.63 7.378208e-05    1.053    0.050
        69 -10.3733     33.5118    223.8559   1.4806393046e+02   2.5771820835e+01    0.2414239    0.1671184  47.23   0.00121491    1.066    0.062
        70 -12.6788     35.3223    215.4766   1.4734681559e+02   2.7043826197e+01    0.9253094    0.6197246  55.54  0.004351649    1.126    0.112
        71  -7.7568     68.5595    225.4421   1.4108469035e+02   2.1731619858e+01    0.1133825   0.08393518  45.90 7.348564e-05    1.016    0.016
        72  -9.0154    249.0217    223.7146   1.0640734895e+02  -2.5190998731e+00    0.2198656    0.1011868  -1.44  0.001165156    2.648    0.622
        73  -8.0613    168.0026    224.7858   1.2085114131e+02   8.3523873119e+00    0.1630975   0.07335887  34.97 0.0004284689    1.659    0.397
        74  -7.3872    101.6833    223.3427   1.3408046566e+02   1.7917348789e+01    0.1226202   0.07071859  55.13 0.0005900402    1.713    0.416
        75  -7.5918    131.3257    234.6674   1.2919289199e+02   1.2211404088e+01    0.1165164   0.07184578  52.29 0.0007051138    1.711    0.415
        76  -7.6284    138.0264    222.8012   1.2654668280e+02   1.2947808915e+01    0.1598517   0.07265878  35.80 0.0003028535    1.640    0.390
        77  -7.6481     95.5006    222.5400   1.3529349579e+02   1.8861466310e+01    0.1204578    0.0876466  44.06 0.0004616892    1.055    0.052
        78  -7.8468    175.2902    221.3504   1.1899092392e+02   7.7353878986e+00    0.1198463   0.07658549   9.40 0.0002258977    1.669    0.401
        79  -8.1425    142.6001    219.4004   1.2521276791e+02   1.2776119990e+01    0.2450557   0.07364236  44.44 0.0009639988    3.117    0.679
        80  -8.2459    127.4092    224.8169   1.2893194893e+02   1.4162696754e+01     0.140238    0.1083731 -27.96 0.0009417919    1.740    0.425
        81  -9.6900     16.1242    232.8600   1.5169121534e+02   2.5889766157e+01    0.3776122   0.07732271  43.21  0.001850627    2.430    0.589
        82  -7.5826    171.3017    217.2927   1.1920755330e+02   8.8410342491e+00    0.1198436   0.07730275  13.25 0.0003364866    1.570    0.363
        83  -8.1276    151.4557    216.6377   1.2306834477e+02   1.1869424868e+01    0.2237236   0.09020564  36.21  0.001072385    1.882    0.469
        84  -8.3276     57.9310    216.2250   1.4269280884e+02   2.4520261135e+01    0.1746235    0.1093058  49.11 0.0004619395    1.206    0.171
        85  -8.2337    248.6200    215.1678   1.0514952909e+02  -1.6773949787e+00    0.1432064   0.08089469  -8.18 0.0003388958    1.605    0.377
        86  -7.9344    204.5606    215.5006   1.1268607858e+02   4.2201358660e+00    0.1208536   0.08588037  17.25 0.0001570066    1.060    0.056
        87  -7.8958     10.5300    215.4982   1.5232393167e+02   2.9303594058e+01    0.1062859   0.07421789  55.06 7.482451e-05    1.009    0.009
        88  -7.5183    115.2945    213.2980   1.3020610116e+02   1.7651507749e+01    0.1132687   0.08616114  10.28 0.0003289769    1.566    0.362
        89  -8.5325      3.9963    211.5061   1.5351700695e+02   3.0538314083e+01    0.1493434    0.1038008  60.46 0.0003772525    1.064    0.060
        90  -8.1352    180.4684    211.5127   1.1660633028e+02   8.2303439543e+00    0.1244389   0.09271564  22.84 7.237827e-05    1.023    0.022
        91  -8.1618    187.6073    209.7126   1.1496793332e+02   7.3926991603e+00     0.251464    0.1383595   2.86 0.0008349183    2.671    0.626
        92  -8.6631    171.5034    210.6208   1.1823195693e+02   9.6974052013e+00    0.3128771   0.09005017  40.06  0.001260171    2.817    0.645
        93  -9.4843     11.7019    206.5686   1.5185844103e+02   3.0795295672e+01    0.3531173    0.1615694 -86.01  0.002164397    2.163    0.538
        94  -7.8908    150.4138    209.5095   1.2234627497e+02   1.3054383383e+01    0.1775777   0.09450053  42.03 8.388596e-05    1.583    0.368
        95  -7.8511    147.2763    208.3226   1.2283902434e+02   1.3706834270e+01    0.1195583   0.08553348   8.38 0.0001815273    1.580    0.367
        96  -9.1822    165.9031    207.2758   1.1887149733e+02   1.1010113343e+01    0.3574013    0.1550643  39.14  0.001328159    1.850    0.460
        97  -7.9740    135.8071    207.6517   1.2516627012e+02   1.5544708990e+01    0.1767922   0.08988082  41.72 0.0001991724    1.595    0.373
        98  -8.3356    247.9017    205.8667   1.0377337258e+02  -6.8815129618e-01    0.1818224    0.1108389  10.48 0.0008046228    1.297    0.229
        99  -8.8835     17.9462    206.1124   1.5056380475e+02   3.0345158728e+01    0.1594599    0.1183948  54.27 0.0004051759    1.032    0.031
       100  -8.5930     89.6794    224.9184   1.3670353254e+02   1.9230429315e+01    0.1514098    0.1212311  50.24 0.0004863931    1.115    0.103
       101  -8.8444      4.3647    204.0791   1.5328767230e+02   3.1841134849e+01    0.1812547    0.1098426  47.00 0.0003918133    1.221    0.181
       102  -9.7488     59.1729    186.7185   1.4033230968e+02   2.9874343171e+01    0.3198444    0.1955418  25.41  0.001374131    1.695    0.410
       103 -11.2138     53.0236    199.9712   1.4271140745e+02   2.8014272956e+01    0.5228829    0.2470704  56.14  0.002854232    1.853    0.460
       104 -11.4900     56.1838    194.3246   1.4160691236e+02   2.8732985369e+01    0.9754794    0.4552894  67.71  0.004852807    2.407    0.585
       105 -11.5229     51.8039    192.9894   1.4251648866e+02   2.9482000139e+01    0.7262484    0.3992902  38.75  0.004258623    1.458    0.314
       106  -7.7256    175.4925    202.4891   1.1624155660e+02   1.0194005385e+01    0.1280347   0.09763553  23.06 0.0001522292    1.030    0.029
       107  -7.7066    101.9861    202.7684   1.3197200715e+02   2.1301680346e+01    0.1615487   0.08450029  35.51 0.0003081541    1.526    0.345
       108  -9.8302     44.1350    202.1529   1.4480965804e+02   2.8564450634e+01    0.2139887    0.1207678  41.42 0.0009502124    1.365    0.267
       109  -8.7139    250.5569    197.8591   1.0202372524e+02  -2.3957584054e-01    0.2206086    0.0922331 -20.28  0.001158949    2.399    0.583
       110  -8.6962    243.5830    197.6118   1.0309841172e+02   7.2049505918e-01    0.2789395    0.1155038 -14.60  0.001288846    3.076    0.675
       111  -8.2229    230.9099    197.9710   1.0526049379e+02   2.4393790589e+00      0.18519    0.1068083  11.13 0.0004153751    1.607    0.378
       112  -8.3745    150.8593    198.3838   1.2070802604e+02   1.4662376624e+01    0.1855079   0.09986353  27.97 0.0004615453    1.678    0.404
       113  -7.6640    107.3371    198.7437   1.3032624191e+02   2.1244203006e+01    0.1291764   0.07843348  52.34 0.0003110851    1.574    0.365
       114  -8.5157    192.0356    195.8199   1.1194606756e+02   8.5113900686e+00    0.2122417    0.1165008  17.99  0.001072265    1.923    0.480
       115  -8.5485    181.0137    195.2148   1.1400761254e+02   1.0331442615e+01    0.1741779   0.08437146  35.90 0.0005757987    1.675    0.403
       116  -8.3078      1.4178    195.8494   1.5371793809e+02   3.3586066821e+01    0.1431556   0.08539005  83.28 0.0004076203    1.492    0.330
       117  -7.8663     69.7043    193.3119   1.3841044317e+02   2.7323161169e+01    0.1280118    0.0738552  57.38 0.0003169803    1.597    0.374
       118  -8.3657    164.9978    190.2180   1.1648428330e+02   1.3639491325e+01    0.1790754   0.08815036  36.60 0.0006598831    1.658    0.397
       119  -7.9992     82.0110    190.5113   1.3527767620e+02   2.6282086815e+01    0.1796724   0.07488528  50.63 0.0004362604    2.239    0.553
       120  -7.5247     18.6571    190.2488   1.4985587649e+02   3.3271105643e+01    0.1192665   0.05750192  52.22 0.0001970939    1.573    0.364
       121  -7.9370    191.6867    189.6382   1.1099007051e+02   9.3925126016e+00    0.1343021   0.08403882   7.92 0.0007041496    1.754    0.430
       122  -7.8154    243.5407    187.4698   1.0136064097e+02   1.7993295011e+00    0.1209805   0.08622333   8.34 8.866083e-05    1.052    0.049
       123  -8.5647    237.9340    185.4746   1.0192788665e+02   2.8168412984e+00    0.2975745    0.1315243 -11.07  0.001293617    3.200    0.687
       124  -8.7150    230.1020    184.9489   1.0315190204e+02   4.0234774882e+00     0.185964    0.1359327  10.29 0.0004556978    1.055    0.052
       125  -8.4330    250.1466    182.1857   9.9368012066e+01   1.4403223871e+00    0.1802322    0.1184862   8.76 0.0004227805    1.225    0.183
       126  -8.3624     57.7169    180.4114   1.4016886702e+02   3.1311082973e+01     0.156756    0.1094948  25.17 0.0003188458    1.510    0.338
       127  -7.7726    235.3523    179.3169   1.0125416370e+02   3.8927280328e+00    0.1308331   0.07502279  10.25 0.0007046849    1.739    0.425
       128  -8.8160      4.3702    187.0067   1.5288873065e+02   3.5049607731e+01    0.1560859    0.1305357  46.28  0.000441128    1.219    0.179
       129  -8.0084    189.3794    176.2982   1.0912185750e+02   1.1634371432e+01    0.1410568   0.08761556  12.91 0.0007023354    1.761    0.432
       130  -9.4069    176.1111    172.5519   1.1115673727e+02   1.4470501479e+01    0.2625903    0.1779444 -41.73  0.001273755    1.752    0.429
       131  -7.6956     25.3482    173.2780   1.4756040921e+02   3.6100883902e+01    0.1033278   0.08811402 -33.56 0.0007008229    1.638    0.389
       132  -8.1821     36.2636    168.9691   1.4461955745e+02   3.5992564915e+01    0.1686101    0.1323899  69.11 0.0004665391    1.092    0.084
       133  -9.6749    246.1758    167.1933   9.7239858134e+01   3.6678781438e+00    0.2458279    0.1592518  21.56  0.000439209    1.329    0.248
       134  -7.9683    237.3850    167.2627   9.8676631307e+01   4.9938353454e+00    0.1307006   0.07637051  13.91 0.0004458545    1.688    0.408
       135  -8.2666    135.1668    154.8264   1.1723780026e+02   2.4886702725e+01     0.195203    0.1592186  13.35 0.0008529463    1.304    0.233
       136  -8.6687     35.4243    155.0884   1.4386576974e+02   3.9093485111e+01    0.2267141    0.1330797  47.62 0.0004626563    1.464    0.317
       137  -7.7469     88.3801    154.6904   1.2939699082e+02   3.2713152135e+01    0.1506168   0.09181799  59.69 0.0007025371    1.794    0.443
       138  -8.3268    143.4782    148.0201   1.1390608464e+02   2.4652934421e+01    0.2054677    0.1454718 -46.26  0.001028543    1.587    0.370
       139  -8.9668    133.5050    146.8585   1.1615690185e+02   2.6745604458e+01    0.3346626    0.2295468 -18.80  0.001540306    2.025    0.506
       140  -7.9775     86.4490    147.5641   1.2889223062e+02   3.4566271505e+01    0.1394322    0.1225893  53.99 0.0005483294    1.032    0.031
       141  -7.6869      6.6374    147.2858   1.5110240013e+02   4.3141534261e+01    0.1287938   0.06377585  54.96 0.0007021263    1.688    0.407
       142  -9.2888     68.9971    145.2901   1.3351819650e+02   3.7528593680e+01    0.2440302    0.2268261  39.34  0.001353215    1.127    0.113
       143  -9.8543     65.3395    141.9525   1.3414250308e+02   3.8769354532e+01    0.3576963    0.2070585  60.51  0.001149635    1.842    0.457
       144  -7.8253     11.5341    143.4499   1.4962275337e+02   4.3667463879e+01    0.1204853   0.09604517  68.41 6.315907e-05    1.030    0.029
       145  -8.7083    131.9611    140.0274   1.1520495912e+02   2.8400339404e+01    0.3096353    0.1797964 -40.15   0.00133456    1.949    0.487
       146  -8.2131     76.1344    139.3595   1.3062852144e+02   3.7920729748e+01    0.1996575    0.1109244  43.52 0.0004196552    1.645    0.392
       147  -9.4175    248.4058    134.7566   9.0420140088e+01   7.1505534042e+00    0.3644736    0.1029756 -30.70  0.001417374    3.121    0.680
       148  -9.2552     66.8256    130.0534   1.3205418934e+02   4.1368166532e+01     0.237745    0.1437402  71.67  0.001077755    2.012    0.503
       149  -7.8190    238.4922    125.4631   8.9936356167e+01   1.0009751890e+01    0.1314781    0.1092233  -1.91 0.0002525564    1.003    0.003
       150  -7.8180     25.3077    123.2866   1.4428207276e+02   4.7351434542e+01    0.1213187   0.08990591 -45.04 0.0002086278    1.570    0.363
       151  -8.8226    134.8642    120.3978   1.1016964113e+02   3.1835266864e+01    0.2244624    0.1369635  31.74 0.0009357979    1.704    0.413
       152  -7.8547    229.3170    119.6520   9.0086294512e+01   1.2447448808e+01    0.1277889      0.10328 -54.92 0.0007048075    1.728    0.421
       153  -9.3996    247.9242    116.7472   8.6618274309e+01   9.4499396378e+00    0.3347017    0.1551011 -10.89  0.001336788    3.001    0.667
       154  -8.2379    219.7518    113.2419   9.0171540894e+01   1.5174162963e+01    0.2224085   0.09574174  38.97 0.0008961977    2.443    0.591
       155  -9.0596    134.6794    110.3319   1.0777292457e+02   3.3946471787e+01    0.2684703    0.2459957 -67.78 0.0006434131    1.239    0.193
       156  -9.3815    134.7379    107.0017   1.0690849213e+02   3.4619648701e+01    0.3508073    0.3060737 -13.94  0.001054153    1.246    0.197
       157  -8.1176    249.4630    107.4945   8.4345997883e+01   1.0326835180e+01    0.1294887    0.1077626 -10.03 0.0001423266    1.004    0.004
       158  -8.8222      5.7595    106.4010   1.4938972380e+02   5.2666429131e+01    0.1524497    0.1162655 -11.31 0.0009514035    1.666    0.400
       159  -8.0967    241.6970    105.6555   8.5015228496e+01   1.1975009086e+01    0.1374133   0.09108359   7.97 0.0007039874    1.685    0.406
       160  -8.5635     66.3112    103.6557   1.2774073712e+02   4.7847853239e+01     0.151525    0.1046155  68.70 0.0005916357    1.704    0.413
       161  -8.0698    224.6020    101.2960   8.6541752169e+01   1.5870759834e+01    0.1343919    0.1065713 -66.05 0.0001871644    1.806    0.446
       162  -8.0132    109.8162     99.5849   1.1221380533e+02   4.1422880392e+01    0.2197525    0.1407529  50.74 0.0005099335    1.619    0.382
       163  -7.8916    145.5884     95.7698   1.0102720232e+02   3.4446636138e+01    0.2094976    0.1496296 -50.00  0.000657124    1.554    0.357
       164  -9.0887    248.3856     91.8178   8.0912781380e+01   1.2469284213e+01    0.2859584    0.1120554 -20.67  0.001122255    2.748    0.636
       165  -8.1744    238.8987     93.6546   8.2610407657e+01   1.4051076829e+01    0.1641707    0.1278075  69.26 0.0003941033    1.695    0.410
       166  -8.3761     22.8221     91.6263   1.4197568228e+02   5.5313083159e+01    0.1706436    0.1116117  36.88 0.0004210298    1.594    0.373
       167  -9.1543    151.1046     89.5860   9.7888914217e+01   3.4337803125e+01    0.3145959    0.2286445 -43.91  0.000717774    1.450    0.310
       168  -8.6185    153.9765     85.9839   9.6144520579e+01   3.4319517573e+01    0.2420681    0.2211951 -80.57 0.0006910338    1.276    0.216
       169  -8.1374    239.6505     87.3247   8.1000373013e+01   1.4715557461e+01    0.1341445   0.09680381 -55.63 0.0007048952    1.752    0.429
       170  -8.8168    212.5525     84.6206   8.4266470582e+01   2.0754669644e+01    0.2481399     0.218586  36.10 0.0006997759    1.158    0.137
       171  -8.1536      3.1463     81.1949   1.4864037523e+02   5.8912941001e+01    0.1724855    0.1250394  68.44 0.0005431244    1.332    0.249
       172  -9.4264    184.4001     77.4848   8.7179224854e+01   2.8361534586e+01    0.3174762    0.2476826   7.44  0.001053819    1.461    0.315
       173  -9.2679    162.2355     77.0055   9.1565020016e+01   3.3893755243e+01    0.2883238    0.2200939  -6.95 0.0006687603    1.531    0.347
       174 -10.9656    166.3468     72.7702   8.9390922333e+01   3.3582219487e+01    0.4915527    0.4691548 -24.75   0.00144414    1.060    0.056
       175  -8.3279    145.9945     76.2272   9.5147242697e+01   3.8053049940e+01    0.2228505    0.2178522   8.10  0.001167445    1.028    0.027
       176 -11.7326    179.8429     57.3990   8.2056833718e+01   3.2540164123e+01    0.9110754    0.7739108 -84.22  0.003200232    1.338    0.253
       177  -8.2744      1.4637     59.4586   1.4746392345e+02   6.4294762508e+01     0.123278     0.103665 -81.44 1.166504e-05    1.055    0.052
       178  -9.0343     33.0505     57.6327   1.3161717672e+02   6.3032358904e+01    0.2328193    0.1694553 -56.46 0.0003428874    1.211    0.174
       179  -9.3940    249.8016     55.3626   7.2107379712e+01   1.6570237275e+01    0.2207369    0.1729657  -7.51  0.001325638    1.306    0.234
       180  -9.2991    246.3698     53.1883   7.1929062680e+01   1.7518536914e+01    0.2821639    0.1567959 -58.27  0.000748531    2.247    0.555
       181  -8.8377     94.9668     52.5858   1.0229278690e+02   5.4637155460e+01    0.2657942    0.2124074 -56.75 0.0005383553    1.430    0.301
       182  -8.3531     44.1502     51.8832   1.2443752380e+02   6.3315239062e+01    0.1951498    0.1840562  83.45 0.0004036694    1.196    0.164
       183  -9.4183    187.5384     49.1076   7.8241978273e+01   3.1723277946e+01     0.284346    0.2127287 -87.64  0.001002587    1.585    0.369
       184  -9.4617     95.6274     45.4131   9.9192103799e+01   5.5875509099e+01    0.3031006     0.263289  11.87  0.001027265    1.190    0.159
       185  -8.1005    245.3145     45.3058   7.0106727185e+01   1.8632849271e+01    0.1264928   0.09494919  19.51 0.0002728319    1.623    0.384
       186 -11.3581    200.9699     35.8859   7.2412551841e+01   2.9970616004e+01    0.8327162    0.4088912 -57.10  0.001687654    2.571    0.611
       187  -9.5659    218.2027    248.9558   1.1500524425e+02  -1.0362532624e+00    0.2646863    0.1063567  19.00  0.001329848    2.747    0.636
       188  -8.1870     76.9245     40.1580   1.0433986387e+02   6.0801869096e+01    0.2042818     0.167332   5.80 0.0003991467    1.308    0.235
       189  -8.5241     21.1932     39.9983   1.3355017642e+02   6.8190660218e+01    0.1830437    0.1616314  89.00 0.0003641224    1.260    0.207
       190 -10.1721    230.3803     37.5803   6.9612736369e+01   2.2743939394e+01    0.4174023    0.4045053  -1.60  0.001262311    1.116    0.104
       191  -9.5374     52.0246     38.4385   1.1553259337e+02   6.5371861157e+01    0.2449399    0.1872455 -44.24 0.0003226863    1.222    0.182
       192  -8.3383    240.1251     36.8697   6.8503249004e+01   2.0670726221e+01    0.1929039    0.1532027 -51.12  0.000309706    1.191    0.161
       193  -8.0386     92.3681     37.1693   9.6865545637e+01   5.8103248267e+01    0.2113571    0.1372848 -46.42 0.0005444066    1.699    0.411
       194  -8.5072     73.5202     37.5064   1.0466062907e+02   6.1975220577e+01    0.1479826    0.1357005  -3.44 2.093254e-05    1.029    0.028
       195  -9.4993    248.9219     35.8028   6.7467007564e+01   1.8921311146e+01    0.2038603    0.1826723 -39.57 0.0004742547    1.037    0.035
       196 -10.3168    182.7623     33.1579   7.4002882533e+01   3.5007096895e+01    0.4431613    0.3355345 -66.80 0.0008287813    1.440    0.305
       197  -8.4766     95.0916     33.6437   9.4303994335e+01   5.8084043227e+01    0.2153642    0.1771246  38.44 0.0003825647    1.164    0.141
       198  -8.8465    201.8379    249.3740   1.1783291930e+02   9.7694030928e-01     0.163451   0.07088189  27.19  0.000946412    1.724    0.420
       199  -8.4083     21.8525     31.9055   1.3078549079e+02   7.0047738958e+01    0.1591068    0.1447005 -87.01            0    1.265    0.209
       200  -9.2275    238.9722     27.9122   6.6360790052e+01   2.1880474096e+01     0.216327    0.1788195  79.98 0.0004008864    1.308    0.235
       201  -9.1527    243.0779     26.7905   6.5746608200e+01   2.1105540827e+01    0.2204095    0.1920119 -74.76 0.0003883012    1.181    0.153
       202  -8.5829    218.5254     26.5116   6.7832959731e+01   2.6712368118e+01    0.1355596    0.1237567 -49.83 0.0001618949    1.008    0.008
       203  -8.5402     91.4947     25.0274   9.1541609417e+01   6.0302025309e+01    0.2205645    0.1887827  41.90 0.0004086097    1.117    0.104
       204  -7.6414     82.3084     25.2732   9.5133904595e+01   6.2351689227e+01    0.1493159    0.1081453  17.01 0.0002138858    1.547    0.354
       205  -9.5113      8.8549     27.5803   1.3807018799e+02   7.1752801211e+01     0.345443     0.150683  -2.35   0.00155117    2.714    0.631
       206  -8.7612     84.7712     21.5466   9.2287924640e+01   6.2384209838e+01    0.2524171     0.197307 -25.91 0.0005016483    1.293    0.227
       207  -9.5011    193.3052    248.4836   1.1920500540e+02   2.1633169790e+00    0.2216069    0.1307561  20.78 0.0008479132    1.300    0.231
       208  -8.7434    145.5215    250.5245   1.2810485345e+02   8.2341239367e+00    0.1134645    0.0783029  33.74 -9.900262e-05    1.040    0.039
       209  -7.6613     91.4834    249.5517   1.3822862838e+02   1.5279991916e+01    0.1114363    0.0759661  42.22 0.0001327523    1.032    0.031
       210  -8.4446      3.6396    249.3057   1.5424721655e+02   2.4376836552e+01    0.1084602   0.03813578  51.75 0.0007039397    1.731    0.422
       211  -7.9859     23.4653    248.4678   1.5076996484e+02   2.2765893792e+01    0.1018568   0.06639661  50.31 0.0003737825    1.018    0.018
       212  -8.3718     64.5309    247.5404   1.4320008440e+02   1.8716409100e+01    0.1077585   0.07448402  45.09 0.0001269474    1.006    0.006
       213  -8.0321     14.4368    247.5188   1.5234253218e+02   2.3725161303e+01   0.09856169   0.06644192  51.22 0.0001389317    1.027    0.026
       214  -8.4314    250.1474     20.2662   6.3634486344e+01   2.0264499357e+01     0.204449     0.115689  28.49 0.0009509408    2.795    0.642
       215  -9.4623     19.4506     19.4948   1.2799480209e+02   7.3023198957e+01    0.3396443    0.1695976 -52.17  0.001719823    1.636    0.389
       216  -8.4393    207.2923     19.0733   6.6849621040e+01   3.0238268686e+01    0.1928126    0.1682341 -44.76 0.0005770389    1.078    0.073
       217  -8.6717    162.5741     18.5978   7.2068429625e+01   4.2154758120e+01    0.4085852     0.147089  59.31  0.001449733    2.414    0.586
       218  -8.9932     75.0894     16.8039   9.3670132466e+01   6.5241926848e+01    0.2042544    0.1984283  76.51 0.0005156848    1.258    0.205
       219  -8.1106      9.7336    247.3611   1.5316202149e+02   2.4158066719e+01    0.1047654   0.04294531  55.65 0.0005340167    1.642    0.391
       220  -8.5029    146.1539     14.1419   7.3009503137e+01   4.7200108733e+01    0.2258806    0.1892321  41.93  0.000346609    1.194    0.163
       221  -8.2448    212.2908    246.3198   1.1565404808e+02  -5.1239449734e-02    0.1097486   0.06139937  12.18 0.0002812991    1.603    0.376
       222  -9.5174    171.6862    245.7066   1.2274315562e+02   5.3154816626e+00    0.2159089    0.1009322  27.00  0.001233859    1.712    0.416
       223  -8.4468    151.2179     12.5950   7.1603179385e+01   4.5941267078e+01    0.2079211    0.1268478  57.33 0.0002873201    1.505    0.335
       224 -10.4349    157.6276    245.8086   1.2534920050e+02   7.1907199143e+00    0.3385623    0.1708763  30.33  0.001706198    1.453    0.312
       225  -8.2887    170.9971     14.5242   6.9494632142e+01   4.0256842240e+01    0.2159063    0.1398552  75.79 0.0009957463    1.503    0.335
       226  -8.8442    206.7733    245.1868   1.1644789434e+02   7.5979088855e-01    0.1569214   0.09163947  16.99 0.0006243346    1.367    0.269
       227  -9.5569     45.1381    244.6536   1.4669127945e+02   2.1234544835e+01    0.1670714    0.1286353  47.95 0.0003773683    1.135    0.119
       228  -8.8250    208.2083    249.5813   1.1676881030e+02   1.5014378735e-01    0.1558349    0.0712947  26.28 0.0007810537    1.606    0.377
       229  -8.1777    181.7556    243.0315   1.2059012567e+02   4.2671164675e+00    0.1533892    0.1133065  22.97 0.0006351476    1.081    0.075
       230  -7.7747     61.3381    243.6857   1.4359633306e+02   1.9652895164e+01     0.115946     0.053524  52.60 0.0005609114    1.696    0.410
       231  -8.5757     28.9561    242.6603   1.4960645748e+02   2.3146838512e+01    0.1439722   0.08951884  44.36 0.0003740115    1.125    0.111
       232  -8.1797     14.2463    243.1801   1.5227985673e+02   2.4411224905e+01    0.1410581   0.07190696  52.18 0.0005831285    1.308    0.236
       233  -8.2203      5.5537    243.4482   1.5382137529e+02   2.5114471440e+01   0.09771573   0.06576558  52.01 6.935425e-05    1.029    0.028
