#   1 NUMBER                 Running object number                                     
#   2 MAG_AUTO               Kron-like elliptical aperture magnitude                    [mag]
#   3 X_IMAGE                Object position along x                                    [pixel]
#   4 Y_IMAGE                Object position along y                                    [pixel]
#   5 X_WORLD                Barycenter position along world x axis                     [deg]
#   6 Y_WORLD                Barycenter position along world y axis                     [deg]
#   7 A_WORLD                Profile RMS along major axis (world units)                 [deg]
#   8 B_WORLD                Profile RMS along minor axis (world units)                 [deg]
#   9 THETA_WORLD            Position angle (CCW/world-x)                               [deg]
#  10 FWHM_WORLD             FWHM assuming a gaussian core                              [deg]
#  11 ELONGATION             A_IMAGE/B_IMAGE                                           
#  12 ELLIPTICITY            1 - B_IMAGE/A_IMAGE                                       
         1 -15.0686    168.1208     47.8841   6.7657472531e+01   3.7088202550e+01     1.446354     1.065159   2.09  0.004223808    1.630    0.386
         2 -15.0745    184.6064     17.7715   5.4908582080e+01   3.6625116054e+01     1.112571      1.00135  21.90  0.004188118    1.173    0.148
         3 -11.8839    134.4264    239.8113   1.1417793581e+02   1.1174659789e+01    0.1736824    0.1568972 -65.86 0.0009387559    1.449    0.310
         4 -19.4704     68.9153    157.3915   1.1740037439e+02   3.4636739922e+01      15.2668     5.887573 -70.54   0.06845198    2.657    0.624
         5 -10.9732    113.0695    205.9147   1.1427093038e+02   1.9309002475e+01    0.1758402     0.136494  57.55  0.001065553    1.035    0.034
         6 -11.5322     11.5888    205.9823   1.3204909800e+02   3.1704163167e+01    0.1961775    0.1264051  47.08  0.001558686    1.466    0.318
         7 -11.7732    112.8607    195.7098   1.1313567540e+02   2.1035607665e+01     0.367344     0.276289   8.29  0.001881751    2.393    0.582
         8 -11.1778    133.5795    195.5762   1.0924057942e+02   1.7776237051e+01    0.2159219    0.1666404  60.73  0.001407811    1.185    0.156
         9 -12.8197    104.0260    236.7144   1.1883292635e+02   1.5906965822e+01    0.2483022    0.1757412  63.59  0.001134685    1.180    0.152
        10 -12.9631    209.2626    186.5871   9.4159598030e+01   6.0372744644e+00    0.3935125    0.2147009 -55.14  0.001712166    3.752    0.733
        11 -13.2121    104.2752    249.4289   1.1983869955e+02   1.4110090503e+01    0.2781301    0.2282933  20.27  0.002208577    1.880    0.468
        12 -10.4879     25.7876    184.9261   1.2849351005e+02   3.4128557537e+01    0.1376268    0.1099935  79.72  0.000527535    1.165    0.141
        13 -12.1517     30.6377    183.0592   1.2747792129e+02   3.3991391739e+01    0.2339177    0.1408835  40.03  0.001102363    1.718    0.418
        14 -13.2490    162.7071    181.0530   1.0162206984e+02   1.5123441005e+01    0.2689039    0.2239604  87.25  0.001421332    1.506    0.336
        15 -14.1525    186.9210    174.6274   9.6015002176e+01   1.1701904351e+01    0.6910766    0.3698838 -47.56  0.002563418    2.302    0.566
        16 -12.2060      6.8833    176.6363   1.3149761668e+02   3.7434131785e+01    0.2825688    0.1313487  66.04  0.001479426    1.712    0.416
        17 -10.5274     11.6736    174.1313   1.3047665637e+02   3.7495972529e+01    0.1245796   0.07431047 -75.34 0.0003444761    1.511    0.338
        18 -12.4181    100.5601    245.6504   1.2012251057e+02   1.5120830051e+01    0.3286437    0.2225236  70.64  0.002528569    1.378    0.274
        19 -12.4570    193.7576    171.3301   9.4170131543e+01   1.0919251193e+01    0.2711511    0.2215123  41.00 0.0007002636    1.119    0.107
        20 -12.9770    168.7895    236.0554   1.0818337631e+02   6.5169273746e+00    0.3693378    0.2425179   4.97  0.001530669    2.659    0.624
        21 -12.9906    176.9099    169.6430   9.6985164042e+01   1.4320313689e+01    0.2439411    0.1997608 -49.35  0.001215586    1.417    0.294
        22 -10.8278    151.1970    236.2484   1.1107206362e+02   9.1536582441e+00    0.1796127    0.1088767  43.03 0.0009719358    1.255    0.203
        23 -10.9506     25.1666    165.1588   1.2729453606e+02   3.8008392675e+01     0.161839    0.1479134 -42.12  0.001271669    1.688    0.408
        24 -15.7825    133.8235    145.9551   1.0135512533e+02   2.6603744823e+01      1.49293    0.7330236 -62.03  0.006065525    2.726    0.633
        25 -13.3350    199.2316    225.7329   1.0191445487e+02   3.0082985050e+00    0.2465091    0.1551141 -43.75  0.001606364    2.150    0.535
        26 -11.4190    191.5199    151.5207   9.0743467639e+01   1.4346885721e+01    0.2339875    0.1245812 -48.70  0.001029132    2.332    0.571
        27 -15.4902    135.7620    127.9735   9.7315022561e+01   2.9777893754e+01     2.190665    0.7625406 -56.52  0.006598212    4.327    0.769
        28 -12.7342    161.6317    149.3377   9.6154375574e+01   2.0640955847e+01    0.2883352    0.2218488  86.16 0.0009620693    1.765    0.434
        29 -11.9378    174.8720    149.1577   9.3465777611e+01   1.8048474352e+01    0.2092949    0.1881685  72.73 0.0006824301    1.260    0.206
        30 -10.4023    128.6107    227.4546   1.1387742436e+02   1.3712200289e+01    0.1078524   0.08602282  48.94 -2.444495e-05    1.082    0.075
        31 -13.5751      5.8478    112.4767   1.2737573149e+02   5.0698073944e+01    0.4597417    0.3406296 -45.54  0.003254657    1.689    0.408
        32 -13.9530      3.1780    127.7238   1.2927420714e+02   4.7594499424e+01    0.8079405    0.2649817 -84.61  0.003823996    2.613    0.617
        33 -13.9594      6.9911    120.4039   1.2778951663e+02   4.8894376721e+01    0.3574858     0.311667  72.01  0.001737838    1.251    0.201
        34 -14.0188      6.6809    138.3417   1.2925230376e+02   4.5097420221e+01     0.513152    0.3538136 -89.60  0.002627045    1.082    0.075
        35 -13.0081    160.7602    128.0636   9.1845222195e+01   2.4676905885e+01    0.3663884    0.3183751 -82.90  0.001821734    1.343    0.256
        36 -11.3539    140.3417    219.6870   1.1101878013e+02   1.3035056819e+01    0.2819597    0.1289523 -56.62  0.001523111    2.853    0.649
        37 -11.0131    231.1885    113.9152   7.5285389866e+01   1.1829841662e+01    0.2323572    0.2003764  38.02 0.0007789154    1.185    0.156
        38 -12.2674    168.0716    112.9417   8.6719010197e+01   2.5892344203e+01    0.3995281    0.3064517 -69.04  0.001565696    1.667    0.400
        39 -15.2756    145.9008    147.4932   9.9059112125e+01   2.4031904948e+01     1.142967    0.6973504  82.77  0.004310388    3.507    0.715
        40 -11.1764    205.6254    110.1172   7.8697826739e+01   1.7959874890e+01    0.2835766    0.2075149  39.94 0.0007677226    1.363    0.266
        41 -10.9889    152.5083    219.8098   1.0894172188e+02   1.1117601972e+01    0.1375481    0.1149731 -53.19  0.001006471    1.512    0.339
        42 -12.8751     13.5551    137.4744   1.2766001055e+02   4.4737787320e+01    0.2352683    0.1854986 -21.22 0.0007026593    2.112    0.527
        43 -11.8265      7.5009    102.1895   1.2593866990e+02   5.2850095314e+01    0.2338606    0.1792357  64.42  0.001687173    1.332    0.249
        44 -11.8991    102.2487    240.3992   1.1942982336e+02   1.5625985251e+01    0.1992877    0.1185281  63.70   0.00138303    1.503    0.335
        45 -13.8625    155.8206     61.9291   7.4776074676e+01   3.7965672742e+01    0.4966559    0.4663826  45.55 0.0009337331    1.085    0.078
        46 -10.9631     13.7654     60.0480   1.1786269312e+02   6.1848470832e+01    0.1761226    0.1332226 -82.55 0.0005125206    1.250    0.200
        47 -10.6975     90.7783    244.8316   1.2159847590e+02   1.6524146477e+01    0.1651205    0.1402625 -27.03  0.001297622    2.225    0.551
        48 -13.0439    173.0371     39.9445   6.4110591845e+01   3.6948783329e+01    0.4208516    0.3989682  54.15 0.0008549891    1.067    0.063
