#   1 NUMBER                 Running object number                                     
#   2 MAG_AUTO               Kron-like elliptical aperture magnitude                    [mag]
#   3 X_IMAGE                Object position along x                                    [pixel]
#   4 Y_IMAGE                Object position along y                                    [pixel]
#   5 X_WORLD                Barycenter position along world x axis                     [deg]
#   6 Y_WORLD                Barycenter position along world y axis                     [deg]
#   7 A_WORLD                Profile RMS along major axis (world units)                 [deg]
#   8 B_WORLD                Profile RMS along minor axis (world units)                 [deg]
#   9 THETA_WORLD            Position angle (CCW/world-x)                               [deg]
#  10 FWHM_WORLD             FWHM assuming a gaussian core                              [deg]
#  11 ELONGATION             A_IMAGE/B_IMAGE                                           
#  12 ELLIPTICITY            1 - B_IMAGE/A_IMAGE                                       
         1 -14.5475     68.3987    144.5875   9.9672853759e+01   3.7373088605e+01     4.808577     2.528643  79.19  0.002799093    4.567    0.781
         2 -13.7125    230.4035     20.5930   3.2609237282e+01   2.6091721690e+01    0.9361051    0.7845263  57.17  0.002598359    1.488    0.328
         3 -13.6855    203.5052     42.7113   4.0329718319e+01   2.9275097080e+01     1.324608      1.02153  15.72  0.003991869    1.991    0.498
         4 -13.9631    211.8702     37.3818   3.8090984575e+01   2.8073442417e+01     1.593474     1.299524 -19.29  0.008264774    1.561    0.360
         5 -11.4827    249.1524      2.7291   2.7757731272e+01   2.4265550934e+01    0.3316069    0.2112483 -68.72  0.001591551    1.243    0.195
         6 -11.8293    178.2900    221.9599   8.5824214175e+01   1.5806755243e+00    0.4618675    0.2153081 -36.59  0.001258554    2.339    0.572
         7 -13.7657      5.9170    186.7610   1.2125808188e+02   3.3530695813e+01     1.885298    0.9664451 -89.79  0.009249447    1.697    0.411
         8 -15.2618    112.9435    230.2469   1.0140314723e+02   1.0481555045e+01     6.745934     1.257383  35.66   0.01958282    4.631    0.784
         9 -16.1677     34.0683    186.5885   1.1469585935e+02   3.0947530762e+01     9.911439      3.85962  80.42   0.03115881    4.799    0.792
        10 -14.9456      7.4078    245.2691   1.2424435190e+02   2.0867956488e+01     1.785363     1.444676  34.80   0.01359882    1.516    0.340
        11 -13.3167     29.3041    203.6365   1.1730630081e+02   2.7455507603e+01    0.5320389    0.4625969 -60.89  0.001087653    1.345    0.257
        12  -9.0660    107.5381    204.4680   9.9065026107e+01   1.6743238211e+01    0.1414793    0.1293395  53.71 0.0001313054    1.027    0.027
        13 -11.0816    192.1608    193.5840   7.7695284752e+01   4.4050144374e+00    0.6151851    0.3208384 -61.25  0.001962606    4.794    0.791
        14  -9.7346     57.2139    194.6261   1.0995543166e+02   2.6337646535e+01    0.2219642    0.1670688  87.27  0.001244085    1.271    0.213
        15 -10.2095     80.9143    182.2840   1.0239633041e+02   2.6062287540e+01    0.3116801    0.2757945 -48.56 0.0009004053    1.220    0.180
        16  -9.3522     99.3491    180.9835   9.7415306284e+01   2.3506087064e+01    0.2035254    0.1834062 -67.12 0.0004623956    1.118    0.105
        17 -12.1194     58.3067    176.8422   1.0750719014e+02   3.0518796243e+01    0.4460709    0.3012878 -33.62  0.002164004    1.991    0.498
        18 -12.0355     63.7225    171.5580   1.0535458960e+02   3.1133629527e+01    0.3490681    0.2778828 -40.10 0.0009824968    1.439    0.305
        19  -8.6254    148.3312    175.6413   8.4033588268e+01   1.6017169106e+01    0.1559795    0.1222236  79.47 0.0007042199    1.795    0.443
        20 -13.5255     61.0403    158.0496   1.0407905059e+02   3.4906963200e+01    0.6021495    0.3662541 -38.10  0.001472188    2.009    0.502
        21 -11.8053     73.9454    162.2839   1.0113982034e+02   3.2062461245e+01    0.3517295    0.3329651 -49.35 0.0003692113    1.115    0.104
        22 -12.7802     81.3043    155.9996   9.7984587491e+01   3.2568710220e+01      1.03737    0.7607683 -51.40  0.001354784    1.332    0.249
        23 -10.3506    171.5724    241.5333   9.0393896712e+01  -6.6945049753e-01    0.2676993    0.2070658 -80.34 0.0008799119    2.367    0.577
        24  -9.3668    174.8627    149.1452   7.2033677331e+01   1.6546793993e+01    0.2281687    0.2154985 -83.68 0.0006065416    1.232    0.188
        25 -10.3520    133.7019    144.6250   8.1039990812e+01   2.5991284944e+01    0.9851986    0.1873082 -52.53  0.001823181    8.369    0.881
        26 -10.3851     96.6717    141.9941   9.0777436618e+01   3.3617792015e+01      0.32588     0.289692 -50.98 0.0008279922    1.091    0.083
        27  -9.8145     99.4790    139.0129   8.9307191607e+01   3.3873990526e+01    0.3592229    0.2501738 -25.00   0.00153738    1.831    0.454
        28 -10.6651     28.8259    143.0906   1.1116696958e+02   4.2290723228e+01    0.2596897    0.2052365  12.62  0.001124077    1.553    0.356
        29 -12.3465     84.4106    140.4117   9.4071408154e+01   3.6053429213e+01    0.3319532    0.2756611 -48.10 0.0005985834    1.167    0.143
        30  -9.0408    197.4490    138.9469   6.4876602618e+01   1.4036773849e+01    0.2151418    0.1236323 -59.68 0.0008082793    2.546    0.607
        31 -11.9333     70.4470    131.7021   9.6556490228e+01   4.0388272412e+01    0.5727502    0.4598524  73.50  0.001658411    1.458    0.314
        32 -11.0862     66.9913    126.3536   9.6543226639e+01   4.2239023870e+01    0.4240174    0.2538033 -43.45  0.001881282    1.657    0.396
        33 -10.9279    107.0198    130.8645   8.5225483770e+01   3.4516625269e+01    0.4782116    0.3771199  31.96  0.001728478    1.319    0.242
        34  -8.7969     72.7613    172.9620   1.0314466583e+02   2.9543477243e+01    0.1751942    0.1151718 -63.80            0    1.459    0.314
        35 -10.7124     95.1237    127.1653   8.7902265589e+01   3.7589683782e+01    0.3223502    0.2639325 -25.98 0.0007301047    1.328    0.247
        36 -10.4021     19.9548    131.2588   1.1223482234e+02   4.6033840611e+01    0.1734265    0.1600178 -72.45 0.0003160121    1.102    0.093
        37 -11.0456    240.5393    122.4983   5.3630144550e+01   8.7673979250e+00    0.2135269    0.1373904  50.02  0.001100492    1.825    0.452
        38  -9.7282    105.8393    119.5399   8.2784450563e+01   3.7483491955e+01    0.2422217    0.2015529 -35.71  0.000319597    1.199    0.166
        39  -9.0691    168.1613    113.0042   6.4684488507e+01   2.5575824693e+01    0.2654852      0.17721 -65.77  0.001073334    2.037    0.509
        40 -11.0083     54.3143    147.6805   1.0437564926e+02   3.8412671379e+01    0.3025228    0.1840044 -34.89  0.001345595    2.056    0.514
        41  -9.7794    234.6458    112.7112   5.2369674161e+01   1.1550504961e+01    0.1336921      0.10496   2.43 0.0005502871    1.674    0.403
        42 -10.2593     34.9387    111.5180   1.0423385341e+02   4.9735928527e+01    0.3163597    0.1904213  50.00   0.00150896    2.068    0.517
        43 -10.0590    205.1719    110.6199   5.6702487245e+01   1.7875006613e+01    0.3161708    0.2526155  31.56  0.001053781    1.455    0.313
        44 -12.2068    242.2155     99.8064   4.8451960005e+01   1.2292892815e+01    0.3411666    0.3078134  18.15  0.001746892    1.377    0.274
        45 -11.1282     53.1249     91.8305   9.3272345150e+01   5.2555894402e+01    0.4966799    0.1999085 -57.19  0.001742213    2.383    0.580
        46 -10.3705     41.5784     92.0933   9.7678034358e+01   5.3821503719e+01    0.2350489    0.1933808  -6.63 0.0004151121    1.288    0.224
        47  -9.5826    161.2762     82.9850   5.8057836238e+01   3.3017757915e+01    0.2137934    0.2002629 -41.18 0.0005696873    1.069    0.064
        48 -10.3382     30.8310     60.9081   9.3573191406e+01   6.1858871545e+01     0.471961    0.2156349  43.16  0.001966628    3.342    0.701
        49 -11.0504     13.5557     60.2586   1.0116712652e+02   6.3382268792e+01    0.2292325     0.199671 -39.53 0.0004153063    1.128    0.114
        50 -13.7335     11.3310    232.6497   1.2290038635e+02   2.2995874070e+01    0.8808228    0.5141505  85.52  0.003059686    1.460    0.315
        51 -14.9149     41.3867    248.9368   1.1816086476e+02   1.6527961883e+01     4.181182    0.8826097  29.61   0.01201442    7.476    0.866
        52 -15.1999      9.7639    208.3325   1.2182638325e+02   2.8307222928e+01     1.949287     1.355163  73.73   0.01277492    1.167    0.143
        53 -12.6426    219.9848     30.1661   3.5608576484e+01   2.7183633896e+01    0.5374722    0.4032753  46.88  0.001214106    1.716    0.417
        54 -10.4095     34.5314     55.6343   9.0218667084e+01   6.2559916411e+01    0.2179848    0.2082977  17.08 0.0005062143    1.325    0.246
        55 -10.8114     11.7485     53.0070   9.9989862035e+01   6.5018898852e+01    0.1801699    0.1383231 -41.24  0.001056746    1.063    0.059
        56 -13.4252     56.3508    241.3992   1.1465752529e+02   1.6202025311e+01    0.9198224    0.4945423  30.80  0.004938585    1.931    0.482
        57 -10.0034    131.9041     39.1762   5.1048254647e+01   4.7031143388e+01    0.3783666    0.2368157 -82.08   0.00151637    2.675    0.626
        58  -9.1532    131.7125     31.0384   4.8404482918e+01   4.8083146090e+01    0.1760197     0.172125  41.06 0.0003446925    1.087    0.080
        59  -9.6749    189.2842     15.5701   3.5310334477e+01   3.5839179509e+01    0.1746761    0.1050929  63.41 0.0006997659    1.538    0.350
