#   1 NUMBER                 Running object number                                     
#   2 MAG_AUTO               Kron-like elliptical aperture magnitude                    [mag]
#   3 X_IMAGE                Object position along x                                    [pixel]
#   4 Y_IMAGE                Object position along y                                    [pixel]
#   5 X_WORLD                Barycenter position along world x axis                     [deg]
#   6 Y_WORLD                Barycenter position along world y axis                     [deg]
#   7 A_WORLD                Profile RMS along major axis (world units)                 [deg]
#   8 B_WORLD                Profile RMS along minor axis (world units)                 [deg]
#   9 THETA_WORLD            Position angle (CCW/world-x)                               [deg]
#  10 FWHM_WORLD             FWHM assuming a gaussian core                              [deg]
#  11 ELONGATION             A_IMAGE/B_IMAGE                                           
#  12 ELLIPTICITY            1 - B_IMAGE/A_IMAGE                                       
         1 -10.7362     37.3335      9.7817   1.0235174990e+02   6.9298305758e+01    0.8547772    0.2768894 -41.49   0.00279699    3.171    0.685
         2 -10.8836     21.2426      8.2518   1.0932055216e+02   7.1354405593e+01     1.111952     0.873894  66.43  0.006634834    3.124    0.680
         3 -10.0120     10.5691     18.6607   1.1941523368e+02   7.0608684252e+01    0.9176105    0.3507758 -19.21  0.003066653    6.429    0.844
         4 -10.9531     24.0501     32.1743   1.1819815484e+02   6.7123284921e+01     1.436989    0.4420227 -38.75  0.004815069    2.961    0.662
         5 -10.7161      6.6841     29.8530   1.2539386183e+02   6.8859072572e+01    0.5792713    0.3686096 -52.80  0.002409145    1.288    0.224
         6 -10.4571      5.0445      4.7329   1.1625553533e+02   7.3303237144e+01    0.4662668    0.3325505 -21.32  0.001491834    1.097    0.089
         7 -10.3470     89.4655     38.2904   9.5372548110e+01   5.6805652308e+01    0.8980027    0.3517916  34.48  0.003192452    3.341    0.701
         8  -9.9369     79.5712     23.9588   9.2637515681e+01   6.0746153473e+01    0.6419584    0.3114475  27.37   0.00185946    2.685    0.628
         9  -8.5467    102.2741      8.6834   7.9479235504e+01   5.7886453568e+01    0.5241786    0.2339932 -46.36  0.001578604    3.413    0.707
        10  -9.5825    101.0789     31.8335   8.9333065839e+01   5.5413121688e+01    0.8383046     0.255134 -28.72  0.002213163    3.554    0.719
        11  -9.1194    103.0082     21.3205   8.4554688563e+01   5.6356771046e+01    0.4621939    0.2099939 -31.14   0.00138612    2.193    0.544
        12  -9.4994     63.0525     21.4633   9.7327616329e+01   6.3956326106e+01    0.3805234    0.2599196 -40.99 0.0009449871    1.618    0.382
        13 -10.0207     64.2464     13.6425   9.3268406893e+01   6.4795264170e+01    0.4877653    0.2971641 -18.80  0.002312279    1.563    0.360
        14  -9.3116     46.9766     19.8965   1.0298565470e+02   6.6579960605e+01    0.5574555    0.2583075 -19.69  0.002366601    3.005    0.667
        15 -10.1328     52.4302     13.2733   9.7619208734e+01   6.6728039749e+01    0.6866148    0.3750528  21.48  0.003551562    2.081    0.519
        16  -8.0447    111.4260     21.6569   8.2524818740e+01   5.4455129604e+01     0.450028    0.1511597 -32.08  0.001687389    2.900    0.655
        17  -9.4329      2.1399     14.5294   1.2211138569e+02   7.1889390360e+01    0.4020172    0.1783988 -59.69  0.002113689    2.545    0.607
        18  -9.1819     96.1165     14.9906   8.3768655519e+01   5.8558736467e+01    0.5912007    0.2424735 -16.38  0.001966919    3.056    0.673
        19  -9.1457     96.6820      5.0677   7.9331711307e+01   5.9445826261e+01    0.4458371    0.2503076 -35.29  0.002246828    1.979    0.495
        20  -9.5030    118.7340     21.5275   8.0718472175e+01   5.2795413884e+01    0.3331685    0.2403058 -25.15  0.000498405    1.429    0.300
        21  -8.6682    119.9762     16.5554   7.8511624138e+01   5.3056452523e+01    0.3871032     0.229914   7.70  0.001346711    2.190    0.543
        22  -9.6057    139.2329     20.0990   7.5844053107e+01   4.8017314097e+01    0.5294964    0.2516758 -29.43   0.00226878    2.151    0.535
        23  -8.1279     72.0936      8.4459   8.8060929460e+01   6.4022725893e+01    0.2255767    0.1514676  -3.61 0.0007323723    1.463    0.316
        24  -9.8090     73.5943     17.6303   9.1830174145e+01   6.2664411679e+01    0.8452985    0.2397054 -29.55  0.003078255    3.506    0.715
        25  -8.4942     76.9714      6.9515   8.5776011720e+01   6.3270169752e+01    0.3240134    0.1782904 -17.70  0.001450827    1.813    0.448
        26  -8.5323     78.7900      3.1368   8.3413097682e+01   6.3301134353e+01    0.2452272    0.1935678 -44.16 0.0008843081    1.648    0.393
        27 -10.1900     46.2094     29.5414   1.0752433821e+02   6.5169344554e+01    0.5210568    0.2961266 -55.84  0.002520049    2.623    0.619
        28  -9.5316     85.1777     13.1307   8.6092496636e+01   6.1005866029e+01    0.3762438    0.2556001 -53.61  0.001419556    2.226    0.551
        29  -7.9807     80.4789     12.4913   8.7243557437e+01   6.1996256824e+01    0.2502645    0.1812865 -47.13  0.001273615    1.830    0.454
        30  -8.5143    141.5094     12.4730   7.2715014807e+01   4.8243364917e+01    0.2580277    0.1375088 -22.20 0.0008434211    2.020    0.505
        31  -8.8625    133.4546     11.7652   7.3935405801e+01   5.0305569967e+01    0.5019915    0.1896193 -40.29  0.001904113    2.997    0.666
        32  -8.2797    130.8163      6.1705   7.2365240929e+01   5.1471666568e+01    0.2895795    0.2130906  28.35 0.0009207714    1.389    0.280
        33  -8.7807    134.9527      2.2096   7.0177942176e+01   5.0798608178e+01    0.4276682    0.2158881  42.77  0.001956641    1.902    0.474
        34  -8.6079    125.1482     13.1692   7.6102822687e+01   5.2180184608e+01    0.2386382    0.1978272 -21.45 0.0006214973    1.275    0.216
        35  -8.5223    120.8124      5.8031   7.4156079136e+01   5.3909987049e+01    0.3204744    0.1980648  67.52  0.001607648    1.631    0.387
        36  -8.7500    126.8082      9.1780   7.4254987004e+01   5.2168704765e+01    0.2841876    0.1871906  38.30 0.0006907898    1.460    0.315
        37  -8.8530    125.5531      5.3775   7.3058126131e+01   5.2815975623e+01    0.3589818    0.2221476  10.96  0.001097567    1.934    0.483
        38  -9.3476    114.0521      9.9294   7.7221962669e+01   5.5109484101e+01    0.4737687    0.2127566  38.98 0.0003911161    2.248    0.555
        39  -8.9629    115.0758      4.1597   7.4690234186e+01   5.5401558044e+01    0.3423931    0.2132425 -32.98  0.001211356    1.750    0.429
        40  -8.8877    111.4872      4.0351   7.5407913682e+01   5.6241978673e+01    0.3424559    0.1574306  30.73  0.001416524    2.551    0.608
        41  -8.3994    137.4165      9.2036   7.2276618411e+01   4.9573848428e+01    0.1877638    0.1219998 -36.70 0.0005117594    1.666    0.400
        42  -8.2992     67.7561      9.0392   8.9818668254e+01   6.4737507037e+01    0.1749005    0.1400205  -3.54 0.0004089477    1.098    0.089
        43  -9.4048    234.8573      5.5743   5.9543846480e+01   2.5565499131e+01    0.3663338     0.217536 -43.61 0.0009463766    1.515    0.340
        44  -8.3182     85.2302      6.3383   8.3004300120e+01   6.1711905737e+01    0.3260152    0.1923187  16.37  0.001641749    1.882    0.469
        45  -8.3479     88.8471      2.5858   8.0284146318e+01   6.1328073613e+01    0.3228799    0.1641352 -17.33  0.001541866    2.024    0.506
        46  -7.5955    143.1535      5.1492   6.9859371328e+01   4.8512951888e+01    0.1834335    0.1548696 -63.12  0.000491305    1.328    0.247
        47  -9.5347     63.7920      2.9465   8.8205691584e+01   6.6097729769e+01    0.3354626    0.2486675 -49.49  0.001671295    2.028    0.507
        48  -8.3721    104.3340      2.0651   7.6191408751e+01   5.8032947538e+01    0.2827049    0.1773129  39.69  0.001217085    1.428    0.300
        49 -10.5419      4.8784     87.3385   1.3901919123e+02   5.6998899593e+01     1.554721    0.3234453 -68.18  0.004318581    3.375    0.704
        50  -7.3067    206.9759      1.2301   6.0831858197e+01   3.2700659825e+01    0.1634273    0.1002454  77.40 0.0002019169    1.497    0.332
        51 -10.2428     14.1320    111.2626   1.3962096300e+02   5.1026630782e+01    0.5137902    0.2556121  72.82  0.001696002    2.641    0.621
        52 -10.5636    199.4262    248.3247   1.1845624675e+02  -2.8169718333e+00    0.5546597    0.2386249  34.62   0.00289471    1.943    0.485
        53 -11.3338    164.2124    249.2245   1.2470292877e+02   2.5716493232e+00    0.8111315      0.32805  36.64  0.003997908    2.146    0.534
        54  -8.8807     14.0184    105.0387   1.3881775942e+02   5.2445977415e+01    0.2381071    0.1384466 -46.48 0.0005289813    1.727    0.421
        55  -8.0027      1.2626    115.6441   1.4362507272e+02   5.0896837967e+01    0.2162453   0.07558803 -72.28  0.001044736    2.122    0.529
        56  -8.7355    152.9676    115.3115   1.0254253616e+02   2.8733857000e+01     0.215819    0.2067698  53.97 0.0008272967    1.048    0.046
        57 -10.0582     91.7465    112.8713   1.1773357099e+02   4.1471292625e+01    0.5816052    0.3985386  89.02  0.001598986    2.085    0.520
        58  -8.2632     91.6782    104.2951   1.1570546828e+02   4.3427333879e+01    0.3388308     0.203921 -32.37 0.0009126028    2.111    0.526
        59 -10.1894     78.0694    112.9942   1.2162138072e+02   4.3612435343e+01    0.5478259     0.318768 -77.50  0.001739256    2.373    0.579
        60  -8.1559     77.5083    105.9930   1.2022087554e+02   4.5306609448e+01     0.294398    0.1735151 -34.27    0.0012922    2.144    0.534
        61  -7.6634    181.5135    114.5497   9.6073675016e+01   2.2362269543e+01    0.1514649    0.1484451   1.80 7.692712e-05    1.012    0.011
        62 -10.4406     62.9294     95.7712   1.2224796539e+02   4.9696030708e+01     0.711123     0.391537 -75.30  0.001567422    2.575    0.612
        63  -8.5384     65.5174     85.5997   1.1892264768e+02   5.1627365640e+01    0.5744184    0.3276075   1.35  0.002085376    4.074    0.755
        64  -8.6874     68.7715    102.7768   1.2207485545e+02   4.7306986239e+01    0.3986081    0.2662044 -22.93  0.001895944    2.142    0.533
        65 -10.1777     65.7508    110.9521   1.2473083219e+02   4.5834027236e+01    0.6511778    0.4120305 -75.98  0.001444096    1.759    0.431
        66  -9.4403     59.2136    109.4109   1.2632276214e+02   4.7040208828e+01    0.3478653     0.248266  78.51  0.001012411    1.706    0.414
        67  -8.8257    238.5087    111.1736   8.4946290116e+01   1.0201870801e+01    0.4466259    0.2030089 -49.23  0.001393421    2.694    0.629
        68  -8.4496    158.8115    112.0479   1.0035414810e+02   2.8074918610e+01     0.236801     0.208486 -73.24 0.0005837728    1.265    0.210
        69  -9.7507    138.5859     92.1951   9.9733822313e+01   3.6665366396e+01     0.901154    0.3445889 -37.28   0.00233029    2.773    0.639
        70  -8.7763     35.9202    111.4486   1.3347091656e+02   4.9149957275e+01    0.1638357    0.1254794  32.90 0.0005471492    1.548    0.354
        71  -9.7246     30.6985    108.7167   1.3453703945e+02   5.0267198582e+01     0.289614    0.2464318  40.71   0.00194687    1.385    0.278
        72  -9.0144     36.0022    105.4238   1.3243073457e+02   5.0532161883e+01    0.2312956    0.1753824 -46.61  0.001109181    1.313    0.238
        73 -10.8761     44.9221    102.6694   1.2925078466e+02   5.0261812161e+01    0.8291357    0.4379264  73.16  0.003215579    3.704    0.730
        74  -8.8228     40.0613    107.3824   1.3157358852e+02   4.9680208437e+01    0.2359084    0.1551263 -80.06 0.0004732441    1.504    0.335
        75 -10.8114     20.3805    100.1877   1.3622870931e+02   5.3078563249e+01     1.059979     0.498409  85.08  0.004253453    3.438    0.709
        76  -7.8057     23.1283     69.1082   1.2939401119e+02   5.9788637028e+01    0.1736969    0.1462663 -75.61  0.001176127    1.247    0.198
        77 -10.0729     19.9523     84.4194   1.3366564451e+02   5.6665176116e+01    0.6905282    0.2054949 -58.90  0.002322429    2.370    0.578
        78 -10.4509     25.5767     77.8464   1.3046235639e+02   5.7688066182e+01    0.6734972    0.3943416 -89.46  0.002153988    2.445    0.591
        79 -10.4086     32.1123     64.5442   1.2497064594e+02   6.0005170882e+01     1.116105    0.4569645 -34.93  0.003739396    3.012    0.668
        80 -10.2051     34.4310     90.6018   1.3014997863e+02   5.4067666237e+01    0.6620713    0.2870073 -77.55  0.001692042    3.418    0.707
        81 -10.2946     37.6024     80.4436   1.2692270871e+02   5.6041749305e+01     1.198559    0.5863205 -13.44  0.003979906    5.785    0.827
        82  -9.8421    149.4476    103.2612   1.0019107705e+02   3.1977186069e+01    0.4733482    0.2818284 -54.80  0.001073301    1.936    0.484
        83  -8.8112    149.5569     97.1550   9.8483001191e+01   3.3173029712e+01    0.3087987    0.2100108  26.24  0.001299148    1.888    0.470
        84  -9.6734      5.6726    103.7373   1.4104169125e+02   5.3291505525e+01    0.3874527    0.2327084  58.47  0.001716633    1.923    0.480
        85  -8.3510    165.9793    103.8765   9.6585412253e+01   2.8027350296e+01    0.2693234    0.2154514 -46.47 0.0005699032    1.258    0.205
        86  -8.2108     73.8379    102.2354   1.2043603840e+02   4.6709161710e+01    0.3671417    0.1750339 -64.11   0.00100926    2.341    0.573
        87  -8.7941    159.1167    101.5164   9.7476669037e+01   3.0093298515e+01    0.3140108    0.2257709 -64.06 0.0005499356    1.719    0.418
        88  -9.4691     81.3908    100.1283   1.1768279212e+02   4.6044788613e+01    0.4428716    0.2765882 -71.77  0.001053091    2.016    0.504
        89  -8.0249     82.3705     93.7822   1.1578532654e+02   4.7311531618e+01    0.2580377    0.1862544  -4.74 0.0007425199    2.019    0.505
        90  -9.3264     94.3521     97.3075   1.1315173819e+02   4.4525924211e+01    0.3027852    0.2437957 -67.22 0.0007005815    1.320    0.242
        91  -8.7278     96.1248     90.9444   1.1091510215e+02   4.5602607991e+01    0.5744077    0.3341348 -15.21  0.001859603    4.145    0.759
        92  -7.8233    171.1996     95.9560   9.3298221700e+01   2.8297289107e+01    0.2086803    0.1209573 -38.47 0.0003494877    1.703    0.413
        93  -8.6364    164.4181     93.5473   9.4089489148e+01   3.0374369682e+01    0.4332587    0.1838712 -38.17  0.001221306    2.336    0.572
        94  -8.0773    241.6907     94.4204   8.0454950832e+01   1.2148506395e+01     0.258646    0.1428217  62.94  0.001147448    2.158    0.537
        95  -9.5257    225.1190    247.9438   1.1405020246e+02  -6.6418323519e+00    0.3266782    0.1381268  29.19    0.0016704    2.208    0.547
        96 -10.8311    189.9728    247.7230   1.2000537065e+02  -1.2786848171e+00    0.4897633     0.332937  56.47  0.003063453    1.788    0.441
        97  -9.0119     55.8487    250.3831   1.4346726408e+02   1.8083816217e+01    0.1594715    0.1108453  54.43 0.0005704434    1.165    0.142
        98 -10.8821     21.6525     53.9825   1.2615910323e+02   6.3088534699e+01    0.7024938    0.4657217 -81.70  0.002778859    2.088    0.521
        99 -10.1472     15.8240     70.9129   1.3241605280e+02   5.9930700055e+01    0.6040812    0.2191305 -50.94  0.001355512    2.081    0.519
       100  -7.4820     80.9644    247.5010   1.3906987850e+02   1.5302716319e+01     0.130025   0.09276225  22.05 0.0005303954    2.303    0.566
       101  -9.7686     14.9616     44.4792   1.2622482189e+02   6.5498187667e+01    0.4615872    0.2307441 -37.91  0.001259673    1.740    0.425
       102  -9.5603      8.7900     47.2498   1.2958197058e+02   6.5343691723e+01    0.3816079     0.235405  15.36  0.001833624    1.970    0.492
       103 -10.1799      4.3944     42.1671   1.3009056112e+02   6.6613931239e+01    0.6129509    0.2663736 -58.17  0.002061361    1.737    0.424
       104  -7.7730    123.2866    239.0302   1.3080430332e+02   1.0499569639e+01    0.1565826     0.133603  68.10 0.0004171048    1.153    0.132
       105  -8.4283    168.9643    237.0357   1.2226896876e+02   3.4888355055e+00    0.2359998    0.1368304   8.82 0.0009602495    4.143    0.759
       106  -9.2299    157.7441     90.4825   9.4704503870e+01   3.2548063249e+01    0.4448075    0.2011884 -32.34  0.001196692    2.477    0.596
       107  -9.1475    110.6089     89.8482   1.0644715125e+02   4.3100254666e+01    0.6998447    0.3826172  22.87  0.002413243    3.323    0.699
       108 -10.4293     47.9583     83.4173   1.2413688393e+02   5.4297968852e+01     1.041821    0.3763766 -54.28    0.0021303    2.249    0.555
       109 -10.5081     61.2931     61.3398   1.1334474484e+02   5.7334670139e+01     1.224293    0.3817494  29.49  0.002393824    4.657    0.785
       110  -9.5288     56.2849     43.3035   1.0894478117e+02   6.1457074877e+01    0.6561875    0.3654011  -6.12  0.002657578    3.344    0.701
       111  -9.8913     49.9983     54.6243   1.1530880305e+02   6.0136125509e+01    0.4351747    0.3058856 -60.50  0.001414622    1.598    0.374
       112  -8.4410     49.1949     48.6218   1.1359336678e+02   6.1397135888e+01    0.2868506     0.197314  20.72   0.00149682    1.624    0.384
       113  -8.7062    150.4276     88.4521   9.5799194099e+01   3.4667938576e+01    0.4183905    0.2388868 -33.62   0.00164985    1.832    0.454
       114  -7.2012    206.3601     89.2136   8.4717122566e+01   2.1025040822e+01    0.1475798    0.1099484  31.38  0.000220879    1.558    0.358
       115 -10.1956     85.2426     86.5386   1.1295941355e+02   4.8433260170e+01    0.5073044    0.3771625  73.80 0.0008950083    1.892    0.471
       116  -9.3553     87.4568     78.6432   1.0999817489e+02   4.9739375349e+01    0.5181112    0.3424398   7.58  0.001375342    2.370    0.578
       117  -8.4177    163.3400     86.8695   9.2427622813e+01   3.1881861229e+01    0.2624236    0.2011074 -28.45 0.0004631596    1.359    0.264
       118  -8.5132    126.0537     83.8364   1.0048120372e+02   4.1112548102e+01    0.4772831    0.2998792  12.11  0.001714128    3.010    0.668
       119 -10.2499    103.8369     82.6299   1.0626601188e+02   4.5927084005e+01    0.5044116    0.2879286 -52.86 0.0009706879    1.851    0.460
       120  -9.3345    104.8920     72.0837   1.0269885642e+02   4.7841289708e+01       0.6955    0.3713646 -25.30  0.002283385    2.619    0.618
       121  -8.3436    170.4819     83.4923   8.9936010391e+01   3.0756433219e+01    0.2889992    0.1321162 -46.71  0.001024486    2.355    0.575
       122  -8.9977    157.5834     83.0253   9.2578390261e+01   3.3982460306e+01    0.4934988    0.2875167 -32.77   0.00140437    1.780    0.438
       123  -8.8365    156.9859     76.5726   9.0791501648e+01   3.5298998527e+01    0.3545246    0.2246204 -58.53 0.0006237872    1.997    0.499
       124  -7.7194     63.4076     82.2065   1.1871720134e+02   5.2660254300e+01    0.1907691    0.1205364 -63.37 0.0009383739    1.652    0.394
       125  -8.8022    149.8546     80.0964   9.3465208097e+01   3.6378473399e+01    0.4507348    0.2166927 -37.05  0.001381224    2.076    0.518
       126  -9.1197    115.3634     71.9725   9.9686118430e+01   4.5719050938e+01    0.6802602    0.3213627 -41.41  0.001570094    2.058    0.514
       127  -8.9852    119.0130     80.5266   1.0136156994e+02   4.3282027166e+01    0.3672299    0.2594058 -56.53 0.0008569593    1.590    0.371
       128  -8.3022    119.4999     76.0441   9.9842610021e+01   4.4056850328e+01    0.2772037    0.2098922  19.49 0.0007777999    1.590    0.371
       129  -9.1198     74.3578     78.8607   1.1422063254e+02   5.1813174669e+01    0.7208657    0.2480563 -46.27  0.001650141    2.612    0.617
       130  -8.6705     68.2165     79.3949   1.1637376258e+02   5.2603808410e+01    0.2802905    0.1851259 -55.40  0.001441365    1.424    0.298
       131  -8.9319    166.4207     78.6042   8.9363114683e+01   3.2624964749e+01    0.3322103    0.2618392 -33.32 0.0008401645    1.274    0.215
       132  -8.0123    184.1397     78.1418   8.5696685422e+01   2.8315562201e+01     0.231634     0.203711  26.51 0.0004824631    1.240    0.193
       133  -7.0806    174.2911     78.6851   8.7770481534e+01   3.0665930996e+01    0.1565266    0.1191819 -69.00 0.0002412904    1.593    0.372
       134  -9.6432    127.4963     74.3254   9.7178259883e+01   4.2635686916e+01    0.7290368    0.3135348 -37.48  0.001042209    2.326    0.570
       135  -8.7989    130.5766     65.2481   9.3472639323e+01   4.3595571830e+01    0.5015747    0.2145832 -40.06   0.00133248    2.303    0.566
       136  -9.7334     16.8222     62.3087   1.3014327990e+02   6.1706958310e+01    0.6493592    0.3981735  28.42  0.003976577    1.987    0.497
       137  -9.9378     81.6288     72.4659   1.0996614797e+02   5.1998135138e+01     0.430786    0.3051481 -71.62 0.0009193496    1.989    0.497
       138  -9.1452     82.9881     64.8279   1.0708995635e+02   5.3300970754e+01    0.5583468    0.3464034 -13.39  0.002366599    2.480    0.597
       139  -8.1145    162.7744     73.1136   8.8498775853e+01   3.4486371622e+01    0.2367653    0.2011515 -64.72 0.0006590027    1.296    0.228
       140 -10.5701     54.8353     70.8621   1.1850300600e+02   5.6216068035e+01    0.5819002    0.4236308  69.44  0.001195014    2.081    0.519
       141  -8.5325    169.3919     70.7574   8.6425709831e+01   3.3243585918e+01    0.2908524    0.1410674 -38.28  0.000654062    2.018    0.504
       142  -8.0574    152.2254     60.5591   8.6871859397e+01   3.9212764850e+01    0.2202375     0.205697  72.96 0.0005367029    1.110    0.099
       143  -9.3173    146.7812     69.1387   9.0809510233e+01   3.9090118388e+01    0.4085187    0.2767782 -48.69 0.0009604215    1.572    0.364
       144  -8.7057    147.3818     64.0160   8.9050098889e+01   3.9826118748e+01    0.4352802    0.2416287  27.49  0.001542542    2.831    0.647
       145  -8.5641    156.5019     69.6153   8.8779667965e+01   3.6638287759e+01    0.3085575    0.1500947 -35.47 0.0008339275    2.049    0.512
       146  -9.7237     94.7303     68.2217   1.0449255199e+02   5.0546690788e+01    0.4571615    0.2600883 -50.51 0.0009699955    1.849    0.459
       147  -9.2479     97.0691     58.6890   1.0056702300e+02   5.1900961304e+01    0.7182465    0.3980325 -10.27  0.002326793    4.133    0.758
       148  -8.0984    189.9509     66.9896   8.1464270916e+01   2.8694783285e+01    0.2122699    0.2069116  11.22  0.001166835    1.081    0.075
       149  -9.4421    137.7864     65.8827   9.1897319459e+01   4.1805050382e+01    0.4706408    0.3220923 -35.39  0.001436688    1.457    0.314
       150  -9.1157    121.2535     66.1509   9.6190435605e+01   4.5532549670e+01    0.3637465    0.2760766 -62.34 0.0007752921    1.628    0.386
       151  -8.0155    122.0349     61.0305   9.4276536876e+01   4.6271214326e+01    0.2833556    0.1936518  -2.85  0.000762548    2.042    0.510
       152  -8.2101     75.5654     66.3340   1.1002481841e+02   5.4221238908e+01    0.2537963    0.1257926 -50.32 0.0007200273    1.968    0.492
       153  -9.1282    109.8014     64.0385   9.8644832291e+01   4.8369492601e+01     0.350627    0.2508447 -52.89 0.0007027388    1.566    0.362
       154  -8.7925    110.6808     58.0525   9.6354621543e+01   4.9259133984e+01    0.3305271    0.2665702  -7.80 0.0009176414    1.346    0.257
       155  -8.6652    157.4926     63.2717   8.6598267080e+01   3.7461717571e+01    0.3278724    0.2493983 -52.04 0.0008211384    1.412    0.292
       156 -10.1854     85.0128     48.0601   1.0054854308e+02   5.6038225759e+01    0.3994626    0.3239307 -66.66  0.001002325    1.701    0.412
       157  -9.5630    188.3003    234.1809   1.1838691838e+02   7.3087904230e-01    0.2307515    0.2012888  58.42  0.001024301    1.389    0.280
       158  -9.6175     75.1605     51.0957   1.0496836778e+02   5.7201068132e+01    0.8045902    0.4691028  -3.40  0.003114207    3.289    0.696
       159  -8.1567    164.6707     60.1778   8.4158554171e+01   3.6164738873e+01    0.2444271    0.1829445 -51.53 0.0007620277    1.424    0.298
       160  -8.7752    146.5831     58.9278   8.7592439731e+01   4.0866026940e+01    0.3681158    0.2347538 -38.50  0.001259312    1.571    0.364
       161  -8.2216    147.8139     53.4201   8.5521440432e+01   4.1441976295e+01    0.4249324    0.1697616 -34.61  0.001356525    2.472    0.595
       162  -9.2038    129.9395     56.9419   9.0867379002e+01   4.5167375719e+01    0.5369017    0.2525231 -40.27  0.001049817    2.131    0.531
       163  -8.4518     87.2983     58.2942   1.0348727712e+02   5.3794426953e+01    0.2437215     0.230253 -58.32 0.0006583823    1.217    0.178
       164  -8.7372     88.6402     53.2562   1.0127745408e+02   5.4467354712e+01    0.4824658    0.2956889  16.35  0.002086686    2.363    0.577
       165  -9.8361    245.2695     54.3449   7.0260448898e+01   1.7243781386e+01    0.2721684    0.2373258 -34.12 0.0003311767    1.127    0.112
       166  -8.8678    249.0685     50.1372   6.8829608977e+01   1.6967647553e+01    0.2707359    0.1911876 -31.19 0.0006504096    1.354    0.261
       167  -9.1639    138.8664     56.7269   8.8638602835e+01   4.3093998270e+01    0.3472787    0.2024294 -39.94 0.0007072981    1.729    0.422
       168  -8.1494    122.5093     41.0392   8.7136286164e+01   4.9372154807e+01    0.4301469    0.2417605  14.43  0.001531996    3.234    0.691
       169  -9.4367    118.3468     54.7089   9.3088845744e+01   4.8172434383e+01    0.5578748    0.3382749 -37.63  0.001237694    1.631    0.387
       170  -9.1499    121.0490     46.9141   8.9626009883e+01   4.8823254704e+01    0.3894455    0.2199892 -38.36  0.000473316    1.784    0.439
       171  -9.5570    157.2747     48.4832   8.1938324563e+01   3.9824963745e+01    0.3864394    0.2113834 -35.19  0.001567101    1.828    0.453
       172  -9.3275    162.8611     54.1854   8.2648539619e+01   3.7556823271e+01     0.371677    0.1965339 -33.76  0.001158077    1.891    0.471
       173  -7.8712     94.6861     54.1034   9.9682185949e+01   5.3181725490e+01    0.2852697    0.1179168 -44.87  0.001084038    2.503    0.601
       174  -9.8107     44.4241     52.8781   1.1686757445e+02   6.1137557544e+01    0.4389545    0.3862875  87.95  0.001699944    1.571    0.363
       175  -8.6680     39.9921     34.7990   1.1224268541e+02   6.5027487903e+01    0.2507121    0.1848611  24.29 0.0009392179    1.487    0.327
       176 -10.1663     37.7924     41.9957   1.1582609519e+02   6.3962381436e+01    0.5187209    0.3226771 -67.63  0.001766145    2.523    0.604
       177 -10.1857     35.8774     37.9804   1.1517819735e+02   6.4909964240e+01    0.3616374    0.2029208 -34.24 0.0003871032    1.568    0.362
       178  -8.9149    105.3635     51.8371   9.5677932613e+01   5.1440467287e+01    0.5894663     0.276368 -30.58  0.002346796    2.262    0.558
       179  -8.7668    141.9444     48.6420   8.5223455658e+01   4.3617324344e+01    0.2842086    0.2265156 -51.37 0.0003531897    1.374    0.272
       180  -8.1616    142.0243     44.5155   8.3805526485e+01   4.4209039597e+01    0.2895987    0.2034498  38.72  0.001379913    1.461    0.316
       181  -9.5877    130.7176     46.1234   8.6948243446e+01   4.6700063611e+01    0.9539922    0.3983781 -19.69  0.002044522    3.923    0.745
       182  -8.6347    132.7548     35.9757   8.2880238246e+01   4.7663016146e+01    0.3189627    0.2152222 -31.15 0.0007605177    1.512    0.339
       183 -10.3197    133.9496     31.1082   8.0871284096e+01   4.8011927638e+01    0.4015629    0.2759419   5.62  0.001895189    1.804    0.446
       184  -9.5173    149.6516     46.7355   8.2922053685e+01   4.1996118811e+01    0.7778834    0.2590811 -38.91  0.002555796    2.962    0.662
       185  -9.8062    152.6698     41.0539   8.0422279224e+01   4.2047472908e+01    0.5446486    0.3108417  80.76  0.002096028    2.564    0.610
       186  -9.2876    144.0712     36.5068   8.0626802444e+01   4.4818922342e+01    0.3850758    0.2540953 -62.94 0.0006462967    2.040    0.510
       187  -9.6361    140.7147     31.7041   7.9652270942e+01   4.6276678446e+01    0.2803634    0.2591301  19.93 0.0004355354    1.086    0.079
       188  -8.4726    111.9214     46.8624   9.2029560923e+01   5.0861246111e+01    0.2571009    0.1997795 -38.41 0.0004797846    1.310    0.237
       189  -8.3756    113.2096     42.1687   8.9954572537e+01   5.1304485196e+01    0.4451675    0.2582368   5.63  0.001646707    3.085    0.676
       190  -7.4803    162.2752     46.5786   8.0352456201e+01   3.8833303029e+01    0.1605146    0.1079243 -60.23 0.0003501168    1.811    0.448
       191  -9.1083     70.6358     25.8176   9.6497741912e+01   6.2078913750e+01    0.4507495    0.2482144  36.95  0.002289723    1.822    0.451
       192 -10.0463     69.4794     40.7419   1.0307120786e+02   5.9936959777e+01    0.8342653    0.3599334 -35.36  0.002458938    2.199    0.545
       193 -10.0613     76.1907     31.7489   9.7083478894e+01   6.0245183949e+01    0.3955423    0.3395393 -87.96  0.001315072    1.839    0.456
       194  -8.3775     33.7847    228.7030   1.4576180458e+02   2.4420042357e+01    0.1637996    0.1328903 -79.45 0.0005896859    1.420    0.296
       195  -9.0397     84.6972     21.9694   9.0129892871e+01   6.0037470610e+01    0.2597758    0.1825645 -28.19 0.0008167361    1.396    0.284
       196  -6.9870    239.6584     44.2917   6.8440846212e+01   1.9871608996e+01    0.1446026   0.09252272 -63.71 0.0004150318    1.652    0.395
       197  -8.4388    246.2322     43.4563   6.7535206933e+01   1.8486116749e+01    0.2886195    0.1655556  58.29  0.001432427    1.861    0.463
       198  -9.1703    104.8187     41.0499   9.1849032526e+01   5.3285545348e+01    0.3988481    0.2507591 -47.84 0.0007758577    1.869    0.465
       199  -8.1168    106.0253     36.4743   8.9761028956e+01   5.3706853108e+01    0.2802022    0.1549945  38.08 0.0009217415    1.853    0.460
       200  -7.6859    186.7527     40.7990   7.4379292057e+01   3.3350814306e+01    0.1940326    0.1612456 -68.89 0.0006067475    1.250    0.200
       201  -7.4391    164.7542     40.9882   7.8110306896e+01   3.8982298790e+01    0.1877065    0.1259845 -28.72 0.0008704044    1.544    0.352
       202  -8.8829    139.5972     39.4546   8.2593273704e+01   4.5523081893e+01    0.5276812    0.2422455 -32.38  0.001556358    2.185    0.542
       203  -8.5258     52.9461     39.9731   1.0897599835e+02   6.2503574893e+01    0.3126322    0.1461862 -30.24  0.001142973    2.323    0.570
       204  -8.4619     54.4811     35.5325   1.0663517748e+02   6.3062674845e+01    0.2144493    0.1459023   2.51 0.0009061078    1.682    0.406
       205  -8.8042    160.2895     38.8863   7.8252084288e+01   4.0408315460e+01    0.3005641    0.1119533 -36.24  0.001076537    2.608    0.617
       206  -8.9948    118.7851     35.0472   8.5854775897e+01   5.1076068886e+01    0.4275827    0.2214596 -20.45  0.001229145    2.228    0.551
       207  -7.6337    230.0025     37.2162   6.7746878921e+01   2.3048618924e+01    0.1811409    0.1081509  70.02 0.0008738787    1.701    0.412
       208  -7.4062     31.0324    215.5075   1.4540819625e+02   2.7155716148e+01    0.1172297    0.0976578  -4.39  0.000518581    2.355    0.575
       209  -8.1847    104.2910     15.2714   8.1728644430e+01   5.6765455739e+01    0.3374346    0.1493358  24.67  0.001135653    3.890    0.743
       210  -9.5487      7.3427    208.2900   1.4914032070e+02   3.0909359751e+01     0.214299    0.1381725  47.93  0.001065692    1.475    0.322
       211  -9.8029     11.5018    207.0075   1.4834620653e+02   3.0763673152e+01    0.3227884    0.2260566  39.26  0.002404752    1.648    0.393
       212  -9.1714    153.3725     34.4901   7.8102099307e+01   4.2747108163e+01    0.3151661    0.2296112 -29.53  0.001181803    1.421    0.296
       213  -9.4369     60.0203     33.6157   1.0371463478e+02   6.2583401956e+01    0.4567207    0.2353361 -45.19  0.001612109    2.006    0.501
       214  -8.4220     62.7330     26.5941   9.9719345379e+01   6.3264345465e+01     0.360715       0.1989  34.82  0.001867058    1.860    0.462
       215  -7.4283     53.4091    205.8434   1.4055585902e+02   2.6422515696e+01    0.1447614   0.09641805 -66.24 0.0002102109    1.576    0.365
       216 -10.0401    178.1940    200.4412   1.1496363104e+02   7.4474658224e+00    0.2168876     0.204768  41.41 0.0002371113    1.119    0.106
       217  -8.7796    190.8216    192.4435   1.1111533123e+02   6.4280265290e+00    0.5428753    0.3162495 -66.01  0.002032446    4.189    0.761
       218  -7.4091    178.5744    185.5675   1.1226346155e+02   9.8539406281e+00    0.1346961    0.1229131  47.57 4.486342e-06    1.113    0.102
       219  -8.7383     42.1116     28.1207   1.0865320462e+02   6.5918179848e+01    0.2281532    0.1474805 -28.09  0.001349413    1.343    0.255
       220  -7.2451    159.2925     34.6126   7.7044813106e+01   4.1224423418e+01    0.1557103    0.1063981 -61.16 0.0007012801    1.767    0.434
       221  -8.2087    225.4160    177.7879   1.0187048105e+02   2.3440146746e+00    0.1899352    0.1185203 -19.82 0.0009553525    1.725    0.420
       222  -9.0791    110.1307     32.9292   8.7278190051e+01   5.3311873921e+01    0.4074149    0.2113158 -40.37    0.0011374    2.066    0.516
       223  -8.1304    110.4888     26.4618   8.4661679794e+01   5.4081496167e+01    0.3153844    0.2196015  -1.57  0.001193521    1.617    0.382
       224  -7.8390      8.1836    171.4131   1.4677502250e+02   3.8215887475e+01    0.1471827   0.08437468  51.89 0.0007477827    1.618    0.382
       225  -9.8069     72.9968     59.2988   1.0858085830e+02   5.6011299685e+01    0.4350499    0.2467053 -52.44 0.0008917667    1.871    0.466
       226  -7.6765    230.3025    167.2902   9.8875769703e+01   3.0229899206e+00    0.1363726   0.09571204   8.83 0.0001936975    1.567    0.362
       227  -7.3450     23.2878    157.6723   1.4244761777e+02   3.9829235440e+01    0.1231881   0.07196124  73.24 0.0004237781    1.614    0.380
       228  -9.1204     91.2795     26.2667   8.9931982479e+01   5.8180180220e+01    0.3697858     0.225122 -43.49  0.001166735    1.914    0.477
       229  -8.6254     92.2687     20.8292   8.7348679729e+01   5.8675899611e+01    0.3180046    0.1921071  24.84 0.0008377306    1.827    0.453
       230  -9.5101    152.3589     26.7164   7.5684106117e+01   4.3966347404e+01    0.4726171    0.2300365  74.22  0.001809582    2.517    0.603
       231  -8.6665    144.2825     25.3894   7.6736285826e+01   4.6158939085e+01    0.2969173     0.201483 -16.77  0.001119145    1.625    0.385
       232  -8.5295    128.3471     26.0553   8.0254267923e+01   4.9990531916e+01    0.2466419    0.2235047 -87.48 0.0006634959    1.267    0.211
       233  -8.2180    129.8722     21.6923   7.8311403217e+01   5.0133165456e+01    0.3016228    0.1441464  46.64 0.0009531408    1.949    0.487
       234  -8.7368    133.5186    146.5603   1.1440743828e+02   2.6246002226e+01    0.5810505     0.195866 -54.57  0.001829546    3.540    0.718
       235  -8.0602    233.6990    146.3553   9.3814374143e+01   5.6026487555e+00    0.1345407    0.1082366 -62.54 0.0007037867    1.706    0.414
       236  -9.2477    124.0148    146.0702   1.1656676587e+02   2.8189440063e+01    0.2072711    0.1972944  76.38  0.001176863    1.005    0.005
       237  -8.0198    155.4376     22.5066   7.3731553049e+01   4.3668578390e+01    0.1411054    0.1325235  54.56 -0.0001866103    1.017    0.017
       238  -8.8041     40.9337     20.7265   1.0594785493e+02   6.7245630700e+01    0.2303708    0.1457091 -37.81 0.0004050981    1.434    0.303
       239  -9.7146     66.8609    144.4201   1.3042559960e+02   3.7912568062e+01    0.4723198    0.2933996  68.19  0.002265375    1.846    0.458
       240  -8.1781    189.1178    137.1600   1.0003383000e+02   1.6418004770e+01    0.2191365    0.1949461   9.10 0.0002738848    1.168    0.144
       241  -8.2465    112.4182    134.0860   1.1693591777e+02   3.3011835652e+01     0.311665    0.2091109  69.85  0.001392044    1.922    0.480
       242  -8.4976    135.7425    131.8174   1.1065744085e+02   2.8961078578e+01    0.4250157    0.1258224 -44.46  0.001283675    3.484    0.713
       243  -9.0380    131.7165     17.5633   7.6406374530e+01   5.0139332499e+01    0.4533169    0.2476112  63.49  0.002062426    1.780    0.438
       244  -8.6392    112.3893     15.7756   7.9945716184e+01   5.4895993049e+01     0.229582    0.2034027 -62.89 0.0005705368    1.389    0.280
       245 -10.4274    235.1085    129.5501   8.9791615963e+01   7.9805053294e+00    0.2862492    0.2737291  -2.16 0.0004040435    1.080    0.074
       246 -10.1912    123.2630     91.4777   1.0346354754e+02   4.0165392183e+01    0.5540717    0.4879611  29.21  0.001206212    1.202    0.168
       247 -10.0376    108.6803    114.6280   1.1350808606e+02   3.8072370326e+01    0.6731275    0.4174108 -77.43   0.00134805    2.585    0.613
       248 -11.0849    121.2326    109.0440   1.0878266000e+02   3.6859774969e+01     2.022787    0.9083253 -44.38   0.00763487    2.194    0.544
       249 -10.7134    108.5703    100.7610   1.1002862482e+02   4.1159889102e+01    0.9984311    0.7005025 -67.70  0.004603533    1.717    0.418
       250  -9.7685    127.7541    102.5706   1.0537644736e+02   3.6897560159e+01    0.5868046    0.3583272 -43.83  0.001853859    1.606    0.377
       251  -8.6919    121.7659    130.9887   1.1390890254e+02   3.1932472761e+01    0.2960683     0.253959  33.13 0.0003511475    1.258    0.205
       252  -9.8965    117.3061    124.2207   1.1350478517e+02   3.4294629402e+01    0.9097733    0.5062006 -59.97  0.002597007    2.012    0.503
       253  -9.7275     98.6722    128.9715   1.1939779014e+02   3.6616992117e+01     0.606838    0.3641891  71.96  0.002425085    2.633    0.620
       254 -10.0379     58.2711    124.6685   1.2943576901e+02   4.3606219661e+01    0.6274948    0.3467368  75.89  0.002252358    2.826    0.646
       255  -9.9240     71.0089    125.7135   1.2615240118e+02   4.1681223872e+01    0.5497475    0.3477374 -83.24  0.001653604    1.875    0.467
       256  -9.6750     67.0202    128.5065   1.2773978600e+02   4.1578112392e+01    0.3477896    0.2929432  84.94  0.001530866    1.164    0.141
       257  -9.7675     27.4359    123.0591   1.3754899030e+02   4.7259362267e+01    0.5043038     0.245162  70.49  0.002256778    2.874    0.652
       258  -9.6599    142.1328    111.8404   1.0422562512e+02   3.1850020897e+01    0.6564369    0.2617029  38.05  0.002108511    3.094    0.677
       259  -9.5748    139.2471    104.4126   1.0296930402e+02   3.4028835491e+01    0.4935681    0.3564273 -52.61  0.001384162    1.432    0.302
       260 -10.5614    131.7227    119.3091   1.0867897541e+02   3.2484980888e+01    0.9167318    0.6124834 -84.33  0.002019575    2.492    0.599
       261  -9.2173    140.4155     82.1571   9.6332027737e+01   3.8210199355e+01    0.5455306    0.2616138 -39.95   0.00126799    2.055    0.513
       262  -8.9739    139.9285     75.5244   9.4426527400e+01   3.9568894055e+01     0.482871    0.2475155 -44.83  0.001356652    1.998    0.499
       263  -9.4822     41.1256    121.6528   1.3363538346e+02   4.6264524494e+01    0.4838129     0.206641 -78.19  0.001711062    2.763    0.638
       264 -10.3036    133.5807    109.2953   1.0567707260e+02   3.4235640455e+01    0.8231707    0.3931792 -47.63   0.00236804    2.092    0.522
       265  -8.3011    158.0581    122.0311   1.0306393655e+02   2.6229829619e+01     0.250857    0.1928219 -85.94 0.0009198624    1.760    0.432
       266  -8.0271    151.7928    121.4274   1.0435764515e+02   2.7738561719e+01    0.2101046    0.1453266  36.44 0.0005035137    1.545    0.353
       267  -9.7593    140.7326    118.5573   1.0627449301e+02   3.0742544604e+01    0.5033005    0.3484702 -75.50  0.001188769    2.078    0.519
