#   1 NUMBER                 Running object number                                     
#   2 MAG_AUTO               Kron-like elliptical aperture magnitude                    [mag]
#   3 X_IMAGE                Object position along x                                    [pixel]
#   4 Y_IMAGE                Object position along y                                    [pixel]
#   5 X_WORLD                Barycenter position along world x axis                     [deg]
#   6 Y_WORLD                Barycenter position along world y axis                     [deg]
#   7 A_WORLD                Profile RMS along major axis (world units)                 [deg]
#   8 B_WORLD                Profile RMS along minor axis (world units)                 [deg]
#   9 THETA_WORLD            Position angle (CCW/world-x)                               [deg]
#  10 FWHM_WORLD             FWHM assuming a gaussian core                              [deg]
#  11 ELONGATION             A_IMAGE/B_IMAGE                                           
#  12 ELLIPTICITY            1 - B_IMAGE/A_IMAGE                                       
         1 -13.4681    200.0297     29.9287   6.0771322662e+01   3.1212654979e+01     1.499826     1.253199  16.30  0.007504145    1.270    0.213
         2 -13.5038    217.4179     12.3034   5.3251411783e+01   2.8546372682e+01     1.220173    0.9307691  27.29  0.003283663    1.456    0.313
         3 -12.3351      3.0722     10.8586   1.1335342563e+02   7.1864418542e+01     0.753194    0.1839013 -56.39  0.003469013    2.607    0.616
         4 -14.2720     13.5795    240.9361   1.3516442782e+02   2.7139616590e+01     1.960171    0.9312508  51.95   0.01608826    1.430    0.301
         5 -10.9497    249.3382    248.9125   1.0050815511e+02  -4.6958544141e+00    0.2310519    0.1679705  11.31   0.00194527    1.267    0.211
         6 -12.6287    141.7372    248.9365   1.1659454556e+02   1.0757282422e+01    0.5803432    0.2065134  43.31  0.003306075    2.013    0.503
         7 -11.0308     81.5812    249.3597   1.2573264872e+02   1.8665837457e+01    0.1891063    0.1120917  53.73  0.001427253    1.162    0.139
         8 -15.4215      9.3060    137.7600   1.3098882991e+02   4.5112746035e+01     9.570851      2.47265 -87.00   0.03611516    4.773    0.790
         9 -11.3215    216.7952    249.0071   1.0524260686e+02  -1.1867027149e-01    0.2372877    0.1345956  31.11  0.001688433    1.352    0.261
        10 -11.1715     63.0057    246.2274   1.2829189078e+02   2.1280700145e+01    0.2383647    0.1325806  58.62  0.001169688    1.261    0.207
        11  -9.8519    198.3300    246.3360   1.0767997827e+02   2.8089970018e+00    0.1064553   0.06296915  24.32 0.0004020162    1.730    0.422
        12 -11.7510     99.6260    249.2336   1.2302519419e+02   1.6422515919e+01    0.2856008    0.1721249  34.47   0.00205126    1.885    0.469
        13  -9.7266    189.6607    249.6822   1.0937457677e+02   3.7585355204e+00    0.1047451   0.06251512  25.93 0.0007049061    1.708    0.414
        14  -9.6148    186.0000    238.9930   1.0869978221e+02   5.3679549463e+00    0.1323958   0.06196976 -40.03 0.0006734918    2.933    0.659
        15 -13.1241    103.7719    230.0841   1.2087493378e+02   1.8430606083e+01      1.26055    0.0752758  45.07  0.003877826    6.886    0.855
        16 -11.0842    140.2523    231.3548   1.1510629310e+02   1.3097774183e+01    0.3005317   0.07335359  45.27  0.001326001    3.001    0.667
        17 -12.9273      9.1899    207.4952   1.3461785239e+02   3.2591273210e+01    0.6151124    0.4747074  42.83    0.0038949    1.579    0.367
        18  -8.8712    152.5282    213.0278   1.1101642630e+02   1.3604963098e+01    0.1293531    0.1137154 -54.78 6.774988e-05    1.457    0.314
        19 -10.3377     52.5279    202.1720   1.2723065227e+02   2.9115964092e+01    0.2836824    0.1155317  60.15  0.001645857    2.154    0.536
        20 -11.5704     56.0208    196.2678   1.2620590756e+02   2.9703643557e+01    0.2043956    0.1764221  87.65   0.00050523    1.295    0.228
        21 -11.8449     62.8025    188.0730   1.2434687457e+02   3.0310254412e+01    0.2092288    0.1799719  69.20 0.0004121334    1.201    0.167
        22 -11.6459      3.9558    183.8668   1.3451208731e+02   3.6977871427e+01    0.2968637    0.1647753  73.59 0.0009434119    1.325    0.246
        23 -12.6186     43.3087    211.7304   1.2937138418e+02   2.8579029360e+01    0.5277146     0.422387 -89.94  0.003342957    1.322    0.243
        24 -10.6945     73.8502    175.5301   1.2111209528e+02   3.1163487271e+01    0.1914977    0.1579768  80.84 0.0003157667    1.085    0.078
        25 -13.1306     60.1361    173.3774   1.2356144392e+02   3.3254081821e+01    0.3918816     0.237804 -50.46  0.001693153    2.253    0.556
        26 -11.7910     81.9700    166.5790   1.1853856407e+02   3.1731926301e+01    0.5093809    0.4531963  43.89  0.003706981    1.321    0.243
        27 -12.7391     27.5107    229.0544   1.3270342301e+02   2.7535498610e+01    0.2140197    0.1672441  77.89 0.0007133369    1.277    0.217
        28 -10.1097     95.3233    151.3300   1.1379702289e+02   3.2716893021e+01    0.2340921    0.2148789  72.83 0.0007452939    1.105    0.095
        29 -11.9605     83.7118    150.1214   1.1613206507e+02   3.4630249846e+01     0.239655    0.2070376 -67.71 0.0007159239    1.236    0.191
        30  -9.0607     98.6648    147.0891   1.1245377005e+02   3.3031328906e+01    0.1649263    0.1471855 -79.73 0.0004048074    1.120    0.108
        31 -11.6235     68.7562    143.7475   1.1857609181e+02   3.7892252859e+01    0.4599469    0.3064544  84.66  0.001599679    1.494    0.331
        32 -11.1954     65.3125    141.6750   1.1908125875e+02   3.8742653654e+01    0.2913696     0.222982 -65.69  0.001018955    1.298    0.230
        33 -13.8854     32.9035    222.4249   1.3158483427e+02   2.7995377819e+01    0.5743862    0.3834287  60.86  0.002405219    1.080    0.074
        34  -9.5974    108.3292    136.3438   1.0857767694e+02   3.3597621137e+01    0.2951504    0.2191346   0.67  0.001489976    2.405    0.584
        35 -10.4205     94.9061    133.7052   1.1119364522e+02   3.6256065518e+01    0.2098676      0.18383 -64.92 0.0003422958    1.168    0.144
        36  -9.1361    105.8618    123.3217   1.0679431644e+02   3.6606304364e+01    0.1702062     0.154925  55.69 0.0002818519    1.101    0.092
        37  -9.4401    167.4675    112.4669   9.0512828346e+01   2.6686292631e+01    0.2635563    0.2248839 -88.56 0.0006759553    1.451    0.311
        38 -11.8270    244.1334    100.0042   7.3667751610e+01   1.1583294450e+01    0.4417734    0.2482903  -2.62  0.001889808    2.274    0.560
        39 -11.6060    243.2709    248.7411   1.0135218667e+02  -3.8460670244e+00    0.2617737    0.1548039  14.04  0.001911331    1.639    0.390
        40 -12.0587    124.2844    250.0405   1.1935545413e+02   1.3050285325e+01    0.5589871    0.1046011  43.16  0.002368532    3.783    0.736
