#   1 NUMBER                 Running object number                                     
#   2 MAG_AUTO               Kron-like elliptical aperture magnitude                    [mag]
#   3 X_IMAGE                Object position along x                                    [pixel]
#   4 Y_IMAGE                Object position along y                                    [pixel]
#   5 X_WORLD                Barycenter position along world x axis                     [deg]
#   6 Y_WORLD                Barycenter position along world y axis                     [deg]
#   7 A_WORLD                Profile RMS along major axis (world units)                 [deg]
#   8 B_WORLD                Profile RMS along minor axis (world units)                 [deg]
#   9 THETA_WORLD            Position angle (CCW/world-x)                               [deg]
#  10 FWHM_WORLD             FWHM assuming a gaussian core                              [deg]
#  11 ELONGATION             A_IMAGE/B_IMAGE                                           
#  12 ELLIPTICITY            1 - B_IMAGE/A_IMAGE                                       
         1  -7.2277    156.7688     15.7585   2.9016608617e+02   6.6139091247e+00  0.008698096  0.007516737  57.51 0.0004806637    1.236    0.191
         2  -7.0289     13.0332    250.8065   2.9332226724e+02   4.8349424374e+00  0.008811639  0.005094136  28.42 0.0003205411    1.690    0.408
         3  -7.7500    240.5236    245.5472   2.9063249009e+02   3.4822896406e+00  0.006620266   0.00642754   1.29 8.048781e-05    1.018    0.018
         4  -9.1332     71.6107    243.2806   2.9259065881e+02   4.5579455435e+00   0.01149101   0.01090428  -2.73 0.0003052043    1.058    0.055
         5  -7.2776    180.6210    238.1651   2.9128517993e+02   3.9390633058e+00  0.009539575   0.00582621 -48.30 0.0003693383    1.650    0.394
         6  -7.8712    238.5012    234.4994   2.9058678432e+02   3.6203539148e+00  0.006616442  0.006468438   7.77 -0.0001660202    1.004    0.004
         7  -8.5919      6.2436    233.3078   2.9329263603e+02   5.0759831527e+00   0.01300395   0.01033113 -24.61 0.0007551969    1.388    0.280
         8  -7.1077     15.8042    232.3698   2.9317500004e+02   5.0275562920e+00  0.009444603  0.006299129  11.41 0.0006103656    1.708    0.415
         9  -7.8643    137.9285    228.4908   2.9172321290e+02   4.3145025882e+00   0.01037847  0.008562284 -59.57 0.0005328857    1.233    0.189
        10  -6.9380     63.6798    227.7424   2.9258634490e+02   4.7838324955e+00  0.006686799   0.00505053 -17.72 0.0001626938    1.543    0.352
        11  -6.9690    224.4961    225.5106   2.9069377132e+02   3.8096944895e+00  0.006611383  0.006472803  20.65 0.0008105689    1.010    0.010
        12  -7.5508    142.7419    223.7835   2.9163750800e+02   4.3381015311e+00   0.01463679  0.006029642 -64.22 0.0009553126    2.653    0.623
        13  -6.7807      2.5438    224.5003   2.9328101844e+02   5.1990499616e+00  0.006629701  0.006417033 -11.29 8.267561e-05    1.032    0.031
        14  -8.5025     49.0257    222.4874   2.9272487556e+02   4.9343947463e+00   0.01184398  0.009612858 -55.66 0.0003546517    1.241    0.194
        15  -7.4575     12.6883    212.6771   2.9308864649e+02   5.2708619646e+00  0.007023676   0.00499152 -25.44 0.0003616566    1.654    0.396
        16  -7.1811     45.8642    210.1306   2.9268468651e+02   5.0945394298e+00  0.009304666   0.00753528 -27.51 0.0004092633    1.334    0.250
        17  -7.1248    158.0526    199.9854   2.9130951615e+02   4.5134175070e+00  0.007759343  0.007622657  10.01 0.0003752991    1.005    0.005
        18  -7.7256     67.8060    199.1481   2.9235939930e+02   5.0835005004e+00  0.009640022  0.008807252  59.30  0.000391096    1.152    0.132
        19  -7.0686    231.5208    192.5033   2.9040462573e+02   4.1408409104e+00  0.006612822  0.006468603   6.52 0.0008103152    1.005    0.005
        20 -10.0457    191.1065    188.4275   2.9085086921e+02   4.4390042936e+00   0.01201874   0.01076266 -66.21 0.0001484489    1.156    0.135
        21  -7.4484    191.2044    173.8262   2.9075806252e+02   4.6043061831e+00  0.009644327  0.008715617  50.97 0.0004335423    1.141    0.123
        22  -6.6568     35.6894    168.6590   2.9254455192e+02   5.6292947708e+00  0.007117079  0.004961497 -26.56 0.0007045271    1.694    0.410
        23  -7.4037     66.0005    158.0217   2.9212316068e+02   5.5624419393e+00   0.01002164  0.007635866 -21.57            0    1.501    0.334
        24  -8.1302     18.6961    151.1326   2.9263390429e+02   5.9338217374e+00   0.01107374  0.008555572  35.31  0.000244792    1.266    0.210
        25  -7.0129     20.6746    145.2361   2.9257384620e+02   5.9886438014e+00  0.006698599  0.004844592  53.06 0.0001951956    1.521    0.343
        26  -7.0839    204.5307    136.5819   2.9036834275e+02   4.9443485887e+00  0.006627383  0.006361046  -0.63 0.0001221792    1.038    0.036
        27  -9.2323    135.3305    135.8247   2.9117261811e+02   5.3840927088e+00   0.01250808   0.01116781 -64.52 0.0002399082    1.155    0.134
        28  -6.9774    175.3492    131.2494   2.9067585978e+02   5.1868679651e+00  0.006766238  0.005053064 -14.63 0.0004674454    1.586    0.370
        29  -8.6649    200.1563    124.2429   2.9034185152e+02   5.1117822073e+00   0.01144664  0.009968523  28.55 0.0004177753    1.125    0.111
        30  -8.3622    132.1858    121.0030   2.9111631925e+02   5.5721071090e+00   0.01033288  0.009137087  22.28 0.0002577747    1.116    0.104
        31 -10.3044    245.5094    115.2945   2.8975582580e+02   4.9302581946e+00   0.01366819   0.01116393  25.78 0.0002586656    1.205    0.170
        32  -6.7466     55.2759    114.2861   2.9197466688e+02   6.1262442458e+00  0.006655512  0.004999861 -25.27 0.0001655715    1.511    0.338
        33  -6.7369     55.9724    110.1910   2.9194082569e+02   6.1684783701e+00   0.00834862  0.005076198  28.38            0    1.608    0.378
        34  -7.2496    174.3956    109.1918   2.9054830981e+02   5.4433839913e+00  0.008497965  0.006494791 -78.91 0.0001576338    1.494    0.331
        35  -7.2446     33.8435    106.8751   2.9217932281e+02   6.3433166204e+00  0.009192155  0.007428917  50.21 0.0004952588    1.297    0.229
        36  -7.9591    191.3470    101.9912   2.9030480834e+02   5.4194437158e+00   0.01067961  0.008797773  41.35 0.0003092368    1.213    0.175
        37  -8.1042    248.3165     96.3453   2.8960371146e+02   5.1277799695e+00     0.012573   0.01114638  70.53 0.0007654136    1.236    0.191
        38  -7.7843    195.3103     96.9982   2.9022705012e+02   5.4514126236e+00  0.008990928  0.008480096 -57.40 0.0003164944    1.081    0.075
        39  -6.7456    147.3456     94.7399   2.9077383361e+02   5.7761121093e+00  0.006904279  0.004893208  55.27 0.0002152517    1.598    0.374
        40  -7.3965    225.4592     76.4763   2.8974546054e+02   5.4960971968e+00  0.006630147  0.006424352  -7.76 0.0001064578    1.029    0.028
        41  -7.5110    215.0492     75.1453   2.8985870987e+02   5.5762412147e+00  0.009853712  0.008498532 -20.88            0    1.233    0.189
        42  -7.0331     46.5334     65.4236   2.9177047831e+02   6.7357583991e+00  0.006596013  0.006389199   8.81 0.0001578451    1.015    0.015
        43  -7.9719    160.1498     58.9273   2.9039858097e+02   6.1029804622e+00  0.009788751   0.00859271  64.43   0.00114514    1.238    0.192
        44  -8.8274    197.4450     53.9416   2.8993087167e+02   5.9268165059e+00   0.01161863   0.01001023  21.30 0.0001000165    1.151    0.131
        45  -7.4571    157.4732     50.0522   2.9037400141e+02   6.2204110727e+00   0.01017635  0.004781715 -39.52 0.0008094757    2.581    0.613
        46  -8.6290    137.0052     44.8348   2.9058076969e+02   6.4072141989e+00   0.01407617  0.009565489  47.62  0.000399568    1.556    0.357
        47  -7.8683    184.3548     40.5864   2.8999978263e+02   6.1600891464e+00   0.01329367  0.005847373  33.98   0.00112486    2.136    0.532
        48  -7.0841    250.6540     39.2074   2.8921616411e+02   5.7612701392e+00  0.009099131  0.005931971 -50.95 0.0004036805    1.532    0.347
        49  -6.9332    245.9926     28.7903   2.8920486246e+02   5.9085360013e+00  0.008660414  0.005279885  27.71 0.0003311233    1.613    0.380
        50  -7.6711    192.9059     27.4940   2.8981719091e+02   6.2551961932e+00   0.00960438   0.00886611 -47.22 0.0005216358    1.093    0.085
        51  -8.6166    164.4335     21.3167   2.9011140515e+02   6.5030396242e+00   0.01757539   0.01030352 -40.44 0.0006111808    1.870    0.465
        52 -10.4748    146.0403     20.8353   2.9032372842e+02   6.6232357142e+00   0.01174891   0.01056896 -53.62 0.0002577688    1.124    0.111
        53  -8.0772    235.8690     21.8127   2.8927908098e+02   6.0509843892e+00   0.01474636  0.005535532  20.93  0.001017982    3.401    0.706
