#   1 NUMBER                 Running object number                                     
#   2 MAG_AUTO               Kron-like elliptical aperture magnitude                    [mag]
#   3 X_IMAGE                Object position along x                                    [pixel]
#   4 Y_IMAGE                Object position along y                                    [pixel]
#   5 X_WORLD                Barycenter position along world x axis                     [deg]
#   6 Y_WORLD                Barycenter position along world y axis                     [deg]
#   7 A_WORLD                Profile RMS along major axis (world units)                 [deg]
#   8 B_WORLD                Profile RMS along minor axis (world units)                 [deg]
#   9 THETA_WORLD            Position angle (CCW/world-x)                               [deg]
#  10 FWHM_WORLD             FWHM assuming a gaussian core                              [deg]
#  11 ELONGATION             A_IMAGE/B_IMAGE                                           
#  12 ELLIPTICITY            1 - B_IMAGE/A_IMAGE                                       
         1 -12.7721    233.5236     73.8533   6.0184855284e+01   1.7452649734e+01     1.591467    0.7780328 -21.81  0.007033303    1.978    0.494
         2 -10.4801     47.7457      7.1144   8.1465700603e+01   7.1358960222e+01    0.2656119    0.1849035  48.70  0.001440012    1.697    0.411
         3  -8.2883    101.8607    247.8333   1.1518483548e+02   1.5017762256e+01    0.1523801    0.1156747  29.95  0.001046208    1.334    0.250
         4 -11.3866    135.5695    246.4145   1.0914297611e+02   1.0862196321e+01     1.400587    0.5254418  25.28  0.005075098    5.635    0.823
         5 -13.9124    236.7057    238.5762   9.1549493477e+01  -1.6095220727e+00     2.507016     1.131047  21.21   0.01554112    1.955    0.489
         6  -9.5570    135.3476    241.1557   1.0868365793e+02   1.1537770266e+01    0.2178803    0.1460484  24.54 0.0008542575    1.452    0.311
         7  -9.3199    138.4322    237.7409   1.0779978469e+02   1.1548904079e+01    0.1943373    0.1382246  13.67 0.0009167359    1.685    0.406
         8  -9.0996    118.5809    244.1581   1.1193266131e+02   1.3369642774e+01    0.2122875    0.1156616  33.99 0.0007483456    1.431    0.301
         9 -10.9034    120.2973    239.2823   1.1119945315e+02   1.3780477088e+01    0.3139831    0.1968437  14.01  0.001910049    2.391    0.582
        10  -9.4234    122.7056    242.9938   1.1109859678e+02   1.2981193770e+01    0.1904188    0.1523206  46.31  0.001009153    1.161    0.139
        11  -9.5896    126.1324    239.2607   1.1014861812e+02   1.3009418836e+01    0.2510132    0.1503678  23.93   0.00100462    1.788    0.441
        12  -8.4696    106.0323    243.4941   1.1411237331e+02   1.5070112568e+01    0.1623679   0.07699168  37.42 0.0005653317    1.523    0.344
        13  -7.7295     99.9820    241.7723   1.1506248597e+02   1.6068894508e+01     0.143195   0.06443408  37.91 0.0005912234    1.595    0.373
        14  -8.1002     59.6659    248.3068   1.2261114392e+02   1.9920647770e+01    0.1085605   0.04895152  54.24 0.0004453845    1.669    0.401
        15 -10.1399    112.4832    238.5240   1.1254426461e+02   1.4907454657e+01    0.2177576    0.1504471 -22.80  0.001417822    2.644    0.622
        16  -8.6335    143.6616    237.3328   1.0682616110e+02   1.0888214241e+01     0.217478    0.1000147  35.86 0.0008018891    1.597    0.374
        17  -9.5933     45.4528    238.3156   1.2464010145e+02   2.2916897787e+01    0.1820544   0.06805794  36.03  0.001076306    1.992    0.498
        18  -8.4740    208.5987    234.6064   9.5417975762e+01   2.3399802317e+00    0.1954922    0.1153569  27.89 0.0006339268    1.219    0.180
        19  -9.1370    134.3429    235.1985   1.0828067733e+02   1.2427997220e+01    0.1964254    0.1166657  32.28  0.001118403    1.353    0.261
        20 -10.7208     38.1381    241.3059   1.2604996879e+02   2.3223784176e+01    0.3097214     0.167689 -66.40  0.002235455    2.416    0.586
        21 -11.1030     14.7600    232.2494   1.2984340854e+02   2.6862780381e+01     0.262804    0.2496353 -39.74  0.002447738    1.775    0.436
        22  -8.2948    213.4994    232.5144   9.4353708099e+01   1.8908009105e+00    0.1489532   0.08798024 -10.94  0.000673585    1.948    0.487
        23 -10.1000     34.6460    246.7859   1.2685213705e+02   2.2764516438e+01    0.1838366    0.1599408  50.70  0.001157803    1.392    0.282
        24  -7.9353     36.8083    233.5821   1.2598415817e+02   2.4535551879e+01    0.1448667   0.06086801  44.80 0.0008097035    1.567    0.362
        25  -9.4802    218.2230    231.1174   9.3411810092e+01   1.3992444169e+00    0.2789858    0.1418364  20.10  0.001576425    1.795    0.443
        26  -8.9212    117.9994    249.8770   1.1251498042e+02   1.2716503898e+01    0.1931192    0.1620937  10.90  0.001349577    1.532    0.347
        27  -9.7109    147.6940    231.6260   1.0550140762e+02   1.1042424252e+01    0.2205097    0.1473122  16.16  0.001119733    1.714    0.416
        28  -9.7073    133.9874    229.6808   1.0778776035e+02   1.3197823892e+01    0.1857891    0.1431189   6.31  0.001326511    1.663    0.399
        29  -9.0049    121.5228    248.9072   1.1181895051e+02   1.2386178785e+01    0.1942807    0.1200785  33.94 0.0008536843    1.256    0.204
        30  -7.9113    143.6244    229.7143   1.0603071077e+02   1.1852595434e+01    0.1115384    0.0724141  19.00 0.0005394543    1.719    0.418
        31 -10.0716    129.6126    234.0532   1.0902501930e+02   1.3220615775e+01     0.216889    0.1251165  33.37 0.0007348183    1.374    0.272
        32  -8.0674     55.6370    250.2873   1.2340144216e+02   2.0079133279e+01    0.1090499   0.04653742  53.06 0.0007023067    1.692    0.409
        33  -8.0258     23.6441    228.2877   1.2815501862e+02   2.6663354227e+01    0.1112561    0.0452399  54.04 0.0005046885    1.676    0.403
        34  -8.4548      4.3273    228.6633   1.3158232820e+02   2.8345696726e+01    0.1093828   0.04094091  55.64 0.0007051763    1.725    0.420
        35 -12.6609    154.2427    245.7579   1.0584069290e+02   8.4600315226e+00     1.699192    0.8124896  24.96  0.009650259    2.243    0.554
        36 -10.2425     44.8786    244.1699   1.2499109631e+02   2.2104780234e+01    0.1613921   0.09088594  54.08 0.0008429607    1.244    0.196
        37  -8.0377    220.2219    225.8124   9.2367561028e+01   1.6337715277e+00    0.1499449   0.09212761  16.73 0.0006758798    1.348    0.258
        38  -8.8563    138.0220    231.9434   1.0728427821e+02   1.2343621760e+01    0.1651602    0.1154361  15.59 0.0008787445    1.679    0.404
        39 -10.1906    140.4648    225.8309   1.0618862886e+02   1.2802261368e+01    0.3566241    0.1730519  23.90  0.001786479    2.625    0.619
        40  -7.8061    160.6156    225.7301   1.0250608523e+02   9.9532150538e+00    0.1147886   0.07076822  19.96 0.0006991667    1.703    0.413
        41  -8.1752     11.3281    225.7165   1.3028488043e+02   2.8207283320e+01    0.1075045   0.04429071  54.39  0.000303351    1.606    0.377
        42  -9.3238    164.1806    226.4068   1.0194839295e+02   9.3630849470e+00    0.1668672    0.1374934   4.32 0.0008885519    1.345    0.257
        43  -8.5532     25.9892    224.4773   1.2760266060e+02   2.7050763340e+01    0.1519323    0.0746604  38.37 0.0005759413    1.562    0.360
        44  -9.0667    135.7625    223.2135   1.0677740001e+02   1.3818127334e+01    0.1847442   0.07286077  31.24 0.0007884246    2.436    0.590
        45 -13.6467    189.0486    237.6963   9.9021144088e+01   4.6490256060e+00     2.852589     1.419385  18.81   0.01612963    2.349    0.574
        46  -8.1219    227.1332    221.7347   9.0696003572e+01   1.0978948013e+00    0.1942996     0.106178   2.07  0.001185111    2.076    0.518
        47  -9.9937     27.0192    249.1766   1.2821729543e+02   2.3162417065e+01    0.3330505    0.1620529  43.01  0.002477988    1.367    0.269
        48  -9.6767    218.0506    217.5159   9.1543837746e+01   2.7343731823e+00    0.3708882    0.1721641  13.23  0.001749476    3.267    0.694
        49  -8.0076    149.9837    220.4307   1.0381857020e+02   1.2154279008e+01    0.1809759   0.08595128  38.31  0.001018655    1.579    0.367
        50  -9.3469    131.1556    244.0821   1.0970086739e+02   1.1731132625e+01     0.226806    0.1226789  33.55 0.0007122228    1.421    0.296
        51 -11.4817     11.6016    239.5455   1.3056180066e+02   2.6022549822e+01    0.5200006    0.2308389  29.39  0.003429148    2.218    0.549
        52  -8.6200     30.0227    218.2071   1.2662282097e+02   2.7686551587e+01     0.183622   0.06553512  51.22  0.001068556    1.908    0.476
        53  -7.7545    144.3479    216.3107   1.0438647325e+02   1.3525696189e+01    0.1148024    0.0784523  15.76 0.0003659195    1.711    0.416
        54  -8.0411    235.5570    213.9289   8.8233540264e+01   7.0499094648e-01    0.1438045   0.07394353   0.88 0.0008044728    2.342    0.573
        55 -12.0602     12.0804    248.7363   1.3068301812e+02   2.4612883387e+01      1.23226    0.2523243  37.05  0.006891224    2.686    0.628
        56 -10.2673    113.6695    245.8040   1.1294095072e+02   1.3790493688e+01    0.3269519    0.1472679  52.40  0.001927843    2.092    0.522
        57  -8.2246    228.8520    203.6301   8.7716683859e+01   2.6220205209e+00    0.1774268    0.1228025  -0.80 0.0006363723    1.312    0.238
        58  -8.9538    127.1138    244.1125   1.1041717287e+02   1.2260129610e+01    0.1626557    0.1152788  28.22 0.0006514742    1.299    0.230
        59  -9.2015    131.8199    239.2392   1.0912784802e+02   1.2251830448e+01    0.1972176    0.1080462  31.93 0.0007923897    1.487    0.328
        60  -9.0579    196.8785    173.5269   8.8190503016e+01   1.1039864900e+01    0.1866323    0.1681993 -11.96 0.0005099256    1.246    0.198
        61  -7.7860    160.5453    107.4654   8.1677447680e+01   2.8552855425e+01    0.1467428    0.1408362  27.13 0.0001928926    1.013    0.013
        62  -9.5074    217.2893    101.8678   6.9508335205e+01   1.7144359812e+01    0.2240631    0.1956806  61.70 0.0007347775    1.364    0.267
        63 -12.0820     19.3245    243.9987   1.2936488046e+02   2.4650318195e+01    0.5959933    0.4641942  28.24  0.005202214    1.626    0.385
        64  -8.3981     12.6724     60.6767   1.1974792359e+02   6.3176915028e+01    0.1330809   0.07735505 -46.86 0.0007049048    1.693    0.409
        65  -8.9180     38.0000     15.9750   9.2241862621e+01   7.1199515767e+01    0.2231694    0.0672159 -49.15 0.0007196312    2.985    0.665
