#   1 NUMBER                 Running object number                                     
#   2 MAG_AUTO               Kron-like elliptical aperture magnitude                    [mag]
#   3 X_IMAGE                Object position along x                                    [pixel]
#   4 Y_IMAGE                Object position along y                                    [pixel]
#   5 X_WORLD                Barycenter position along world x axis                     [deg]
#   6 Y_WORLD                Barycenter position along world y axis                     [deg]
#   7 A_WORLD                Profile RMS along major axis (world units)                 [deg]
#   8 B_WORLD                Profile RMS along minor axis (world units)                 [deg]
#   9 THETA_WORLD            Position angle (CCW/world-x)                               [deg]
#  10 FWHM_WORLD             FWHM assuming a gaussian core                              [deg]
#  11 ELONGATION             A_IMAGE/B_IMAGE                                           
#  12 ELLIPTICITY            1 - B_IMAGE/A_IMAGE                                       
         1 -14.8402    156.5505     49.5904   8.2015844424e+01   3.9858511531e+01     1.237047     1.179229 -26.27  0.003548644    1.104    0.094
         2 -14.9146    166.6612     18.7185   7.0168474302e+01   4.1084157481e+01     1.653277     1.066556 -84.67  0.005927378    1.852    0.460
         3 -14.0418    189.9730     14.4676   6.5653125413e+01   3.5345959354e+01     1.005483    0.5243756 -72.67  0.004034381    2.533    0.605
         4 -14.1454    172.1804      3.0229   6.4498761894e+01   4.1133118771e+01     1.666414    0.5987436  86.62  0.004732897    4.882    0.795
         5 -11.4406    157.3969    245.6433   1.2542087491e+02   4.1968316745e+00    0.3555644    0.2364655  -9.02  0.001393085    2.768    0.639
         6 -20.5080     84.4106    180.4724   1.3197911190e+02   2.7763521550e+01     14.60853      6.72775 -65.57   0.06711896    2.255    0.556
         7 -13.0821    189.8978    155.5787   1.0355262433e+02   1.2763305685e+01    0.5617657    0.5085389  53.94  0.001614872    1.189    0.159
         8 -12.8181    192.6912    164.8974   1.0496061002e+02   1.0538523120e+01    0.3858569    0.3361457 -10.53 0.0008513744    1.183    0.155
         9 -13.0027    189.9477    160.9864   1.0470400637e+02   1.1791433785e+01    0.4492705    0.3630678  76.72  0.001426098    1.704    0.413
        10 -12.9033    230.5414    167.6153   9.8206208562e+01   2.5998045759e+00    0.4450304    0.2395319 -44.79  0.002014982    2.278    0.561
        11 -13.4097    236.9006    173.8471   9.8346574742e+01   5.1553919522e-01    0.4233039    0.2805112  50.18  0.002228859    1.750    0.429
        12 -11.4969    170.0501    158.6828   1.0847949140e+02   1.6395460200e+01     0.212321    0.1827344  41.01 0.0005308777    1.076    0.071
        13 -11.9536     27.7868    231.0979   1.4767794469e+02   2.5026623772e+01    0.1745624    0.1282215  80.83 0.0008704245    1.157    0.136
        14 -13.0878    196.4013    228.8623   1.1579574064e+02  -7.4372893383e-03     0.354061    0.2023292 -21.44  0.001845214    2.394    0.582
        15 -11.5986     22.8675    155.9795   1.4341814978e+02   4.0568798941e+01     0.255987    0.1853621 -77.84  0.001171233    1.172    0.147
        16 -11.2505     18.4255    154.0579   1.4427390912e+02   4.1380770388e+01    0.2788873    0.1578442 -49.66  0.001178549    2.112    0.526
        17 -13.6127    160.9415    152.7514   1.0926228526e+02   1.9472715756e+01    0.5625811    0.3976649  40.28  0.001937325    1.333    0.250
        18 -12.4715    174.0503    148.5274   1.0539986730e+02   1.7475071750e+01    0.4375037    0.3520305 -57.55  0.001288995    1.453    0.312
        19 -11.5290    171.3778    137.8907   1.0356991242e+02   2.0117573850e+01    0.2615463    0.2078356  54.72  0.000467323    1.285    0.222
        20 -12.8697    207.7302    224.0688   1.1293414583e+02  -1.2809699265e+00    0.3935155    0.2108431 -37.72  0.001444705    2.232    0.552
        21 -11.6030      7.5219    137.4989   1.4542238472e+02   4.5878635844e+01    0.1791689    0.1473932 -47.57 0.0005327089    1.466    0.318
        22 -11.7824     10.6671    135.6999   1.4448778475e+02   4.6051802488e+01    0.3132415    0.1917975  -9.70  0.001748354    2.859    0.650
        23 -10.5676     24.9189    214.2072   1.4723142562e+02   2.8422175365e+01    0.1342808    0.1010093  69.50  0.000279029    1.061    0.058
        24 -11.5920      5.8702    131.9027   1.4533725456e+02   4.7229883516e+01    0.2167409    0.1378932  49.20 0.0009712912    1.646    0.392
        25 -10.5290     21.0689    209.8949   1.4767850628e+02   2.9633501363e+01    0.1334074   0.09000126 -80.42 0.0003548665    1.378    0.274
        26 -13.6128     11.1899    206.7186   1.4929234475e+02   3.1198938864e+01    0.4213524    0.3684949 -51.38  0.003398922    1.760    0.432
        27 -12.2158     13.9697    198.9675   1.4836166832e+02   3.2435502163e+01     0.343364    0.1317997 -65.32  0.001494429    2.525    0.604
        28 -13.2412    160.8018    128.1068   1.0365825060e+02   2.4441700138e+01    0.5151069    0.4567858 -84.57  0.001703548    1.313    0.238
        29 -13.0104     38.1159    116.4610   1.3474726147e+02   4.8129205720e+01    0.4925877    0.3275163 -14.60  0.001269138    2.298    0.565
        30 -11.1787    167.6155    112.8589   9.8228760480e+01   2.5890858908e+01    0.3742654    0.2853216 -73.00  0.001355533    1.748    0.428
        31 -10.1797     40.2687    244.6790   1.4632814196e+02   2.1273932659e+01    0.1097306   0.05592668  65.76  0.000696637    1.564    0.360
        32 -10.9273    205.4900    110.1845   8.9646483936e+01   1.7354269290e+01    0.3270361    0.2114908  42.78  0.000924085    1.564    0.360
        33 -10.7309    150.9688    241.4973   1.2609766891e+02   5.8418844816e+00    0.2006925    0.1867806 -27.60  0.001378145    1.396    0.284
        34 -12.3297    211.1492    240.0579   1.1481748924e+02  -3.8251707369e+00    0.2222234    0.1650573 -40.16  0.001467341    1.824    0.452
        35 -10.9331    158.8303    240.6445   1.2451792673e+02   4.6686031178e+00    0.1847621    0.1700841  -2.85 0.0005310462    1.340    0.254
        36  -9.8282     21.5791    182.5132   1.4582548793e+02   3.5025083481e+01    0.1159587   0.08514926  77.53 6.856065e-05    1.056    0.053
        37 -10.5124    154.9562    235.0260   1.2451552232e+02   6.1335901404e+00    0.2013012    0.1491561  41.34 0.0007124468    1.057    0.054
        38 -12.9467    203.8160    174.5751   1.0470597443e+02   6.6772415939e+00     0.587056    0.4354914 -71.15  0.002190913    2.358    0.576
        39 -11.5406    141.9535     82.7811   9.5938992358e+01   3.7898500970e+01     0.412665    0.2353126 -23.95  0.001393854    2.294    0.564
        40 -11.9327    207.6905    171.5913   1.0333772802e+02   6.3957476904e+00    0.5062099    0.2541227 -49.42  0.001678494    2.756    0.637
        41 -14.7613    146.7592     64.4287   8.9016640668e+01   4.0020381712e+01     1.373377     1.149762  40.34  0.001438686    1.165    0.142
        42 -10.0197     32.1844    249.5622   1.4791151271e+02   2.1374747670e+01    0.1036343   0.05194538  73.43   0.00051264    1.673    0.402
        43 -13.5191    160.6604     40.5916   7.8264927521e+01   4.0048982945e+01    0.5224353    0.4943825  15.12  0.000832783    1.116    0.104
        44 -11.4733     13.4192     59.8737   1.3262579168e+02   6.2734462307e+01    0.1966994    0.1789319 -46.73 0.0004218888    1.154    0.133
        45 -11.0242     27.2460     58.7128   1.2681747728e+02   6.2013234792e+01    0.2330396    0.1721797  -5.56 0.0008734647    1.519    0.342
        46 -11.0224    167.3039    241.0832   1.2299332675e+02   3.2039834728e+00    0.2304534    0.1390857  42.19 0.0005987046    1.283    0.220
        47 -12.6712    195.7938    173.6259   1.0611843035e+02   8.4234412130e+00    0.6618962      0.42805 -56.04  0.002557752    2.208    0.547
        48 -11.7580    162.9807    237.7616   1.2335952147e+02   4.3909967537e+00    0.3474202    0.2045788  56.29  0.001215953    1.876    0.467
