#   1 NUMBER                 Running object number                                     
#   2 MAG_AUTO               Kron-like elliptical aperture magnitude                    [mag]
#   3 X_IMAGE                Object position along x                                    [pixel]
#   4 Y_IMAGE                Object position along y                                    [pixel]
#   5 X_WORLD                Barycenter position along world x axis                     [deg]
#   6 Y_WORLD                Barycenter position along world y axis                     [deg]
#   7 A_WORLD                Profile RMS along major axis (world units)                 [deg]
#   8 B_WORLD                Profile RMS along minor axis (world units)                 [deg]
#   9 THETA_WORLD            Position angle (CCW/world-x)                               [deg]
#  10 FWHM_WORLD             FWHM assuming a gaussian core                              [deg]
#  11 ELONGATION             A_IMAGE/B_IMAGE                                           
#  12 ELLIPTICITY            1 - B_IMAGE/A_IMAGE                                       
         1 -11.8775    181.9648     49.3647   5.3784408328e+01   3.3364248560e+01    0.9407518    0.6728306 -10.01  0.001519241    1.783    0.439
         2 -12.2327    193.6512     39.5528   4.9191647941e+01   3.1776486623e+01     1.059651     0.913731 -41.85  0.003650786    1.161    0.138
         3 -12.5908    201.7940     30.6130   4.5663948464e+01   3.0897221471e+01     1.022801     0.760442 -21.04  0.001384796    1.543    0.352
         4 -11.7758     42.4949      6.5501   7.4598740028e+01   6.9270513754e+01    0.4808221    0.3786423  16.49   0.00330755    1.160    0.138
         5 -11.8617    225.1234      4.5319   3.6755843955e+01   2.8251876272e+01    0.8489739    0.5222998  80.50  0.004604673    1.502    0.334
         6  -9.5046    194.0434    197.9742   8.7928893000e+01   3.7690575428e+00    0.3556454    0.1817683 -51.92  0.001522392    2.709    0.631
         7  -9.8739    140.1080    249.5939   1.0628978589e+02   4.5411774614e+00    0.2222222    0.1940024  29.40  0.001581175    1.199    0.166
         8 -18.6950      8.7088    148.3300   1.2315985500e+02   4.2714362660e+01     18.72278     3.380192 -76.69   0.05733243    5.189    0.807
         9  -9.3735    112.1619    198.1589   1.0521002690e+02   1.8311364683e+01    0.1924031    0.1479454  70.71  0.001073444    1.324    0.245
        10  -8.8203    102.0460    250.3664   1.1339573857e+02   1.0178807293e+01    0.1700047    0.1210851  51.44 0.0005234574    1.095    0.087
        11  -8.5352     81.9433    194.9420   1.1138341680e+02   2.3733892222e+01    0.2063232    0.1762493  68.28  0.001111049    1.027    0.026
        12 -12.0313     61.8522    188.0924   1.1498499889e+02   2.8029284424e+01    0.7535074    0.6372027 -66.73  0.003834687    1.283    0.221
        13  -8.3320     94.9829    187.9791   1.0757780902e+02   2.3257330849e+01    0.2051745     0.178754  78.89 0.0004723617    1.048    0.046
        14  -8.7266     99.0824    180.9400   1.0562148097e+02   2.4149456993e+01    0.2622718    0.1825439  42.70 0.0008450538    1.389    0.280
        15 -10.7008     74.6963    173.9381   1.1031562444e+02   2.9466615564e+01    0.4211292    0.2947705 -36.53  0.002156944    2.024    0.506
        16 -10.4977     78.8965    169.0619   1.0862872650e+02   2.9984662665e+01    0.3213924    0.2702319 -35.91  0.001126038    1.522    0.343
        17  -8.8406    136.3065    241.6355   1.0604454120e+02   6.3869618527e+00    0.1244786    0.0841632  66.31   0.00070378    1.744    0.426
        18  -8.4516    169.0014    235.9953   9.9050195391e+01   2.0068859466e+00      0.17987    0.1548371  32.78 0.0003684037    1.050    0.047
        19  -7.9241    188.4825    174.4791   8.4501470515e+01   8.9009324667e+00     0.141954    0.1334095  16.23 0.0008098054    1.035    0.034
        20  -9.1126    141.0585    173.9162   9.4722422491e+01   1.8227212699e+01    0.4149964    0.1671493  51.23  0.001171996    2.849    0.649
        21  -9.8307     54.0183    173.2549   1.1506459940e+02   3.2381973063e+01    0.2661694    0.1861608  55.84 0.0008026505    1.353    0.261
        22 -10.5237     96.0333    168.6288   1.0442412392e+02   2.7427744419e+01    0.6919883    0.1624645  45.91  0.002030018    4.318    0.768
        23  -7.3807     72.4305    231.4528   1.1713133376e+02   1.7719127117e+01    0.1214065   0.09113211  65.30 9.167321e-05    1.066    0.062
        24  -8.2950    159.1398    162.8689   8.8427373113e+01   1.6987468842e+01    0.2259891    0.2006398  87.51  0.001191238    1.310    0.237
        25 -10.3779     92.3790    153.8500   1.0283415085e+02   3.1477371628e+01    0.5889697    0.4109378 -27.58   0.00163074    2.117    0.528
        26 -10.6360    162.9071    224.1460   9.8495412925e+01   4.8740769957e+00    0.4006917    0.2693495 -21.77  0.002140033    2.061    0.515
        27  -9.7872    133.8210    143.3955   9.0232236906e+01   2.6331693807e+01     0.602679    0.1866127 -53.75  0.001722869    3.826    0.739
        28  -8.0730    175.1858    149.1551   8.1882967246e+01   1.6474683946e+01    0.2076125    0.1858228 -89.40  0.001071705    1.335    0.251
        29  -7.6968    109.4366    147.5015   9.7263941412e+01   3.0052172159e+01    0.1481559    0.1393921 -86.20 0.0002886888    1.016    0.016
        30  -8.7777     87.2747    146.2334   1.0278876873e+02   3.4115727017e+01    0.2600452    0.1999301  75.99 0.0006840226    1.409    0.290
        31  -9.6674    105.3747    138.5230   9.6483774578e+01   3.2902766327e+01    0.5545807    0.3288549 -31.26  0.002174402    2.489    0.598
        32 -10.5745     93.0273    139.0135   9.9883144858e+01   3.4919006947e+01    0.2838706    0.2576234 -60.31 0.0003404242    1.075    0.070
        33  -8.5409     77.3117    133.6649   1.0313441317e+02   3.8690205077e+01     0.148921    0.1057967  78.90 0.0006436846    1.683    0.406
        34  -9.1528    106.0086    130.8687   9.4660166169e+01   3.4604751748e+01    0.3616461    0.3004332 -61.94  0.001197393    1.170    0.145
        35 -10.1570    113.8658    129.9728   9.2343589746e+01   3.3349935018e+01    0.3981591     0.323574 -53.99  0.001193754    1.194    0.162
        36  -9.7955    133.9778    219.5320   1.0362696108e+02   1.0535646769e+01    0.2890072    0.2138017 -16.92  0.001559116    2.083    0.520
        37  -9.3137    100.8654    125.8373   9.4941367337e+01   3.6728351635e+01    0.2895964    0.2443414  -6.13 0.0007755385    1.494    0.331
        38  -9.3829     73.5327    125.9633   1.0269832838e+02   4.1120506048e+01    0.2280471    0.1295646 -59.50 0.0007043999    1.599    0.374
        39 -10.1755    119.1526    123.8202   8.9480493395e+01   3.3754983680e+01    0.4756175    0.3260742   0.44  0.001846356    2.580    0.612
        40  -8.5307    109.0772    118.9858   9.1050071170e+01   3.6835580576e+01    0.2256773    0.2152984 -47.82 0.0003503381    1.038    0.037
        41  -9.8026    135.0000    110.8955   8.2009054807e+01   3.3375117144e+01    0.6223477   0.08839164 -44.67  0.001248866    6.895    0.855
        42 -10.8947    117.7863    109.8790   8.6328623402e+01   3.7225901910e+01    0.6632266    0.4394822  59.08  0.002852608    1.809    0.447
        43  -8.3151    205.7440    110.3757   6.6271859360e+01   1.7260720511e+01    0.2079901    0.1398557  41.09 0.0006212983    1.612    0.379
        44  -8.3305     61.4572    220.0941   1.1822472910e+02   2.1368948908e+01    0.1703848    0.1058139 -76.31 0.0008617899    1.574    0.365
        45  -8.1340    167.4884    112.5044   7.4611344894e+01   2.5679470993e+01    0.1573354    0.1525882 -60.74 0.0002841365    1.050    0.048
        46  -9.2263     92.9324    217.7279   1.1174705012e+02   1.7418777530e+01    0.2371151    0.1675338 -82.90 0.0007703783    1.493    0.330
        47  -8.2980     73.5053    217.9516   1.1566466359e+02   2.0175676173e+01    0.1738933    0.1116737 -75.06  0.000780622    1.567    0.362
        48  -8.1783    156.3375     81.6841   6.8466578289e+01   3.4414022757e+01    0.1623422    0.1236737 -76.57 0.0007047972    1.699    0.411
        49  -8.5590     56.0433    223.8366   1.1957757328e+02   2.1330107403e+01    0.1742051    0.1179991  66.55  0.000322094    1.204    0.169
        50 -10.1603     42.3243    209.7028   1.2107572471e+02   2.5835166067e+01    0.4487354    0.2620681  74.49  0.001875513    1.533    0.348
        51  -9.4847    153.3013     56.3531   6.1295635258e+01   3.9567906317e+01     0.345184     0.263978 -79.04 0.0008434448    1.637    0.389
        52  -7.8913     93.6669    249.6781   1.1485360329e+02   1.1502949715e+01    0.1029049   0.08953144  12.07 0.0004115378    1.702    0.413
        53  -8.8592    133.6419    246.6850   1.0715278012e+02   5.9996577245e+00    0.1171502   0.08825426  14.58 0.0003641073    1.749    0.428
        54  -9.9432    124.8636    245.6969   1.0868434968e+02   7.5182496272e+00    0.1822505    0.1666576 -42.71  0.001310593    1.414    0.293
        55  -9.2954    156.2236     50.7309   5.8896145169e+01   3.9703951754e+01    0.3084649    0.2476685  89.73 0.0008369226    1.428    0.300
        56  -7.8839    189.6626     14.7019   4.2779281823e+01   3.5770539386e+01      0.13832   0.09642696  42.24 0.0007032892    1.657    0.396
        57  -9.8664    114.4179    208.5097   1.0616548715e+02   1.5855988711e+01    0.3395155    0.2031007 -82.69  0.001588475    2.387    0.581
