#   1 NUMBER                 Running object number                                     
#   2 MAG_AUTO               Kron-like elliptical aperture magnitude                    [mag]
#   3 X_IMAGE                Object position along x                                    [pixel]
#   4 Y_IMAGE                Object position along y                                    [pixel]
#   5 X_WORLD                Barycenter position along world x axis                     [deg]
#   6 Y_WORLD                Barycenter position along world y axis                     [deg]
#   7 A_WORLD                Profile RMS along major axis (world units)                 [deg]
#   8 B_WORLD                Profile RMS along minor axis (world units)                 [deg]
#   9 THETA_WORLD            Position angle (CCW/world-x)                               [deg]
#  10 FWHM_WORLD             FWHM assuming a gaussian core                              [deg]
#  11 ELONGATION             A_IMAGE/B_IMAGE                                           
#  12 ELLIPTICITY            1 - B_IMAGE/A_IMAGE                                       
         1 -14.8115    164.7456     48.3129   7.2751900964e+01   3.7879798592e+01     1.278351     1.080711  -8.36  0.003768916    1.309    0.236
         2 -15.0628    179.6132     18.4715   6.1211292384e+01   3.7931940120e+01     1.662115     1.019837  64.37  0.007117125    1.469    0.319
         3 -13.4170    189.5113     14.9905   5.8767251761e+01   3.5797152539e+01    0.5083427    0.2901062  65.32  0.001650104    1.560    0.359
         4 -11.2227    163.3400    244.5154   1.1582039371e+02   2.9318673882e+00     0.244785     0.168292  34.95 0.0009546241    1.405    0.288
         5 -20.1500     72.3208    174.1052   1.2398013046e+02   3.0560083471e+01     15.20127     5.958372 -66.03    0.0683948    2.443    0.591
         6 -12.2679    162.5329    180.8803   1.0616813370e+02   1.3590255715e+01    0.3193327     0.227543 -79.20  0.001543585    1.961    0.490
         7 -13.5945    188.0544    175.5809   9.9981313644e+01   9.3677480861e+00     0.748151    0.4547847 -55.22  0.001610614    2.082    0.520
         8 -11.8075    186.9060    166.0278   9.8298839206e+01   1.1319248119e+01    0.4342881    0.3040323 -57.40  0.001655827    1.736    0.424
         9 -11.7277    127.5303    228.0101   1.2009285572e+02   1.1607562344e+01    0.3432301    0.2363809  34.54  0.002030243    1.657    0.396
        10 -10.1995    130.9067    231.2041   1.1987697622e+02   1.0510284999e+01    0.1435737     0.128068  45.71 0.0004073652    1.252    0.202
        11 -12.0893    194.5082    172.1967   9.8021478291e+01   8.6285159549e+00    0.3465552    0.2756598 -56.81  0.001159622    1.493    0.330
        12 -12.5263    176.9194    169.5926   1.0106091607e+02   1.2757588508e+01     0.276063    0.2173269 -53.80 0.0009629805    1.413    0.292
        13 -12.7946    207.7502    225.8719   1.0519993769e+02  -2.2738308436e+00    0.2730748    0.1768225 -32.45  0.001404863    1.836    0.455
        14 -11.0439     98.1654    250.1498   1.2749463688e+02   1.2624018882e+01    0.1418867    0.1223344  75.56  0.000528974    1.242    0.195
        15 -11.2822    146.3181    224.2985   1.1619102916e+02   8.9932926070e+00    0.3525626    0.1896135  48.88  0.001857459    1.540    0.351
        16 -10.8227     25.1972    165.1948   1.3252246351e+02   3.7889902375e+01    0.1774198    0.1585907   9.94 0.0009353026    1.731    0.422
        17 -10.2493     14.3933    162.3232   1.3437117909e+02   3.9458649304e+01    0.1455445    0.0815504 -83.81 0.0009205661    1.426    0.299
        18 -11.2784     22.9694    156.0829   1.3207524770e+02   3.9984198061e+01    0.1981266    0.1460058  55.70 0.0004634294    1.410    0.291
        19 -10.4802     17.4386    158.8563   1.3345774859e+02   3.9904351788e+01    0.1699217    0.1334877 -79.26 0.0007641949    1.122    0.109
        20 -11.4236     17.9537    154.6561   1.3295426873e+02   4.0726610077e+01    0.3859263    0.1684434 -81.71  0.001749648    2.056    0.514
        21 -12.0398    188.2983    154.0604   9.5498724587e+01   1.3221203424e+01    0.7035937    0.3649072  40.45   0.00289525    1.918    0.478
        22 -12.5029    163.7726    152.0690   1.0025000395e+02   1.8893867334e+01    0.3357562    0.3050442  48.35 0.0008661486    1.049    0.047
        23 -10.8272      7.4517    149.5493   1.3459959387e+02   4.2639736452e+01    0.2490543      0.11865 -48.76  0.001107138    2.560    0.609
        24 -11.4965    174.3637    148.7500   9.7260847965e+01   1.7264158167e+01    0.3402306    0.2712114 -81.30   0.00098641    1.597    0.374
        25 -10.3715    127.1785    222.1586   1.1942902352e+02   1.2661429480e+01    0.2489928    0.1364848 -59.43  0.001335188    2.097    0.523
        26 -10.7641    140.1198    241.1141   1.1944931411e+02   7.3837779509e+00    0.2011801    0.1554401 -58.34  0.001352126    1.586    0.370
        27 -10.6381    217.6423    217.8336   1.0208892322e+02  -2.9483895234e+00    0.1565263    0.1188183 -44.65 0.0006210288    1.664    0.399
        28 -12.8466    160.4022    127.7797   9.5557402686e+01   2.4508749871e+01    0.4603789    0.3694472 -59.52  0.001433434    1.348    0.258
        29 -10.4082     24.1546    216.3113   1.3677555001e+02   2.8030301600e+01    0.1294805    0.1006302  74.59 0.0005152338    1.172    0.147
        30 -13.0680     11.9808    205.9834   1.3806119504e+02   3.1152117155e+01    0.3857071    0.2389867  32.72  0.002724628    2.240    0.554
        31 -11.6708    135.2310    238.5646   1.1999915119e+02   8.6001901660e+00    0.2838621    0.2389236  82.43  0.001217616    1.238    0.192
        32 -11.0832    231.2896    113.7036   7.7916965657e+01   1.0782481781e+01    0.2646266    0.2435767  19.73 0.0007332026    1.117    0.105
        33 -11.1180    167.9889    113.0934   9.0259309435e+01   2.5720063733e+01    0.4063136    0.2781811  89.85  0.001422309    2.400    0.583
        34 -10.4695    116.7220    236.4637   1.2299003304e+02   1.1974743115e+01    0.1493977    0.1016787 -66.04 0.0002274731    1.672    0.402
        35 -10.9964    151.5612    234.4731   1.1659430850e+02   6.4563366698e+00     0.345118    0.1861876  70.36  0.001506566    3.151    0.683
        36 -10.9167    134.1451    197.0281   1.1461615291e+02   1.5966126450e+01    0.2521288    0.1815606 -64.82 0.0006761943    1.525    0.344
        37 -10.9222    205.3280    110.2653   8.1809573693e+01   1.7419047412e+01     0.328977    0.2063034  46.49  0.001083508    1.586    0.369
        38 -11.4533    219.4661    195.0110   9.7670637857e+01  -3.6403378193e-02    0.1875169    0.1306723 -34.58 0.0005948917    1.571    0.363
        39 -11.4641     13.5319    100.8591   1.2751995580e+02   5.2355836941e+01    0.2866835    0.1724694  22.34  0.001851496    2.183    0.542
        40 -11.3800     32.7500     99.5131   1.2215922370e+02   5.1148284650e+01    0.2480675    0.1817044  58.11 0.0008011255    1.665    0.399
        41 -10.3135    145.5088     82.4839   8.7206127261e+01   3.6796671876e+01    0.1499718    0.1461367  15.87 0.0001350869    1.014    0.014
        42 -11.6301    141.6371    188.5483   1.1177291752e+02   1.6189826110e+01    0.2422382    0.1690068 -59.00 0.0007320055    1.572    0.364
        43 -10.3296    145.1356    232.2231   1.1745389388e+02   7.9205613918e+00    0.2353866   0.07987753 -46.95 0.0009812678    3.784    0.736
        44 -11.9675    164.8258    187.0908   1.0681448398e+02   1.1993641566e+01    0.2161226    0.1804357  72.97 0.0007558139    1.298    0.230
        45 -14.2606    153.0902     62.3891   7.9505492694e+01   3.8547796223e+01     1.228815     0.846957  29.22 0.0009542247    1.673    0.402
        46 -11.1835    127.9246    246.5067   1.2217187608e+02   8.5646412672e+00    0.1466422    0.1268215  74.71  0.001072177    1.182    0.154
        47 -13.1995    169.5256     39.8903   6.9279649756e+01   3.7865062021e+01    0.4345192    0.3902519  52.38 0.0008562841    1.043    0.041
        48 -11.0612     13.5042     59.9707   1.2007136193e+02   6.0614977990e+01    0.1618301    0.1507552  67.14 0.0005037081    1.429    0.300
        49 -10.1982    125.5465    232.5009   1.2098741868e+02   1.1190401320e+01    0.1405415    0.1088352 -86.85  0.000248749    1.390    0.281
        50 -10.5717     29.9579    246.0603   1.3772879000e+02   2.2214433068e+01    0.1547541    0.1002474  89.28  0.001218736    1.258    0.205
