#   1 NUMBER                 Running object number                                     
#   2 MAG_AUTO               Kron-like elliptical aperture magnitude                    [mag]
#   3 X_IMAGE                Object position along x                                    [pixel]
#   4 Y_IMAGE                Object position along y                                    [pixel]
#   5 X_WORLD                Barycenter position along world x axis                     [deg]
#   6 Y_WORLD                Barycenter position along world y axis                     [deg]
#   7 A_WORLD                Profile RMS along major axis (world units)                 [deg]
#   8 B_WORLD                Profile RMS along minor axis (world units)                 [deg]
#   9 THETA_WORLD            Position angle (CCW/world-x)                               [deg]
#  10 FWHM_WORLD             FWHM assuming a gaussian core                              [deg]
#  11 ELONGATION             A_IMAGE/B_IMAGE                                           
#  12 ELLIPTICITY            1 - B_IMAGE/A_IMAGE                                       
         1 -13.7444    149.1743     84.5487   1.6045028198e+01   3.5729597370e+01     1.347299    0.6945068 -38.99  0.005674358    1.838    0.456
         2 -12.2163    224.4359     59.4472   3.5898652619e+02   2.4232933583e+01     1.347144    0.2692555 -44.70  0.004793644    3.700    0.730
         3 -14.5127    243.7364     61.9156   3.5782468572e+02   2.0560329535e+01     1.316586    0.8953387 -31.12    0.0086576    1.333    0.250
         4 -14.6836    240.4354     45.3122   3.5460748539e+02   2.3195118944e+01     1.517295      1.17768 -75.93   0.01097876    1.328    0.247
         5 -14.1237    176.8332     16.6255   3.5270189555e+02   3.9232950083e+01    0.6361392    0.5191197 -81.41  0.004101865    1.120    0.107
         6 -15.2956    188.1654     33.8681   3.5627493355e+02   3.4762309058e+01     2.358313     1.279734 -52.67   0.01227012    1.624    0.384
         7 -13.2044    167.7028     15.7645   3.5326045210e+02   4.1404984032e+01    0.4324481    0.3123418  77.14  0.001403764    1.347    0.258
         8 -14.2455    157.8685     14.5504   3.5383637585e+02   4.3830649644e+01     1.010686    0.7870333  34.20  0.005909873    1.695    0.410
         9 -14.7018    150.3556      4.0127   3.5131314911e+02   4.6629642070e+01     2.016667    0.6125559  76.49  0.007800783    3.044    0.671
        10 -11.9982      2.0034      4.4709   4.5148624050e+01   7.9118946562e+01    0.4866924     0.164105 -44.30  0.002149722    2.643    0.622
        11 -13.4611      7.5141      2.4892   3.7869559851e+01   7.8850497613e+01    0.6276432    0.5429291  85.17  0.003971378    1.989    0.497
        12 -11.4867    234.5901     13.0803   3.4816116238e+02   2.7860833411e+01    0.2415185    0.1801824 -19.75  0.001678891    1.646    0.392
        13 -12.4281    227.8711      3.4842   3.4642719967e+02   3.0055636163e+01    0.6356656    0.2582459  82.89  0.003457279    2.564    0.610
        14 -11.2359     60.7661      2.6161   5.9949497450e+00   6.8751625472e+01    0.2337174     0.161589   3.51  0.001270232    1.695    0.410
        15 -12.8101    227.6878     12.5575   3.4838925453e+02   2.9182142507e+01    0.6509346     0.286322 -49.36  0.003711346    1.678    0.404
        16 -11.2922     82.6056    202.7963   5.7418177006e+01   2.1181560970e+01    0.1802905    0.1292908 -84.88   0.00095554    1.700    0.412
        17 -10.1846    202.2883    196.6502   3.0227208055e+01   6.4585106357e+00    0.1037289    0.0950917 -53.77 0.0005864413    1.663    0.399
        18 -12.4848    248.4312    187.9446   2.1470871634e+01   2.4359925159e+00    0.2789333    0.1775229 -35.56  0.001919213    1.415    0.293
        19 -12.0609    192.9707    186.8606   3.0211243092e+01   9.1771076413e+00    0.3987295    0.2705225 -69.06  0.001794513    3.724    0.731
        20 -11.2383    243.9842    180.7268   2.0874131357e+01   3.8842420578e+00    0.3231523    0.2039786 -13.29  0.002029654    1.428    0.299
        21 -12.7915    245.4709    175.1393   1.9697308987e+01   4.4816048489e+00    0.5214201     0.370597 -51.15  0.003406523    2.039    0.510
        22 -11.4944    216.5508    174.3826   2.3913526025e+01   8.0743193789e+00     0.343463    0.1887268 -38.04  0.001938076    1.575    0.365
        23 -12.5012    190.3300    177.1533   2.8956122414e+01   1.1134146733e+01    0.5852002    0.3816685  28.35  0.003349451    1.584    0.369
        24 -11.1212    140.7720    162.7660   3.6574246487e+01   2.1370308241e+01    0.2273091    0.1052879  45.62 0.0008893858    2.470    0.595
        25 -11.5583     15.5620    161.4274   7.2246847509e+01   3.8478403310e+01    0.3728095    0.1298813  65.50  0.001241489    3.557    0.719
        26 -11.5010    215.6351    159.7084   2.1334785870e+01   1.0469144241e+01    0.2601245    0.1945524 -23.47  0.001663587    1.102    0.092
        27 -13.4776    183.0440    142.7577   2.3548815943e+01   1.8263829358e+01    0.4323314     0.344128 -74.33  0.002348207    1.845    0.458
        28 -13.3638    173.9664    139.9850   2.4692537954e+01   2.0305540242e+01    0.6838581    0.3357754 -39.71  0.003030356    1.854    0.461
        29 -10.9228    167.1036    138.8649   2.5821631654e+01   2.1709300651e+01    0.2166296    0.1929621 -60.81  0.001242534    1.281    0.219
        30 -13.7950    183.2219    134.6347   2.1777557477e+01   1.9704549319e+01    0.6001291    0.4166238 -52.13  0.003162183    1.537    0.349
        31 -13.4589    186.5726    128.6788   1.9868892170e+01   2.0197518071e+01    0.6919746    0.4243599 -44.76  0.003508879    1.496    0.332
        32 -14.4494    246.8632    111.4661   7.6108855624e+00   1.3311886262e+01     1.941261    0.8214633 -34.20   0.01003389    1.844    0.458
        33 -12.5861    189.9204    110.5845   1.5204857006e+01   2.2781374584e+01     1.261003    0.6538921 -44.63  0.005901803    1.723    0.420
        34 -12.9430    200.8901    116.2075   1.4720904378e+01   1.9869523615e+01    0.7484031    0.5572324 -23.81   0.00431281    1.320    0.243
        35 -13.5816    201.1454    105.1289   1.2193283707e+01   2.1662037551e+01     1.339379    0.6947008 -41.07  0.006552091    1.622    0.384
        36 -14.1587    153.0317    111.6495   2.2416643138e+01   2.9706131137e+01    0.9816837    0.8260928 -72.70  0.005202745    1.370    0.270
        37 -13.2033    166.4386    119.8522   2.1638543447e+01   2.5489720333e+01    0.5118871    0.4852729  18.15  0.003037291    1.135    0.119
        38 -11.9635    135.3873    114.7666   2.7241729105e+01   3.2609526937e+01    0.6169418    0.3081117 -64.92  0.001823709    4.241    0.764
        39 -12.4009     18.3264    115.7130   6.6983813523e+01   5.0672096600e+01    0.4861094    0.2102371 -73.82  0.001931496    2.098    0.523
        40 -13.5415    240.3275     92.5251   4.4995253399e+00   1.6975474587e+01     1.117047    0.4859774 -36.53  0.005788115    1.756    0.430
        41 -11.0694    225.1584    107.2753   9.3554081287e+00   1.7232580553e+01    0.3087069    0.1894317 -70.20  0.001488212    2.860    0.650
        42 -10.4674     92.3299    108.3200   3.7731939965e+01   4.2566546445e+01    0.1605472    0.1233147 -14.78 0.0007048283    1.690    0.408
        43 -14.0033    142.5463    100.0924   2.1738725460e+01   3.4171917287e+01    0.9714215    0.4510938 -40.14  0.003778756    2.076    0.518
        44 -10.2100    183.5452    245.4510   4.1015962368e+01   1.5237867489e+00    0.1126034   0.08462454   2.26 0.0002497493    1.002    0.002
        45 -11.0660     81.1815    239.0094   6.1463243241e+01   1.4075532496e+01    0.2339873    0.1552776  27.94  0.001408393    1.253    0.202
        46 -13.9676    246.1378     77.9243   9.1874962835e-01   1.8067089605e+01    0.9077526    0.7481303 -49.79   0.00666529    1.128    0.114
        47 -13.1284    160.3759    235.5269   4.4081963567e+01   5.4771432962e+00    0.4077347    0.3529668  65.01  0.002764158    1.923    0.480
        48 -10.6561     61.6749    234.3376   6.5522195048e+01   1.7098002379e+01    0.1329535   0.07497182  52.58 0.0007051369    1.722    0.419
        49 -12.5993    161.5481    100.3423   1.7803088467e+01   3.0156787009e+01    0.4565918    0.3092094 -72.72  0.002042422    2.111    0.526
        50 -12.1353      8.0291     83.0000   6.7029741801e+01   6.0338253764e+01    0.3941328    0.2635579  27.71  0.001785752    1.614    0.380
        51 -12.1503     26.9907     81.2905   5.7285257708e+01   5.9325299987e+01    0.3608595    0.3466223  77.89  0.002103041    1.105    0.095
        52 -10.8536    227.1040     73.6765   1.8729106014e+00   2.1817177471e+01    0.2279715    0.1337224 -44.33  0.001047111    1.349    0.258
        53 -12.2380    213.7860     67.3894   1.8611180342e+00   2.5112835331e+01    0.4037299    0.2441394 -31.12  0.002221718    1.532    0.347
        54 -13.9086    195.0441     61.5570   2.5952713342e+00   2.9619574620e+01      1.80881    0.8387255 -52.37  0.008173472    2.113    0.527
        55 -11.8071    238.1694    231.1235   2.9804388833e+01  -2.0105586269e+00    0.3094504    0.1271622 -33.00   0.00185468    2.024    0.506
        56 -12.9172    229.5763    225.3770   3.0275909760e+01  -4.9777091388e-01    0.4313804    0.0874459 -39.40   0.00172616    4.469    0.776
        57 -11.2319    213.0938     56.9014   3.5949799569e+02   2.6691116239e+01    0.2793673    0.1719258  89.33  0.001533412    1.993    0.498
        58 -11.9092    176.0118     46.8124   1.0695160881e+00   3.5759536482e+01    0.5029715    0.2707198 -57.99   0.00236235    1.908    0.476
        59 -12.9260     77.9041     88.7630   3.7281789339e+01   5.0001163346e+01    0.5322959    0.3296127  46.97  0.002282196    1.692    0.409
        60 -13.1725     56.1155     40.9925   2.8634593105e+01   6.4429060862e+01    0.5826315    0.3079378  29.18  0.002363264    2.371    0.578
        61 -11.6912      4.3307     33.4797   5.7730867729e+01   7.2985152808e+01    0.2359685    0.1109279 -63.52  0.001093527    2.005    0.501
        62 -12.0991     82.7351     31.5735   1.4003969808e+01   6.0229358547e+01    0.2536399    0.1705886 -55.78  0.001210584    1.779    0.438
        63 -11.0941    250.6348     26.6890   3.5014643636e+02   2.3612058585e+01    0.3723008   0.09824605 -28.51  0.001478274    3.964    0.748
        64 -11.0791    205.2042     23.4372   3.5223626257e+02   3.2401082994e+01    0.2107143    0.1909748  -0.49   0.00135767    1.502    0.334
        65 -10.8638    223.3577     21.6563   3.5062521171e+02   2.9029663328e+01    0.2768053    0.1243411 -64.84  0.001435657    2.186    0.543
        66 -10.4225    104.6692    225.3053   5.4712043099e+01   1.3884996330e+01    0.1286469   0.08679438  51.25 0.0007037607    1.658    0.397
        67 -12.0901    201.3009    222.0220   3.4468069837e+01   2.8602526581e+00    0.1653304    0.1250683 -12.78  0.001141824    1.075    0.069
        68 -12.3893    195.0828    219.3243   3.5160764897e+01   3.9335671246e+00    0.2088533    0.1360101 -22.05  0.001335218    1.347    0.258
        69 -10.7574     98.7420    220.0169   5.5477592130e+01   1.5622277564e+01    0.1543975    0.1128664 -60.02 0.0008960959    1.580    0.367
        70 -13.4998    240.7703    216.7014   2.7228846723e+01  -4.9125048665e-01     0.346316    0.3084002  -1.03  0.002867124    1.572    0.364
        71 -11.5428    111.4984    213.4946   5.1689457208e+01   1.5285300452e+01    0.1302644    0.1143648  22.67 0.0001404101    1.021    0.021
        72 -12.5431    243.8804    204.6322   2.4864202442e+01   7.3086824462e-01     0.448649    0.2798264 -31.88  0.003145938    1.372    0.271
        73 -11.3285    150.2619    205.0033   4.1754958304e+01   1.1769174614e+01     0.184066    0.1589791 -12.29  0.001174772    1.080    0.074
