#   1 NUMBER                 Running object number                                     
#   2 MAG_AUTO               Kron-like elliptical aperture magnitude                    [mag]
#   3 X_IMAGE                Object position along x                                    [pixel]
#   4 Y_IMAGE                Object position along y                                    [pixel]
#   5 X_WORLD                Barycenter position along world x axis                     [deg]
#   6 Y_WORLD                Barycenter position along world y axis                     [deg]
#   7 A_WORLD                Profile RMS along major axis (world units)                 [deg]
#   8 B_WORLD                Profile RMS along minor axis (world units)                 [deg]
#   9 THETA_WORLD            Position angle (CCW/world-x)                               [deg]
#  10 FWHM_WORLD             FWHM assuming a gaussian core                              [deg]
#  11 ELONGATION             A_IMAGE/B_IMAGE                                           
#  12 ELLIPTICITY            1 - B_IMAGE/A_IMAGE                                       
         1 -15.0081      7.4633    151.6692   1.4178940306e+02   4.1795620499e+01     8.970119       3.2489  66.21    0.0080945    2.722    0.633
         2 -11.7276      2.7434     46.3586   1.3226209908e+02   6.4837528388e+01    0.4556626    0.1794644 -73.80  0.002258298    2.118    0.528
         3 -13.3849    195.2494     29.2808   6.8284484488e+01   3.2629072194e+01     1.462621     1.398341   7.33  0.006465982    1.015    0.015
         4 -13.5208    210.2412      9.5162   6.0276005811e+01   3.0801343514e+01       1.6072     1.001107  35.29  0.007543057    1.799    0.444
         5 -12.5771      4.1861      7.0136   1.2072302570e+02   7.3074600275e+01    0.8732379    0.3904136 -52.18  0.004962349    1.580    0.367
         6 -10.9518     21.4994    244.3594   1.4349680969e+02   2.4793118793e+01    0.3379172    0.1035068  60.21  0.002115753    2.460    0.594
         7 -11.5710    139.3994    248.7400   1.2551073912e+02   1.0527023323e+01    0.3092156    0.2355552  57.81  0.002525949    1.302    0.232
         8 -10.6691    124.6049    250.0083   1.2798203024e+02   1.2344445223e+01    0.2573529   0.09907217  37.73  0.001474953    2.101    0.524
         9 -10.5225    109.1169    249.6520   1.3040455894e+02   1.4387534419e+01    0.3400492    0.1022893  53.01  0.001593612    3.498    0.714
        10 -10.6847     98.3365    248.3047   1.3200163665e+02   1.5911038204e+01    0.1858316    0.1724433  36.58  0.001714871    1.430    0.301
        11 -10.9605    101.2274    246.0256   1.3137228930e+02   1.5850821475e+01    0.2491709    0.1450048 -70.08  0.001826939    2.201    0.546
        12 -10.3314     29.1169    249.8761   1.4259294479e+02   2.3301451318e+01    0.2310586    0.1660309  79.09  0.001475274    1.271    0.213
        13 -10.9758     33.8547    249.3626   1.4188505149e+02   2.2915976714e+01    0.3517197    0.1291038  45.52  0.002463897    1.836    0.455
        14 -11.2976     35.0991    244.3095   1.4149416778e+02   2.3505311374e+01    0.3386478    0.2408027  31.11  0.002889302    1.830    0.454
        15 -11.0364     14.2086    249.9414   1.4472314573e+02   2.4668226158e+01    0.3394275    0.1369708  44.74  0.002588601    1.731    0.422
        16 -11.6187     12.7816    240.8967   1.4464752023e+02   2.6077276452e+01    0.3606879    0.1334562  86.36  0.002418087    2.580    0.612
        17 -10.9044      2.9912    248.3310   1.4624712670e+02   2.5866773573e+01    0.3158855    0.1870005  68.47  0.002920077    1.166    0.142
        18 -10.6525      5.6036    241.1234   1.4568758066e+02   2.6667813883e+01    0.1446379    0.1255437  62.44 0.0003319657    1.478    0.324
        19 -10.0264      1.6535    240.3480   1.4622995185e+02   2.7112946529e+01    0.2593565   0.08863781 -73.13  0.001770303    2.992    0.666
        20  -9.8636    156.5018    249.4984   1.2285742175e+02   8.1058989491e+00    0.1046458   0.07521543  38.94 0.0005498029    1.025    0.025
        21  -9.6024    128.2944    244.6458   1.2691333230e+02   1.2518281006e+01    0.1021542   0.06390702  61.63 0.0007031957    1.688    0.407
        22 -10.2308    183.2209    238.6494   1.1734904103e+02   5.5255886548e+00    0.2011842    0.1047513  34.19 0.0007090737    1.486    0.327
        23 -11.3709    247.0598    249.3241   1.0883349317e+02  -4.2901070422e+00    0.5698009    0.1404908  36.40  0.002796337    2.867    0.651
        24  -9.8671    173.8076    222.8946   1.1694623697e+02   8.6970213937e+00    0.2609563    0.1276761  44.04  0.001516309    1.641    0.390
        25  -9.5254     92.6515    223.2987   1.3096496892e+02   2.0118851178e+01    0.1110204   0.06152565  60.63 0.0007036212    1.684    0.406
        26 -12.6504      9.0826    206.9641   1.4405158474e+02   3.1638092315e+01    0.6512018    0.4102506  38.19  0.003939125    1.638    0.389
        27  -9.0587     91.9235    214.1725   1.3030412416e+02   2.1600540830e+01    0.2251886   0.09296571  56.75   0.00116554    2.480    0.597
        28  -8.5163    152.5042    212.9643   1.1938247830e+02   1.3192788456e+01     0.130451    0.1151004 -48.98  0.000304427    1.435    0.303
        29 -12.6620     34.8034    232.9886   1.4104526463e+02   2.5184260785e+01    0.2363834    0.1970347  75.14 0.0007870675    1.292    0.226
        30 -11.5173     61.3286    198.9102   1.3453737274e+02   2.7830293686e+01    0.2165363     0.197796 -61.03 0.0005786552    1.480    0.325
        31 -10.8039     17.2500    198.2807   1.4232569278e+02   3.2390562096e+01    0.2251908    0.1259014  55.70 0.0006462688    1.366    0.268
        32  -9.8290    192.7651    194.5532   1.0956598935e+02   9.2117380649e+00    0.4818795    0.2591213 -59.53  0.001785092    5.956    0.832
        33  -8.9926     50.1298    196.6535   1.3641363635e+02   2.9460863198e+01    0.1374359     0.108246  59.82  0.000487625    1.100    0.091
        34 -10.0692     54.4238    229.3706   1.3775798956e+02   2.3702533977e+01    0.1907134     0.120425  59.87 0.0007304573    1.179    0.152
        35 -11.8147     67.5186    190.6157   1.3270516228e+02   2.8549869716e+01    0.2176129    0.2031693  87.20 0.0005305076    1.279    0.218
        36 -11.5732      6.6289    189.2435   1.4377026137e+02   3.4851825092e+01     0.313522    0.2361504  72.52  0.002706891    1.078    0.072
        37 -10.8133     77.6372    177.8017   1.2949949107e+02   2.9617235322e+01    0.2021189     0.176562  78.20 0.0004081207    1.085    0.078
        38 -13.0985     64.3395    176.0317   1.3200517325e+02   3.1576336596e+01     0.391139    0.2416352 -46.92  0.001478732    2.229    0.551
        39  -9.7066     98.2655    174.8170   1.2495288001e+02   2.7388115123e+01    0.2539633    0.1832228 -85.21 0.0009234967    1.526    0.344
        40 -11.7533     85.1410    168.4126   1.2690290994e+02   3.0392615013e+01    0.5230972    0.4914428  63.70  0.003828762    1.159    0.137
        41  -9.9001     97.7980    152.4722   1.2202610070e+02   3.1696850592e+01    0.2423636    0.2204874  56.36 0.0008051841    1.071    0.066
        42 -11.9396     86.3283    151.7260   1.2450101264e+02   3.3485732273e+01    0.2427533    0.2201824 -49.98 0.0004951332    1.283    0.221
        43 -12.3171     67.1022    143.7953   1.2785464367e+02   3.7616968558e+01    0.6936731    0.4171837  65.67  0.003375402    1.788    0.441
        44  -8.3910    192.2039    144.0013   1.0032413972e+02   1.6407519484e+01    0.1662952    0.1070252 -32.10  0.000397673    1.621    0.383
        45  -9.6774    109.3179    137.5109   1.1694093465e+02   3.2901664611e+01    0.3601926    0.2347204 -21.65  0.001519003    2.698    0.629
        46 -10.3056     96.6472    134.7243   1.1947540885e+02   3.5460310956e+01     0.221803    0.2110837 -29.88 0.0006666371    1.218    0.179
        47  -9.0457    100.7624    148.2229   1.2071075391e+02   3.2095072182e+01    0.1590887    0.1479404 -23.61 0.0004055317    1.310    0.236
        48 -10.2333     32.7183    132.3558   1.3467339506e+02   4.3698649010e+01    0.1919663    0.1073648  66.03  0.001100407    1.797    0.444
        49  -9.2968     90.1799    130.8859   1.2039760639e+02   3.7227121433e+01    0.1930041    0.1574654  78.31 0.0004586276    1.259    0.206
        50  -8.8043     79.0841    131.4760   1.2322909778e+02   3.8666762370e+01     0.176764    0.1181343  44.35 0.0004067538    1.495    0.331
        51 -14.2533     40.2928    225.6161   1.3982691108e+02   2.5753685811e+01     1.358171     1.137134  -6.28  0.006445194    2.346    0.574
        52  -9.0121    106.6447    124.0076   1.1506085479e+02   3.6107371961e+01     0.176974    0.1593124 -57.85 0.0004110377    1.103    0.094
        53  -9.7382    167.6101    112.7993   9.8196620980e+01   2.6585070705e+01    0.2637815    0.2333761  71.15 0.0008721631    1.359    0.264
        54  -9.3554    203.2003    111.5854   9.0738849065e+01   1.9111485768e+01    0.2034368    0.1256327  35.67 0.0004566415    1.609    0.379
        55 -10.3724     56.5385    223.5696   1.3706719595e+02   2.4356782344e+01    0.2712593    0.2189489  35.86  0.001825998    1.505    0.335
        56  -8.6371     38.5743     94.8013   1.2833934738e+02   5.1456961969e+01    0.1662702    0.1029198 -80.10 0.0003349017    1.524    0.344
        57  -9.7924    241.3341     90.6623   7.9047590990e+01   1.3854884114e+01    0.1403989    0.1050785 -53.34 0.0007051848    1.746    0.427
        58  -9.2641    157.4967     76.5245   9.0468573080e+01   3.5259243711e+01    0.1530958    0.1461101  -4.46 0.0002405178    1.022    0.022
        59  -9.7331     43.3968     67.8912   1.2156164061e+02   5.7097912556e+01    0.2427518    0.1636567  50.69  0.000814675    1.823    0.451
        60 -12.2117      2.1592     59.4451   1.3468504502e+02   6.1959145644e+01     1.076886    0.1288747 -73.20  0.002832608    7.352    0.864
        61  -9.5177     81.8033    248.9638   1.3463266288e+02   1.7815163900e+01    0.1591701   0.08250568  67.60  0.001087107    1.994    0.498
        62  -8.6822     36.9531     64.4671   1.2305032644e+02   5.8483044277e+01    0.1574878    0.1261164  26.47 0.0005657615    1.511    0.338
        63 -11.1152     15.1305     55.4478   1.2917679717e+02   6.2165870981e+01    0.2394996    0.2032119  74.32 0.0006736573    1.366    0.268
        64 -10.6622     46.6373    248.7048   1.3997167560e+02   2.1726771367e+01    0.2083845    0.1218312  58.36  0.001067758    1.201    0.167
        65 -10.9489    198.2068    244.7153   1.1569534374e+02   2.7713607710e+00    0.1926106    0.1470368 -57.17  0.001424722    2.367    0.577
