#   1 NUMBER                 Running object number                                     
#   2 MAG_AUTO               Kron-like elliptical aperture magnitude                    [mag]
#   3 X_IMAGE                Object position along x                                    [pixel]
#   4 Y_IMAGE                Object position along y                                    [pixel]
#   5 X_WORLD                Barycenter position along world x axis                     [deg]
#   6 Y_WORLD                Barycenter position along world y axis                     [deg]
#   7 A_WORLD                Profile RMS along major axis (world units)                 [deg]
#   8 B_WORLD                Profile RMS along minor axis (world units)                 [deg]
#   9 THETA_WORLD            Position angle (CCW/world-x)                               [deg]
#  10 FWHM_WORLD             FWHM assuming a gaussian core                              [deg]
#  11 ELONGATION             A_IMAGE/B_IMAGE                                           
#  12 ELLIPTICITY            1 - B_IMAGE/A_IMAGE                                       
         1 -12.0762     67.7483     25.0649   3.7381592378e+01   6.3280328295e+01    0.4862953    0.1773528 -36.19  0.001940995    2.931    0.659
         2 -13.1477     84.6693     24.1817   3.1452692154e+01   5.9693130242e+01    0.4805839    0.3069721 -81.78  0.002060061    2.860    0.650
         3 -11.5655     66.6319     15.5434   3.3331585304e+01   6.4671642507e+01    0.3358172    0.1257894 -27.51  0.001374251    2.983    0.665
         4 -11.7493     99.3794     11.0677   2.2396838467e+01   5.7640727938e+01    0.3345537    0.1857296 -53.57   0.00157163    2.315    0.568
         5 -11.2808     54.9619     11.1159   3.5477835129e+01   6.7590150884e+01    0.2036083    0.1659826  34.89 0.0009303876    1.044    0.042
         6 -12.4149     82.5107      8.6080   2.5330865722e+01   6.1835978182e+01    0.3032965    0.1833637  42.90  0.001598907    1.519    0.342
         7 -14.1084     89.8601      3.8901   2.1532244229e+01   6.0529914950e+01     0.411391    0.3380616 -69.32  0.001818163    1.412    0.292
         8 -11.8678    152.8256      5.7428   1.2524498630e+01   4.5228950105e+01    0.1885596    0.1681877  85.29 0.0003855725    1.081    0.075
         9 -12.4749    100.5818      2.4615   1.8773233637e+01   5.8091887635e+01    0.3573315    0.2020366  65.07  0.001865578    1.488    0.328
        10 -10.6610     49.7811      1.3277   3.2241276100e+01   6.9635138773e+01    0.1766875   0.09220289  45.51 0.0002522292    1.584    0.369
        11 -11.9472    107.2792    240.0043   7.6398452878e+01   1.0703089449e+01    0.2437544    0.1970316  14.22 0.0006011685    1.163    0.140
        12 -12.6493    245.6804    249.5700   5.0808485607e+01  -6.7916057765e+00    0.2733093    0.1508927   5.33  0.001845905    1.569    0.363
        13 -11.8438    236.8241    249.0430   5.2152425483e+01  -5.8974632127e+00    0.2526758    0.1544267 -21.15  0.001462221    1.329    0.247
        14 -10.0713    179.5244    250.5140   6.2581822743e+01   1.4063483826e-02    0.1186187    0.0909875   7.24 0.0001102796    1.008    0.008
        15 -10.9252    125.0209    249.9430   7.3659953187e+01   6.7378085757e+00    0.1914834    0.1318732  -6.53  0.001062567    1.679    0.404
        16 -12.2812    114.9802    249.8605   7.5813507319e+01   8.0027499258e+00    0.2095552    0.1832319   3.09 0.0004568167    1.162    0.139
        17 -11.6389     98.5222    250.5061   7.9466258363e+01   9.9213677907e+00    0.2233797    0.1635557  60.75  0.001222179    1.621    0.383
        18 -11.7970     99.4800    247.4985   7.8947371459e+01   1.0335261889e+01    0.2093159    0.1423308  21.38 0.0009852803    1.318    0.241
        19 -11.8051     85.3482    250.4050   8.2343818133e+01   1.1529957389e+01    0.2500368    0.1249019  33.79  0.000638302    1.584    0.369
        20 -12.9238     70.5041    248.0103   8.5401509449e+01   1.3711045266e+01    0.2815273    0.2226569  69.23 0.0008222847    1.372    0.271
        21 -12.7956     68.2921    245.3205   8.5667029143e+01   1.4469816019e+01    0.4063838    0.2049658  22.75  0.002062237    1.920    0.479
        22 -11.1755     56.0785    250.5935   8.8761836811e+01   1.4851932238e+01    0.1694194    0.0953612  32.06 0.0003376132    1.446    0.309
        23 -13.1141     47.4315    218.5759   8.8293146602e+01   2.2237688571e+01    0.8804728    0.5822846  55.00  0.005018864    1.401    0.286
        24 -13.5749     35.2599    226.7467   9.1776160614e+01   2.1783195714e+01    0.6273726    0.4818448 -62.74  0.004024393    1.484    0.326
        25 -12.7839     27.3337    224.3613   9.3457188182e+01   2.3069543927e+01    0.5125712    0.2492417  63.23  0.002281652    2.067    0.516
        26 -14.9178     20.0113    212.0105   9.4438111906e+01   2.6426501311e+01     1.418741    0.9582704  45.57  0.008574114    1.266    0.210
        27 -15.0766      4.5414    208.7917   9.7943402065e+01   2.8458908165e+01     1.113616      0.59011 -74.19  0.006132761    1.853    0.460
        28 -14.4033     24.8704    248.1129   9.5302847912e+01   1.8527280157e+01    0.8433146    0.3306794  34.36   0.00441473    1.932    0.482
        29 -16.7257     11.2300    239.3956   9.7790697648e+01   2.1477259825e+01      1.87395     1.226617  -1.05   0.01105689    2.262    0.558
        30 -15.9980      4.8635    229.7672   9.8764849825e+01   2.3963012487e+01     1.044264     0.499096  89.96  0.005716123    2.078    0.519
        31 -15.1254     12.9015    225.4129   9.6800930607e+01   2.4177948906e+01    0.7008142    0.4004264  50.82  0.003447224    1.442    0.306
        32 -13.7907     52.9216    236.0384   8.8384841440e+01   1.8008825703e+01    0.4777073    0.3067883 -57.74  0.001838196    1.808    0.447
        33 -10.9622     60.7761    242.5576   8.7119654765e+01   1.5853537209e+01    0.1562902    0.1267763  56.08 0.0002273014    1.157    0.136
        34 -11.0274     61.6325    238.5155   8.6600396610e+01   1.6542191760e+01    0.1720688    0.1191675  53.93  0.001031756    1.347    0.257
        35 -12.7532     62.8427    234.2228   8.5963802574e+01   1.7252891786e+01    0.4795683    0.2867952  66.94  0.001135823    1.944    0.486
        36 -10.7255    134.5736    241.4723   7.0568172177e+01   6.9453344434e+00     0.125133     0.102891  15.78 6.538295e-05    1.019    0.019
        37 -10.8145     89.3536    241.0491   8.0545517027e+01   1.2759567955e+01    0.1627563    0.1470424  37.52 0.0004905964    1.091    0.083
        38 -12.3291    116.3899    240.5808   7.4435264991e+01   9.4348609237e+00    0.3277429    0.1086696  28.00  0.001310323    2.678    0.627
        39 -11.9424     71.1264    240.1169   8.4583181993e+01   1.5132492508e+01    0.2369415    0.1914055  45.11 0.0002957391    1.085    0.078
        40 -10.8416     67.8936    231.1733   8.4522462833e+01   1.7274841201e+01    0.1777469     0.134519  34.94  0.000353934    1.127    0.113
        41 -12.8259     71.4836    234.0171   8.3949679293e+01   1.6281452080e+01    0.2523555    0.2343479  29.20 0.0004212615    1.116    0.104
        42 -12.3402     73.3393    229.8801   8.3126724543e+01   1.6884261467e+01    0.2861405    0.2254786 -31.39  0.001078418    1.569    0.363
        43 -11.2735    148.4428    239.0381   6.7286461151e+01   5.5701218387e+00    0.2517744    0.1485319  15.39 0.0009814315    1.632    0.387
        44 -11.9393    103.8169    241.8500   7.7379886245e+01   1.0807734042e+01    0.2829596    0.1406243  50.30 0.0009146878    2.353    0.575
        45 -11.7026     79.1940    236.9539   8.2451823020e+01   1.4780253146e+01    0.2147194    0.1568519  25.17  0.001292693    1.237    0.191
        46 -13.0118    112.1425    234.7347   7.4686868424e+01   1.1037722262e+01    0.4739585    0.1917147  22.95   0.00195032    2.598    0.615
        47 -11.0479     43.7688    234.7309   9.0370218661e+01   1.9259928880e+01    0.2837813    0.1369825 -88.43  0.001377836    2.566    0.610
        48 -11.6871     91.1681    233.7553   7.9371468270e+01   1.3916045127e+01    0.3601756    0.2265366  74.34  0.001112057    2.372    0.578
        49 -10.9156    246.6483    234.2881   4.8365829921e+01  -5.0579999794e+00    0.1539132   0.07545485 -25.53 0.0009468144    1.681    0.405
        50 -12.7729    219.4310    230.1185   5.2214039213e+01  -1.6945104809e+00    0.2294476    0.1714905  -3.03 0.0004482868    1.018    0.017
        51 -10.8150    104.2990    231.3231   7.6069877807e+01   1.2696356018e+01    0.1270725   0.09371252 -10.07 0.0003918123    1.627    0.385
        52 -11.0476    193.8910    229.8845   5.6809932073e+01   1.2968266663e+00    0.1927998    0.1349524  -3.71 0.0007109073    1.250    0.200
        53 -11.6574    178.1235    228.4409   5.9650262611e+01   3.4700304347e+00    0.1959485     0.152098 -20.68 0.0003088845    1.220    0.180
        54 -11.6121    149.9787    229.5132   6.5631662506e+01   6.9578131266e+00    0.1964003    0.1086036  29.24 0.0005360128    1.565    0.361
        55 -10.4280     83.6751    229.7225   8.0686724263e+01   1.5644946520e+01    0.1236996   0.09475529  -6.22 0.0004084031    1.587    0.370
        56 -10.8312    180.9761    232.2298   5.9659570578e+01   2.5277325787e+00    0.2052424    0.1187222   2.42  0.001076818    1.933    0.483
        57 -12.3224    231.5574    227.3308   4.9720183616e+01  -2.6379435231e+00    0.2841131    0.1876332 -10.06  0.001761595    1.218    0.179
        58 -12.4858    112.5894    227.8246   7.3734452008e+01   1.2266040196e+01    0.2593003    0.1984942  22.23  0.000819438    1.152    0.132
        59 -12.9121    105.4103    226.6189   7.5247882438e+01   1.3450377685e+01    0.4043167    0.2556559   8.75  0.002046673    1.864    0.464
        60 -11.6030    100.3882    227.1685   7.6486167777e+01   1.4005523138e+01    0.2315023    0.1634349  40.79 0.0004747864    1.286    0.222
        61 -12.4528     96.6395    224.8008   7.7087788327e+01   1.4961443788e+01    0.3341632    0.2097347  78.76  0.001575775    2.595    0.615
        62 -11.0132    138.2838    226.8699   6.7801667005e+01   8.9830370741e+00    0.1818204    0.1718368  76.53  0.001017289    1.415    0.293
        63 -13.3848    113.7530    222.6441   7.2801143947e+01   1.3098125965e+01    0.3546882    0.2614141  42.34   0.00204016    1.316    0.240
        64 -12.3451    113.8244    218.6241   7.2253280760e+01   1.3869132410e+01    0.2400345     0.212114   2.92 0.0005836104    1.123    0.109
        65 -11.6343     91.4343    226.3335   7.8493323879e+01   1.5333301867e+01    0.2777033    0.1312592 -62.91  0.001287493    2.493    0.599
        66 -10.4414     51.3900    226.2695   8.7972402002e+01   2.0171421481e+01    0.1215049   0.09364173 -11.83 0.0006987613    1.715    0.417
        67 -11.9754    130.0110    230.9783   7.0198071890e+01   9.3613941875e+00     0.154466    0.1351873  13.04 0.0005235873    1.050    0.048
        68 -11.8301     68.0679    224.8985   8.3895312021e+01   1.8534040123e+01    0.1918736    0.1727748  68.74 0.0003462094    1.148    0.129
        69 -11.3003    213.1580    222.3820   5.2092615003e+01   9.3266848998e-02    0.2566214    0.1268289 -21.69  0.001332316    2.110    0.526
        70 -12.2846    159.9686    222.2181   6.2427374781e+01   6.8598009898e+00    0.3676731    0.2093311  30.60  0.000814045    1.569    0.363
        71 -12.8857    125.2013    221.5502   7.0006638169e+01   1.1740740380e+01    0.3256112    0.2206359  31.87 0.0007759345    1.294    0.227
        72 -12.7228     77.6308    219.4823   8.1044978176e+01   1.8487710681e+01    0.3598866    0.2835395  84.85 0.0009957155    1.468    0.319
        73 -11.6176    237.8115    221.1936   4.7723027725e+01  -2.4938439822e+00    0.1639823    0.1040082  -7.89   0.00108135    1.341    0.254
        74 -11.2078    222.5965    220.1824   5.0092343030e+01  -6.8444872184e-01    0.1829168     0.132506  21.59 0.0007471531    1.372    0.271
        75 -12.2146    173.3110    218.9809   5.9152975627e+01   5.6117219885e+00    0.2690487    0.2212968 -14.73  0.001040367    1.129    0.114
        76 -11.0000     87.1147    220.5137   7.8864431456e+01   1.7065505745e+01    0.2036486    0.1164196  29.09  0.001017384    1.547    0.354
        77 -11.6630     64.6105    217.1857   8.3985795069e+01   2.0570413415e+01    0.3339716    0.2580413 -76.40  0.001988679    1.425    0.298
        78 -11.9006    139.4782    207.4595   6.4656132109e+01   1.2391503484e+01    0.2274076    0.2010213  71.97 0.0006725691    1.527    0.345
        79 -12.8624    145.3367    215.8329   6.4626552434e+01   9.9954164343e+00    0.4157323    0.3247139  44.26  0.001423838    1.441    0.306
        80 -12.3242    141.0251    210.9892   6.4852101562e+01   1.1501011190e+01     0.336558    0.2597026  23.26  0.001164574    1.153    0.133
        81 -11.9203    129.6034    217.2520   6.8391115721e+01   1.1940356761e+01    0.2247614    0.1324178 -56.53 0.0009373801    2.043    0.510
        82 -13.0660    108.8951    215.0474   7.2945660021e+01   1.5258541976e+01    0.4072824    0.2496223 -27.22  0.001940203    2.166    0.538
        83 -10.4759    223.6112    216.2678   4.9283771409e+01  -2.5345617020e-01   0.09837198   0.09043899  34.21 0.0006748292    1.708    0.415
        84 -12.8854     87.8940    212.9327   7.7787379401e+01   1.8541413111e+01    0.5342722    0.3719245 -34.15  0.001981967    1.743    0.426
        85 -13.1715     79.9349    212.7098   7.9730822339e+01   1.9626987912e+01    0.7043795    0.2521813  32.47  0.002829326    2.351    0.575
        86 -11.5362     75.6677    212.3080   8.0746081417e+01   2.0257913793e+01    0.2690653    0.1483751  50.65 0.0005436714    1.847    0.459
        87 -11.2585    155.2860    214.6459   6.2261565195e+01   8.8144336125e+00    0.2125439    0.1421257 -20.22 0.0006437278    1.618    0.382
        88 -10.9146     69.2911    215.5040   8.2667134256e+01   2.0364619715e+01    0.1733523    0.1206362  14.91 0.0009248478    1.558    0.358
        89 -10.7752     58.7724    214.8576   8.5197113909e+01   2.1761820331e+01    0.2205974    0.1266948 -26.93  0.000953528    2.924    0.658
        90 -11.6428     36.1467    214.5230   9.0712411272e+01   2.4313276513e+01    0.3552987    0.1745213  62.22  0.001682707    2.159    0.537
        91 -12.9684    125.1331    212.8910   6.8797701394e+01   1.3407281167e+01    0.2616849    0.2382328  -7.43 0.0004526656    1.107    0.097
        92 -12.5613    120.5252    214.4618   7.0103634633e+01   1.3751811471e+01    0.2381373    0.1806427  34.56 0.0006743214    1.202    0.168
        93 -11.7327    247.6017    212.9083   4.4840379401e+01  -2.4381888084e+00    0.1808699    0.1396501  11.63 0.0003807225    1.309    0.236
        94 -13.5247     38.2448    245.9105   9.2321934245e+01   1.7628939677e+01    0.7623724    0.5466866  37.27  0.004627043    1.157    0.136
        95 -11.4542     63.9740    211.2683   8.3554410118e+01   2.1928886709e+01    0.1772505    0.1664592  80.90 0.0002852613    1.120    0.107
        96 -12.6905     68.7038    207.4859   8.1966545448e+01   2.2184314469e+01    0.6228749    0.2744473  18.81  0.002448643    2.782    0.641
        97 -11.8582     47.2098    210.4077   8.7662194697e+01   2.4050275880e+01     0.254079    0.2116194 -36.81  0.001435685    1.459    0.315
        98 -12.5939    229.3911    207.3022   4.6828594027e+01   3.4237923854e-01    0.3410845    0.2127717 -44.94  0.001460917    1.953    0.488
        99 -11.5634    225.0583    204.0672   4.7008155996e+01   1.3181935534e+00     0.198236    0.1544542 -29.46  0.000429753    1.281    0.220
       100 -13.2377    104.8532    207.2163   7.2865154405e+01   1.7426539301e+01    0.5002452    0.3484697  29.16  0.002105721    1.294    0.227
       101 -10.0214     38.2632    209.3363   8.9799452361e+01   2.5244791989e+01    0.1207155   0.09437026 -39.25 0.0006969743    1.584    0.369
       102 -11.5169    180.9944    207.7810   5.5775952626e+01   6.4284364308e+00    0.2398437    0.1620994  10.63  0.001352532    1.436    0.304
       103 -11.2307     84.3106    206.2852   7.7873787781e+01   2.0441945006e+01    0.3318425    0.1798294  66.70  0.001328876    2.948    0.661
       104 -13.0509     35.5193    204.0438   9.0070786214e+01   2.6722272186e+01     0.551961    0.3028141 -52.39  0.001792271    2.077    0.519
       105 -11.0100     40.2299    198.4141   8.8396555355e+01   2.7530245136e+01    0.2249452    0.1337259  42.85  0.000528492    1.499    0.333
       106 -11.0770    205.0778    206.1515   5.0876539365e+01   3.4896879671e+00    0.1791794    0.1338109  -5.18  0.001136973    1.150    0.131
       107 -11.5452    160.3192    206.6409   5.9891042318e+01   9.5281664977e+00    0.2129848    0.1653901 -57.24  0.001209861    1.686    0.407
       108 -12.4258     54.9573    205.7098   8.5279282471e+01   2.4229255043e+01    0.2434541    0.2156746  25.23 0.0008266313    1.152    0.132
       109 -12.7202    145.4978    202.9869   6.2571322830e+01   1.2361197093e+01    0.4586962    0.2290743 -43.56  0.002111251    2.075    0.518
       110 -13.4749     89.5443    182.9401   7.3334529344e+01   2.4981032105e+01    0.7850333    0.3618923 -63.26   0.00314763    2.433    0.589
       111 -13.1932     99.3482    185.0505   7.1033187577e+01   2.3056816400e+01    0.5236247    0.3170966 -28.86  0.002258775    2.228    0.551
       112 -13.8477     94.3790    183.1951   7.2070532281e+01   2.4216662250e+01    0.6690784    0.4536043 -72.87  0.003216343    1.777    0.437
       113 -13.7660     94.5217    194.0015   7.3627826125e+01   2.1746095336e+01     1.086929    0.4842185  42.77  0.004453803    2.168    0.539
       114 -12.0169     51.2487    200.0930   8.5687658490e+01   2.5934190937e+01    0.6738173    0.2542954  56.91  0.002350183    3.613    0.723
       115 -10.9876     50.4920    195.5351   8.5436043375e+01   2.7078110494e+01    0.2668263    0.1709804  65.90  0.001347451    1.672    0.402
       116 -11.2119     41.9279    205.4034   8.8561054727e+01   2.5745653825e+01    0.3237485    0.1342039  29.81   0.00143495    2.134    0.531
       117 -12.2458     77.6688    201.7637   7.9017166762e+01   2.2315420835e+01    0.4309796     0.242875 -55.21   0.00183112    1.889    0.471
       118 -11.5543     60.8925    203.9646   8.3585681333e+01   2.3924442815e+01    0.3740186    0.1850386  25.20  0.001544397    1.975    0.494
       119 -10.9789    162.9878    201.7612   5.8504878655e+01   1.0020063037e+01    0.1727354    0.1027686  29.78 0.0002671934    1.570    0.363
       120 -12.8379     20.4963    198.6193   9.3478569985e+01   2.9410276260e+01    0.4827047    0.2743289  68.20  0.002509682    1.733    0.423
       121 -10.6574     14.9947    199.4746   9.4916020926e+01   2.9696271450e+01    0.2250005    0.1209167  18.81 0.0008566234    2.027    0.507
       122 -11.0833    212.4115    200.2096   4.8536157449e+01   3.4622596764e+00    0.1616576    0.1061715 -43.13 0.0008981553    1.674    0.403
       123 -11.6708    211.5480    196.5215   4.8048583977e+01   4.1420904927e+00    0.1707515    0.1066532 -42.23 3.042974e-05    1.667    0.400
       124 -12.0835     84.1579    198.6857   7.6954168765e+01   2.2139998371e+01    0.3443523    0.2191596  64.90  0.001072302    1.996    0.499
       125 -12.0570     80.2644    193.8565   7.7345178140e+01   2.3758404406e+01    0.6742889     0.366838  41.85  0.002985889    1.708    0.415
       126 -13.1327     75.0211    180.2922   7.6939489999e+01   2.7643895899e+01    0.6361073     0.391003 -59.36  0.002417033    1.672    0.402
       127 -13.9302     69.9026    187.0195   7.9245267855e+01   2.6722059627e+01    0.9543386    0.4476558  33.78  0.002896732    1.922    0.480
       128 -13.7868     65.4016    181.3889   7.9767861638e+01   2.8647719359e+01    0.6618677     0.463883 -71.74  0.002727246    1.502    0.334
       129 -10.4355    107.6829    198.7130   7.0951341516e+01   1.8818071065e+01    0.1390485    0.1042409  -9.24 0.0003006369    1.590    0.371
       130 -12.2541    138.6803    196.6054   6.3093401144e+01   1.4619997052e+01    0.3091748    0.1833776  -4.13  0.001225102    2.670    0.625
       131 -13.1498    122.8795    196.5331   6.6856866889e+01   1.7024808652e+01     0.483273     0.228036  42.88  0.002029024    2.152    0.535
       132 -11.9504      1.4174    196.3566   9.8115407970e+01   3.1501474890e+01    0.2471779    0.1053848 -78.24 0.0007675103    2.187    0.543
       133 -12.3456    191.4519    193.9270   5.1322665938e+01   7.2904137013e+00    0.3661198    0.3139136  26.58  0.002347752    1.281    0.220
       134 -11.9327    152.3912    195.7140   5.9803359214e+01   1.2714539820e+01    0.2465905    0.1535809  40.24  0.001084159    1.641    0.391
       135 -12.9296     11.2226    194.5453   9.5572257376e+01   3.1152761892e+01    0.3074458    0.2465626  14.76  0.001107887    1.427    0.299
       136 -11.8419     24.9227    185.8002   9.1395908525e+01   3.2034173892e+01    0.2020472    0.1888428  73.86 0.0003708085    1.067    0.062
       137 -12.7757     26.9019    192.7051   9.1406612080e+01   3.0202294336e+01    0.5679738    0.2062416 -67.63  0.002395618    2.589    0.614
       138 -11.5363     30.9974    188.6558   8.9996824085e+01   3.0771761496e+01    0.1928411    0.1723849 -70.33 0.0002904327    1.175    0.149
       139 -10.9852    217.7999    193.8061   4.6476060397e+01   3.7492416665e+00    0.1506453    0.1365471 -23.25 0.0005173924    1.332    0.249
       140 -11.1624     69.4832    193.7838   8.0196460027e+01   2.5191923222e+01    0.1830897    0.1350142 -64.82  0.000607228    1.433    0.302
       141 -11.2209    239.7293    193.4102   4.2799226844e+01   1.1024775686e+00     0.152027   0.09686604  14.07 0.0009464947    1.619    0.382
       142 -11.7151     48.7695    204.2294   8.6718069468e+01   2.5266818033e+01    0.3398396     0.179037 -64.05 0.0008784072    1.961    0.490
       143 -11.8805    162.9441    192.7578   5.6963715748e+01   1.1673407008e+01    0.2437799    0.2223654 -52.60  0.001015561    1.356    0.262
       144 -11.5986    158.5248    193.3298   5.8028947763e+01   1.2235952153e+01     0.235986    0.1528808  10.27 0.0005101542    1.745    0.427
       145 -10.4742     33.4819    192.4366   8.9652910387e+01   2.9626048065e+01    0.1303249    0.1173275  60.24  9.05257e-05    1.015    0.014
       146 -12.8526    134.5695    188.5022   6.2701080579e+01   1.6887311436e+01     0.515892    0.2573929 -30.83  0.002011828    2.730    0.634
       147 -11.1418    234.1749    190.0350   4.3091173470e+01   2.2547019509e+00    0.1774125    0.1300059 -51.92  0.001088715    1.988    0.497
       148 -12.3862     50.6912    189.9421   8.4810143234e+01   2.8375160280e+01    0.3145372    0.2333573  20.29 0.0005438571    1.410    0.291
       149 -13.4084     51.0824    184.0216   8.4066966955e+01   2.9751527191e+01    0.5770537    0.2803403  39.76  0.001804731    1.867    0.465
       150 -11.6928      8.7052    184.2989   9.5612158674e+01   3.3771551087e+01    0.2434302    0.2042283  38.39 0.0003714275    1.191    0.161
       151 -11.8982     10.7178    180.6388   9.4846974962e+01   3.4494355692e+01    0.3303455     0.290326  45.51    0.0013798    1.129    0.114
       152 -10.8000    174.4043    188.8441   5.3832905301e+01   1.0659434572e+01    0.1853107    0.1147319 -30.23 0.0004919979    1.601    0.375
       153 -11.5436    151.9680    187.7270   5.8505921077e+01   1.4317388960e+01    0.1932841    0.1700187  13.76 0.0004603533    1.049    0.047
       154 -11.9317    110.1226    187.8850   6.8672967697e+01   2.0802041501e+01    0.2197242    0.1879368  54.04 0.0006348782    1.262    0.208
       155 -11.3729     43.1835    187.1664   8.6566151328e+01   2.9874930166e+01    0.2180771    0.1792556 -76.91  0.001073723    1.223    0.182
       156 -12.4564      7.5081    189.0013   9.6200214949e+01   3.2748171525e+01    0.3456017    0.2182186 -58.59  0.001599168    1.689    0.408
       157 -12.4442    194.5357    187.2274   4.9526118682e+01   7.9767502201e+00    0.2824317     0.179249  39.16  0.001534597    1.738    0.424
       158 -13.1928    121.0528    186.6699   6.5703977955e+01   1.9383543524e+01    0.4589782    0.2402408  30.66 0.0006579438    1.818    0.450
       159 -13.1979    118.6711    180.2957   6.5224832619e+01   2.1139524629e+01    0.5460203    0.3292082  60.21  0.001697723    2.521    0.603
       160 -10.4183    241.3265    186.2618   4.1309380631e+01   1.9326904984e+00    0.1160178   0.07462793  -6.44 0.0002821303    1.562    0.360
       161 -11.3449    247.7523    185.5830   4.0218629133e+01   1.2660754669e+00    0.1908631    0.1027546  26.85   0.00112091    2.071    0.517
       162 -11.6940    164.5128    185.0540   5.5243588411e+01   1.2871016449e+01    0.2322884    0.1852054  44.58 0.0005975605    1.445    0.308
       163 -11.1561     41.0360    183.0506   8.6747984033e+01   3.1101285705e+01    0.2166437    0.1380457  60.41  0.001082444    1.597    0.374
       164 -12.0146      4.6367    181.4050   9.6515009463e+01   3.4772152967e+01    0.2533849    0.1955108 -59.13  0.000529369    1.389    0.280
       165 -12.1607    137.3933    181.9321   6.0872177699e+01   1.7793593483e+01    0.2372484    0.1851783  41.07  0.000592525    1.312    0.238
       166 -11.1796    142.2220    181.5641   5.9655687571e+01   1.7092645223e+01    0.1963089    0.1295698  20.41 0.0005335083    1.582    0.368
       167 -12.3380     23.0451    180.4942   9.1485287383e+01   3.3491592103e+01    0.4977695    0.2145324  62.18  0.001794324    2.641    0.621
       168 -12.2149     22.7582    174.6804   9.1089385777e+01   3.4946477466e+01    0.3053206     0.208084 -65.25   0.00128522    1.439    0.305
       169 -12.8673      4.3248    138.0063   9.3573343810e+01   4.5663283748e+01    0.5360008    0.3527208  40.94  0.002196733    1.556    0.357
       170 -13.5261      4.5945    147.6152   9.4269906432e+01   4.3177292390e+01    0.6517105    0.4781075  67.29  0.003728967    1.313    0.238
       171 -13.5372      3.1713    131.0747   9.3352303857e+01   4.7522945035e+01    0.5679771    0.4253267  37.82  0.001713556    1.409    0.290
       172 -14.2750     12.6172    142.6350   9.1291427849e+01   4.3915800813e+01     1.144728     0.472685  64.30  0.004251125    3.148    0.682
       173 -14.3957     12.6976    135.1992   9.0528466632e+01   4.5842672331e+01    0.7652071     0.430931  49.88  0.003674729    1.863    0.463
       174 -13.6240     23.3199    161.1821   8.9721344016e+01   3.8288318945e+01    0.5888102    0.4456274 -57.87  0.003300868    1.327    0.247
       175 -13.2920     29.6774    172.4913   8.8926231148e+01   3.4853838022e+01    0.6294298    0.3657134  84.38  0.001928634    1.850    0.460
       176 -12.6743     25.2079    168.5279   8.9849193270e+01   3.6261764115e+01    0.4477986     0.248975  20.49  0.001150097    1.920    0.479
       177 -13.2474     25.8606    154.3222   8.8258477290e+01   3.9821261578e+01    0.5572951    0.3021922  55.67  0.001670185    1.961    0.490
       178 -13.5236     26.9282    149.8002   8.7433143552e+01   4.0894554786e+01    0.6217783    0.3204526  73.53  0.002373721    2.416    0.586
       179 -12.9495     20.3861    153.8912   8.9914611323e+01   4.0404983629e+01    0.5308317    0.2730561 -40.49  0.002326224    2.335    0.572
       180 -13.4510     20.5051    148.3663   8.9324946149e+01   4.1821311006e+01    0.4588605    0.3472863 -39.23  0.002520759    1.456    0.313
       181 -13.1951     11.6766    188.6771   9.5103000258e+01   3.2493600623e+01    0.7155685     0.354514  22.93  0.003098417    2.058    0.514
       182 -11.3219    191.8059    177.8412   4.8312950577e+01   9.9832107645e+00    0.1619795    0.1592616 -20.61 0.0008633124    1.313    0.238
       183 -11.9033    166.9496    178.0171   5.3412181994e+01   1.3814744230e+01    0.2048002    0.1836192  -6.22  0.001219586    1.014    0.014
       184 -13.4034     56.3965    175.9405   8.1626153760e+01   3.1098529137e+01    0.4932911    0.4166431  56.60  0.002379546    1.146    0.127
       185 -12.6423    148.7997    176.5143   5.7185792939e+01   1.7048983427e+01     0.277105    0.2388376   9.15 0.0006166741    1.104    0.095
       186 -12.3501    106.2980    175.9175   6.7704974688e+01   2.4073970414e+01    0.2683144    0.2234683  30.96  0.000245852    1.140    0.123
       187 -12.1429     48.6859    175.1362   8.3739962369e+01   3.2203738872e+01    0.4318857    0.2385484  58.35   0.00191228    2.018    0.504
       188 -12.0874      3.8209    174.8582   9.6351149396e+01   3.6413544679e+01     0.327895    0.1965203  53.59 0.0009047431    1.540    0.351
       189 -11.3443      2.4984    171.5510   9.6515738138e+01   3.7313689817e+01    0.2093451    0.1836526  70.30 0.0005223991    1.031    0.030
       190 -12.5388    130.7638    169.1152   6.0137558113e+01   2.1599108842e+01    0.4276374    0.2866963   8.49  0.001918102    1.900    0.474
       191 -14.0023    125.8728    171.7414   6.1862420207e+01   2.1844520221e+01    0.8536397    0.4756981 -71.96  0.003027472    3.456    0.711
       192 -12.8249     89.8756    201.5054   7.5851651774e+01   2.0735354185e+01    0.6297301    0.3206693 -43.96  0.002444226    2.284    0.562
       193 -10.6201     39.6419    175.2459   8.6344209989e+01   3.3167971307e+01     0.186161    0.1164129 -60.40 0.0004579939    1.593    0.372
       194 -10.6274     16.9978    175.4718   9.2765900514e+01   3.5246858615e+01    0.1773597    0.1269912  22.90 0.0003809961    1.477    0.323
       195 -10.8002     12.4628    174.7382   9.3971339945e+01   3.5795347521e+01    0.1704309    0.1105435 -65.17 0.0005928734    1.505    0.335
       196 -11.5584    214.6163    174.3669   4.3502145757e+01   7.2316904094e+00    0.2288664    0.1158961  41.91 0.0007789285    2.303    0.566
       197 -13.0380     91.7785    169.4851   7.0596336630e+01   2.7821869867e+01    0.4873461    0.2653672 -38.49   0.00198869    2.214    0.548
       198 -11.7339     76.5056    171.4888   7.5248214828e+01   2.9567458456e+01    0.3025781    0.1889678  64.20 0.0009731365    2.044    0.511
       199 -11.3533    171.8542    175.7979   5.1947194630e+01   1.3449424577e+01    0.2087449    0.1710688  -6.83 0.0005512125    1.170    0.145
       200 -11.4589    234.7957    171.8969   3.9746812219e+01   4.8667729388e+00    0.1920374    0.1379807 -15.40 0.0006507658    1.235    0.190
       201 -11.0800     43.9298    200.3292   8.7607309070e+01   2.6691614678e+01    0.1741567    0.1516546  41.33 0.0002983053    1.077    0.071
       202 -10.6773     34.6408    172.7514   8.7524106140e+01   3.4303317740e+01    0.1323161     0.101391 -26.45 0.0005981429    1.605    0.377
       203 -11.8926    197.2773    170.3550   4.5849732238e+01   1.0448192634e+01    0.2498786    0.1444414 -28.42  0.001245192    1.689    0.408
       204 -11.2588    193.2053    171.6031   4.6857897122e+01   1.0855695903e+01    0.1800234    0.1183113  21.89 0.0005898778    1.627    0.385
       205 -12.5588     62.1179    169.4887   7.9129001679e+01   3.1986053237e+01    0.4417425    0.2911162  65.64  0.002068751    1.764    0.433
       206 -12.2267     57.5932    163.9062   7.9701731512e+01   3.3956144206e+01    0.3415458     0.243691  66.07 0.0007274919    1.546    0.353
       207 -10.3356     15.3210    171.2925   9.2918136290e+01   3.6417872103e+01    0.1296496   0.09413995 -40.93 0.0007013663    1.609    0.378
       208 -12.7615    152.4589    167.2440   5.4560825125e+01   1.8314264542e+01    0.5765066    0.1668403 -49.22  0.001816638    3.715    0.731
       209 -10.8586     48.5222    169.5437   8.3126516790e+01   3.3617821820e+01    0.1387842    0.1306503  66.42 0.0001188265    1.004    0.004
       210 -11.9693     41.3848    168.5576   8.5111843311e+01   3.4656349566e+01    0.3044079     0.209051  64.91   0.00145046    1.521    0.342
       211 -13.2625     14.7155    150.1551   9.1326836615e+01   4.1817849547e+01    0.5141756    0.2575277 -51.93  0.002356839    2.001    0.500
       212 -11.6614     15.9495    167.2667   9.2423547446e+01   3.7370933732e+01    0.1805486    0.1701878  79.81   0.00115105    1.066    0.062
       213 -11.1329      9.7485    166.9732   9.4181797540e+01   3.7925778782e+01    0.2197852     0.156508  61.42   0.00124219    1.319    0.242
       214 -12.7608      5.1647    162.1175   9.5158903830e+01   3.9467228206e+01    0.4773862     0.293643  55.12  0.001469427    1.557    0.358
       215 -12.5814     37.4459    163.0468   8.5663056799e+01   3.6466948688e+01     0.378353    0.2258637 -80.92  0.001212452    1.717    0.418
       216 -10.7951    102.3069    165.3034   6.6937748671e+01   2.7167562524e+01    0.1500648    0.1137883 -15.61 0.0007013525    1.602    0.376
       217 -12.9003     88.0762    164.7937   7.0860498702e+01   2.9511788069e+01    0.3671595    0.2310602  25.36  0.001656613    1.635    0.388
       218 -11.8473    206.4366    163.6768   4.2891768264e+01   1.0190219757e+01    0.2753443    0.1680208   1.52  0.001279773    2.374    0.579
       219 -10.9848     68.4735    164.4709   7.6535731683e+01   3.2403577652e+01    0.1443469    0.1372139  58.55 0.0001041811    1.026    0.025
       220 -12.4028     47.8574    161.6990   8.2348084866e+01   3.5678814455e+01    0.3672583    0.2378051  61.28  0.001744073    1.690    0.408
       221 -11.4168    178.8422    160.6184   4.7519018605e+01   1.5143150085e+01    0.2194999    0.1707625 -25.96 0.0003733861    1.209    0.173
       222 -12.9641    170.0979    159.8645   4.9180679797e+01   1.6763758498e+01    0.3351221    0.2975942 -47.93  0.001937608    1.236    0.191
       223 -12.0548     11.8082    161.3542   9.3161874245e+01   3.9181170840e+01    0.2410378     0.184333   0.23 0.0009124853    1.577    0.366
       224 -11.7572     16.1277    160.1435   9.1781240166e+01   3.9153325404e+01    0.2947694     0.198831  30.69 0.0006355986    1.498    0.333
       225 -11.5629    158.9009    160.1461   5.1677855970e+01   1.8637375233e+01    0.1979588    0.1946099  48.05 0.0002695626    1.183    0.155
       226 -11.5790     77.3113    159.9518   7.3197444447e+01   3.2295280880e+01    0.2063617     0.189012 -68.60 0.0004806072    1.115    0.103
       227 -11.7333    187.7984    158.0946   4.5232987639e+01   1.4118868098e+01    0.2326807    0.1971864  42.56 0.0006708972    1.349    0.259
       228 -11.4785    105.3893    158.1368   6.4757900860e+01   2.8351059627e+01    0.2833989    0.2088583  41.30 0.0006129011    1.339    0.253
       229 -12.9256     81.0751    157.2485   7.1621092432e+01   3.2414133389e+01    0.3307202     0.292221 -69.05 0.0009570894    1.169    0.145
       230 -12.7095     77.2130    154.9802   7.2391446586e+01   3.3549352354e+01    0.3633579    0.1994561  36.82  0.001183948    1.749    0.428
       231 -12.8208     56.9315    157.3848   7.8980140017e+01   3.5694735613e+01    0.3612983    0.2381134  40.09 0.0007264486    1.477    0.323
       232 -12.1679     33.0741    157.9461   8.6420055766e+01   3.8211725482e+01     0.203566     0.188993  78.88 0.0003245072    1.011    0.011
       233 -12.4424    126.5056    166.5403   6.0724405512e+01   2.2879901376e+01    0.2824333    0.2395193  57.56  0.001270831    1.353    0.261
       234 -12.4370     63.0212    156.7202   7.7006506738e+01   3.5083376398e+01    0.2052849    0.1901703  30.72 0.0004603133    1.086    0.079
       235 -12.1086     50.9147    154.1439   8.0386711208e+01   3.7258489922e+01     0.281448    0.2078464 -80.71  0.000850105    1.398    0.285
       236 -12.1495    212.3466    153.6381   3.9898836198e+01   1.0963944363e+01    0.2709409    0.2185224 -51.06  0.001170086    1.426    0.299
       237 -12.2401     39.6474    154.2092   8.3932639635e+01   3.8505463901e+01    0.3104681    0.1618843  -9.49  0.001103911    3.500    0.714
       238 -11.8672      2.6543    153.3083   9.5285828028e+01   4.1851850202e+01    0.3248137     0.159067  44.14  0.001551142    1.979    0.495
       239 -11.9307     88.3150    153.0542   6.8719451501e+01   3.2342093449e+01    0.2132114    0.1933684 -58.47 0.0005883195    1.124    0.111
       240 -12.6758     62.5597    152.8846   7.6552996933e+01   3.6121554171e+01    0.3205484    0.1674282  45.15  0.001328593    1.964    0.491
       241 -11.4234    171.6496    150.3115   4.6874476140e+01   1.8332609288e+01    0.1369054    0.1147653  89.78 0.0007045405    1.720    0.419
       242 -11.8309    147.5490    149.5906   5.2090641298e+01   2.2818970903e+01    0.3051323    0.2619154  74.33  0.001194453    1.496    0.332
       243 -12.3640    108.6681    148.9474   6.2029718351e+01   2.9958534705e+01    0.3367343    0.2847575 -54.50 0.0007790903    1.218    0.179
       244 -11.0912     99.3335    150.3247   6.4968022330e+01   3.1220372576e+01     0.158337    0.1168666 -16.13 0.0007050987    1.710    0.415
       245 -12.9574     84.7601    149.1371   6.9059157622e+01   3.3865758854e+01    0.3726962    0.2433276 -42.83  0.001150452    1.619    0.382
       246 -13.8904     33.4507    148.7836   8.5227684550e+01   4.0543798032e+01    0.6105612    0.2735283  25.00  0.001961327    2.260    0.558
       247 -12.1856     96.3078    148.6223   6.5515066120e+01   3.2134511815e+01    0.4045089    0.2503397 -10.56  0.001481696    2.842    0.648
       248 -12.1025     77.0162    148.9196   7.1389112136e+01   3.5098901818e+01    0.2421097    0.1761621 -24.61 0.0006236237    1.680    0.405
       249 -11.0797    229.4977    145.9897   3.5659271048e+01   9.6033170770e+00    0.1739789    0.1540037 -18.30 0.0003954413    1.098    0.089
       250 -11.2970    121.5112    146.4915   5.7993231501e+01   2.8248134057e+01    0.1515449    0.1438164  -3.45 6.696192e-05    1.039    0.038
       251 -12.4954    170.0426    144.6087   4.5994700403e+01   1.9721295095e+01    0.3810092     0.217234  32.26  0.001701915    1.949    0.487
       252 -13.1686    101.5627    142.5848   6.2752624388e+01   3.2701130671e+01    0.7879568    0.3884605  56.55  0.002589305    3.273    0.695
       253 -11.9135     35.9799    143.4956   8.3729469121e+01   4.1670328944e+01    0.2085885    0.1410439  20.86 0.0009181447    1.579    0.367
       254 -11.1889    139.9229    141.3360   5.2136074784e+01   2.5981451279e+01    0.2450997    0.2006033 -55.46 0.0005555658    1.309    0.236
       255 -12.7157     35.3738    138.8495   8.3302907959e+01   4.2947708442e+01    0.3087215     0.226028  -1.80 0.0006792669    1.635    0.388
       256 -13.5206     35.7899    131.0858   8.2045403128e+01   4.4943426706e+01    0.4496275      0.27205  23.62 -0.000430966    1.733    0.423
       257 -13.6621     45.0000    140.0281   8.0238444494e+01   4.1609457774e+01    0.6657804    0.2326219 -64.34  0.002199041    2.634    0.620
       258 -11.7773     41.5575    139.5429   8.1320198973e+01   4.2118545143e+01    0.2153282     0.211823  53.08 8.658349e-05    1.053    0.050
       259 -11.3562    223.1184    139.0494   3.5254414947e+01   1.1676923009e+01    0.3139732    0.1453701 -32.60  0.001092606    1.985    0.496
       260 -11.0262    249.2695    151.9225   3.3949492118e+01   5.9298196941e+00    0.1643886    0.1198034 -28.70 0.0002839063    1.076    0.070
       261 -11.9837    188.6012    138.5415   4.1001444256e+01   1.7527687612e+01    0.2401311    0.2138128 -42.27  0.000704024    1.130    0.115
       262 -14.2325     38.3231    135.7798   8.1864004689e+01   4.3449967916e+01     1.388202     0.349087  48.89  0.002989398    8.262    0.879
       263 -10.8147    177.2948    137.6371   4.2991959151e+01   1.9732150480e+01    0.1397343    0.1109427 -72.21 0.0007030816    1.710    0.415
       264 -11.2009    126.5251    137.4393   5.4680041866e+01   2.9361775032e+01     0.151486     0.144109  -2.61 4.716211e-05    1.039    0.038
       265 -12.4593    118.8524    135.3733   5.6277752997e+01   3.1270736326e+01    0.4151861    0.3359439  87.07  0.001705015    1.626    0.385
       266 -10.3315    141.2719    135.6387   5.0524408351e+01   2.6942277707e+01    0.1480621    0.1198851 -82.56 0.0003885789    1.654    0.395
       267 -13.7866     82.2580    128.7598   6.5753430229e+01   3.9339761373e+01    0.6862286     0.448278  67.26  0.002801391    2.206    0.547
       268 -12.8270     78.1230    133.5488   6.8096873947e+01   3.8802190505e+01    0.4236604    0.2683142 -19.48  0.001465689    2.353    0.575
       269 -10.9271     77.2883    139.3192   6.9512584774e+01   3.7477475333e+01    0.1540733    0.1144165 -25.68 0.0007004848    1.597    0.374
       270 -12.3437    102.8341    134.0477   6.0543085361e+01   3.4518730815e+01    0.2855152    0.2251353  34.98  0.001391901    1.259    0.206
       271 -13.1792     16.4464    129.4688   8.8613573177e+01   4.7068274822e+01    0.5036187    0.2051569  59.97  0.001768756    3.461    0.711
       272 -12.6167     21.6942    131.2972   8.7002261585e+01   4.6179137580e+01    0.2996305     0.210182  16.08 0.0009593627    1.569    0.363
       273 -12.5784     21.9747    127.7215   8.6451341199e+01   4.7094514914e+01    0.2892387    0.2257498 -87.84 0.0005148689    1.258    0.205
       274 -10.8639    230.0958    130.6673   3.2541500272e+01   1.1919237489e+01    0.1624561    0.1445882 -22.58 0.0004730447    1.093    0.085
       275 -12.6617    206.2686    129.4065   3.5940034548e+01   1.6037288879e+01    0.2771004    0.2066342 -31.48 0.0003663926    1.202    0.168
       276 -11.7163     50.2227    129.9536   7.6813351920e+01   4.3627120636e+01    0.2310272    0.1928705  66.40 0.0007843611    1.292    0.226
       277 -13.0074     44.3497    127.6072   7.8473373233e+01   4.4933315795e+01    0.5448452    0.3115778  66.26  0.001427131    2.429    0.588
       278 -12.5369     44.4010    120.8099   7.7264607739e+01   4.6702216494e+01    0.3743436    0.2536616 -20.61  0.001127552    1.819    0.450
       279 -10.3340    130.4785    128.4560   5.1574236119e+01   3.0588143820e+01    0.1498308    0.1467893  -7.12 0.0001325988    1.011    0.011
       280 -11.0581    121.6266    127.8469   5.3780277618e+01   3.2446787196e+01    0.2191411    0.1444618 -58.86  0.000944051    1.716    0.417
       281 -13.3243     60.1339    126.9204   7.2805706887e+01   4.3132452650e+01     0.391492    0.2888494  28.83 0.0009936724    1.381    0.276
       282 -12.1854     74.5199    124.9696   6.7488901426e+01   4.1523192882e+01    0.3153076     0.208254  25.31 0.0007451928    1.602    0.376
       283 -13.3480     19.3846    123.2208   8.6797148241e+01   4.8481998578e+01      0.41907    0.2624619  -3.16  0.001807228    1.959    0.489
       284 -11.6852    179.7902    123.3902   3.9317020834e+01   2.1922657763e+01    0.2360214    0.1809677  31.32 0.0006058544    1.446    0.309
       285 -10.4154    179.2905    120.2904   3.8702413177e+01   2.2588873567e+01    0.1431616    0.1321539 -47.18 0.0002115684    1.080    0.074
       286 -11.4877    109.0749    123.0374   5.6165379282e+01   3.5953186286e+01    0.2277913    0.2233117  65.62 0.0003701352    1.066    0.062
       287 -11.5039    188.9904    121.6796   3.7224220031e+01   2.0490867783e+01    0.1799813    0.1758281  23.81 0.0002152691    1.116    0.104
       288 -11.0021    165.4093    122.1593   4.1908553376e+01   2.4953466831e+01    0.1997675    0.1309644 -51.71  0.000403687    1.599    0.375
       289 -11.6672    103.7846    121.5847   5.7378295766e+01   3.7289611346e+01    0.2956277    0.2630385 -77.11  0.001150012    1.260    0.206
       290 -12.3119     98.7289    117.4415   5.7908220856e+01   3.9204792132e+01    0.3702649    0.2710968  69.62 0.0007934555    1.837    0.456
       291 -13.6353      4.5541    118.6110   9.1656046780e+01   5.0676693619e+01    0.6019428    0.3028595 -88.90  0.002113412    2.036    0.509
       292 -12.8673      9.0739    115.3761   8.9620962928e+01   5.1251462017e+01    0.3599398    0.2428921 -81.31 0.0003752372    1.395    0.283
       293 -12.6562     14.0282    118.0120   8.8095527967e+01   5.0239442516e+01    0.2628604    0.2433181  69.35 0.0005968893    1.123    0.109
       294 -13.8478     13.1088    113.3211   8.7837398300e+01   5.1525814376e+01    0.5316911     0.268418 -79.55  0.001227218    1.955    0.489
       295 -10.3641    224.3112    120.3010   3.1260890876e+01   1.4481215575e+01    0.1229771   0.09257296  -6.63 0.0003915489    1.606    0.377
       296 -12.1971     63.7589    119.0352   6.9928933777e+01   4.4642107256e+01    0.3457372      0.19258 -24.77    0.0012407    2.846    0.649
       297 -13.6952     10.1866    106.2144   8.8026891253e+01   5.3559789318e+01    0.4823371    0.3583279  72.29  0.001431993    1.474    0.321
       298 -13.2274     21.4391    115.9634   8.5036765464e+01   5.0220297620e+01    0.6076102    0.5106894  33.47  0.003224891    1.270    0.213
       299 -11.6006     58.5120    117.5127   7.1483336221e+01   4.5769733007e+01    0.1484155    0.1420523 -37.89 1.347684e-05    1.027    0.026
       300 -11.7408     51.3987    116.0179   7.3774470435e+01   4.7094950102e+01    0.4927922    0.2508804  47.99  0.001203558    2.297    0.565
       301 -11.2249    196.9680    115.3059   3.4412465395e+01   2.0114740453e+01    0.1745816    0.1711182   1.11 0.0003487073    1.112    0.100
       302 -12.1708     82.3337    112.6954   6.2036195752e+01   4.3276970469e+01    0.5344496     0.145454 -50.43   0.00157314    3.471    0.712
       303 -11.4924    104.8593    114.0446   5.5192797287e+01   3.8832287635e+01    0.2357631    0.2119406  85.49 0.0008273413    1.275    0.216
       304 -12.7735     62.9632    111.6541   6.8590604945e+01   4.6623694854e+01     0.543032    0.3447034  64.42  0.002229696    2.259    0.557
       305 -12.3563    109.9408    111.8828   5.3135500430e+01   3.8329790210e+01    0.3066606    0.2560133   8.23   0.00050527    1.372    0.271
       306 -11.3376     89.7164    110.9552   5.9154204496e+01   4.2390847276e+01    0.2266727    0.2051032 -11.67 0.0002782907    1.165    0.142
       307 -11.0680     92.1232    107.8447   5.7575155185e+01   4.2681041367e+01    0.2354787    0.1823662 -14.22   0.00108849    1.578    0.366
       308 -11.4377     53.1147    110.7704   7.2042755917e+01   4.8216746024e+01    0.3083269    0.2179776  42.04  0.001256075    1.483    0.326
       309 -11.4626    220.7304    109.3884   2.9486188104e+01   1.6812169963e+01    0.1633791    0.1192948  38.34 0.0009535737    1.652    0.395
       310 -10.9690    216.4547    109.4537   3.0105994497e+01   1.7548574676e+01    0.1290038    0.1109149 -38.10 0.0001340767    1.007    0.007
       311 -11.0415    209.5047    108.0491   3.0821269391e+01   1.9019107778e+01    0.2094399    0.1152369 -37.71  0.001033809    1.595    0.373
       312 -12.0195    170.6380    108.3225   3.7544695947e+01   2.6512082459e+01    0.2300087    0.1719976 -71.69  0.001123999    1.721    0.419
       313 -10.4348    155.6522    108.3140   4.0625952294e+01   2.9616239032e+01    0.1500856     0.116442 -82.52 0.0007046994    1.719    0.418
       314 -12.5560      3.5375    106.8583   9.0728612080e+01   5.3772924409e+01    0.2834234    0.2430101  15.43 0.0003033949    1.305    0.234
       315 -10.6041    139.6721    107.3305   4.4028465947e+01   3.3175278452e+01    0.1537748    0.1201935 -84.64 0.0007051333    1.711    0.415
       316 -11.1913    120.9363    106.9739   4.8745562101e+01   3.7178712701e+01    0.2179336    0.2166724  -4.12   0.00119169    1.011    0.011
       317 -11.2190    219.4560    106.4288   2.9035412015e+01   1.7500477939e+01    0.1274584    0.1090022 -41.79  6.03038e-05    1.021    0.021
       318 -10.1998    245.7239    104.7071   2.5339808125e+01   1.3396861369e+01     0.110462    0.0845262 -13.60 0.0002243214    1.523    0.344
       319 -10.4118    229.5087    103.3952   2.7054312091e+01   1.6235729452e+01    0.1228231    0.1040622 -42.71 0.0001107068    1.030    0.029
       320 -11.0986     15.3610    103.0163   8.5486328997e+01   5.4043504492e+01    0.2531996    0.1547691  31.75  0.001256556    1.743    0.426
       321 -12.1458     79.0330    101.5207   6.0329829130e+01   4.6523786938e+01    0.2882833    0.2376581  64.58 0.0003925888    1.429    0.300
       322 -12.2676     32.6261     98.3976   7.7545707282e+01   5.3757325113e+01     0.530016    0.2543118 -37.21  0.002123007    2.338    0.572
       323 -11.2238    208.1593     99.8265   2.9206423428e+01   2.0595676368e+01    0.1695402    0.1482379 -10.19 0.0003490419    1.293    0.226
       324 -11.5142    193.3103    100.4032   3.1619327755e+01   2.3348015818e+01    0.2544047    0.1276977  48.00  0.001146598    2.199    0.545
       325 -10.2584     55.6197    100.7253   6.8798772442e+01   5.0403407090e+01    0.1553687     0.110116 -18.06 0.0007000786    1.704    0.413
       326 -11.7385     93.7489     99.0695   5.4698341785e+01   4.4387496071e+01    0.3337146    0.2163927  40.42  0.001204113    1.532    0.347
       327 -12.6486    155.2619     97.2971   3.7899255199e+01   3.1788924016e+01    0.2619326    0.2503889 -19.83  0.000276778    1.081    0.075
       328 -11.2440     58.0709     97.6800   6.7096062680e+01   5.0804443918e+01    0.2515754    0.2199852 -48.19 0.0008668872    1.109    0.099
       329 -11.8630     24.8190     97.5025   8.0632211708e+01   5.4717270657e+01    0.4007947    0.2396884 -28.92 0.0007369365    1.868    0.465
       330 -11.8467      9.4752     98.5108   8.7230183224e+01   5.5586511147e+01    0.1362431    0.1195811 -56.67 0.0003011634    1.020    0.019
       331 -10.9280     45.8304     97.5067   7.1924371375e+01   5.2496760039e+01    0.2025526    0.1436677  22.45 0.0006602849    1.468    0.319
       332 -10.5572     20.1198     96.0666   8.2353634694e+01   5.5472614458e+01    0.1701099    0.1512471  60.69 0.0009892996    1.252    0.201
       333 -11.5333     67.1666     94.6450   6.2812935577e+01   5.0143355646e+01    0.2565381    0.2213067  53.46 0.0007378377    1.276    0.216
       334 -11.5569    117.2192     94.0740   4.6239847639e+01   4.0674315458e+01    0.2162272    0.2055721 -54.31 0.0002969091    1.074    0.069
       335 -10.3340     49.3180     93.7021   6.9591398756e+01   5.2991887221e+01     0.145262    0.1124636  64.67 0.0007018761    1.614    0.380
       336 -12.3344    230.1476     89.7993   2.4141516456e+01   1.8158192001e+01    0.2074626     0.190273 -29.41 0.0003509603    1.171    0.146
       337 -11.1142     28.4994     90.4797   7.7649497295e+01   5.6158505312e+01    0.1398036    0.1288504 -44.07 0.0001536841    1.008    0.008
       338 -11.4405      4.1827     88.0479   8.7940206060e+01   5.8537390334e+01    0.3128052    0.1901138 -42.02  0.001625016    1.521    0.342
       339 -12.1837     54.3114     85.9363   6.5507789043e+01   5.4172479814e+01    0.4501504    0.3902854 -14.32  0.002450405    1.169    0.145
       340 -12.0689    149.4624     87.4932   3.6528569628e+01   3.4861967472e+01    0.2592179     0.141722 -38.61 0.0007663404    1.815    0.449
       341 -12.8388    152.8765     80.8465   3.4009365287e+01   3.5278216771e+01    0.5707522    0.3545659  10.47  0.001906622    3.823    0.738
       342 -12.8087     61.3261     85.0860   6.2422011419e+01   5.3312797474e+01    0.4542324    0.2430412 -38.51  0.001770285    2.012    0.503
       343 -11.1371    244.2755     86.0064   2.1781877731e+01   1.6303632705e+01    0.1636942    0.1226952 -42.57 0.0002760744    1.069    0.064
       344 -11.3825    178.4944     86.5304   3.0743472378e+01   2.8699892274e+01    0.1383441    0.1278482 -56.07 3.149504e-05    1.015    0.015
       345 -10.3353     35.2916     86.3039   7.3726546271e+01   5.6500669561e+01    0.1477023   0.09845957 -30.72 0.0003043384    1.572    0.364
       346 -11.5521    190.2068     83.6617   2.8153088448e+01   2.6717906558e+01    0.1993963    0.1615941 -89.42 0.0006226422    1.382    0.276
       347 -10.2764    133.4618     84.4570   3.9302006737e+01   3.8998395427e+01    0.1476555    0.1419839 -84.04 2.067997e-05    1.057    0.054
       348 -11.4830    111.4255     83.6578   4.4831720457e+01   4.4029220010e+01    0.4793445    0.1720811  50.85  0.001558234    2.978    0.664
       349 -11.6409    171.4779     83.0286   3.1073259878e+01   3.0789595395e+01    0.2138873    0.1322779 -37.90 0.0006926833    1.554    0.356
       350 -11.7506     11.7666     86.9539   8.4377171435e+01   5.8375922771e+01    0.2565831    0.1883583  19.79 0.0005185888    1.475    0.322
       351 -11.3920    206.4901     80.9913   2.5198612590e+01   2.3857994900e+01    0.1952626    0.1146949 -38.27 0.0003603858    1.514    0.339
       352 -12.3113    182.3214     80.8893   2.8711686987e+01   2.8811877019e+01    0.2511692    0.2181437 -53.27 0.0003748667    1.068    0.063
       353 -11.0155    123.7416     81.0466   4.0720383839e+01   4.1817599955e+01    0.2030964    0.1812883 -40.86            0    1.135    0.119
       354 -11.5072    215.8830     80.0814   2.3785771878e+01   2.2185711252e+01      0.19599    0.1472812 -58.28  0.000383602    1.265    0.209
       355 -12.1230    187.9594     78.1895   2.7170942281e+01   2.8051045585e+01     0.289809    0.1853474 -17.41  0.000955898    2.180    0.541
       356 -11.6816    112.3056     76.9039   4.2525813270e+01   4.5148625412e+01    0.4734109    0.2397167 -52.33    0.0013873    2.351    0.575
       357 -12.1118     87.4587     79.0115   5.0871293447e+01   4.9973043059e+01    0.3058548     0.214433  40.49 0.0003605826    1.399    0.285
       358 -10.8875     51.6564     79.1975   6.4709299391e+01   5.6126783626e+01    0.1945984    0.1789902  32.01 0.0006538841    1.140    0.123
       359 -11.6783     29.1501     78.8748   7.4690614848e+01   5.8949032586e+01    0.2631622    0.2337249  87.91   0.00152244    1.318    0.241
       360 -11.8742    215.0035     75.3841   2.2854490995e+01   2.3041753930e+01    0.2387372    0.1611377 -41.94 0.0003402901    1.275    0.216
       361 -11.3875     75.1252     75.6605   5.4199991842e+01   5.3040256833e+01    0.2476756    0.2019404 -56.73 0.0006111287    1.350    0.259
       362 -11.0378     85.7956     74.9885   5.0156318296e+01   5.1130600114e+01     0.229288    0.1967761   1.42 0.0005800122    1.272    0.214
       363 -11.0488    169.0000     73.9751   2.9158654212e+01   3.2817377349e+01    0.2283318   0.07612194 -36.58 0.0007963123    2.900    0.655
       364 -11.0082    125.2539     85.4025   4.1609408276e+01   4.0650856432e+01    0.3940499    0.2496952 -16.95  0.001558436    2.450    0.592
       365 -10.8060    115.7881     74.4117   4.0799572970e+01   4.4839972421e+01    0.2104457    0.1357702  39.39 0.0005792458    1.615    0.381
       366 -11.6927      1.7121     74.6581   8.6914847560e+01   6.1977447856e+01    0.2256766    0.1260634 -52.03 0.0005965031    1.493    0.330
       367 -11.4844      2.1657     69.1120   8.5684156650e+01   6.3299918628e+01    0.4474393    0.2169589 -86.82   0.00179773    2.675    0.626
       368 -10.9888    105.2639     72.9639   4.3300755947e+01   4.7444628528e+01    0.2085762    0.2000061 -13.60  0.001153527    1.072    0.067
       369 -12.3546     50.9524     72.4105   6.2969182713e+01   5.7767335364e+01    0.2673974     0.206395 -51.63 0.0005334338    1.309    0.236
       370 -10.5585     93.8428     68.5856   4.5371359927e+01   5.0734709222e+01    0.1908704    0.1388139  56.60 0.0009067618    1.474    0.322
       371 -12.5329      7.3342     67.8091   8.2789506229e+01   6.3337777983e+01     0.232805    0.2110417 -39.97 0.0002811493    1.053    0.050
       372 -12.0361      9.1947     63.6064   8.0883471742e+01   6.4218504358e+01    0.3190052    0.1695423 -27.27  0.001291636    1.936    0.483
       373 -12.4283    199.4476     65.4913   2.2525451216e+01   2.7567857410e+01    0.2433915    0.2099704 -54.71 6.715518e-05    1.023    0.022
       374 -11.5566    182.6052     71.0444   2.6215598082e+01   3.0297880133e+01    0.2271865    0.1781605 -87.82 0.0002939251    1.387    0.279
       375 -11.7902    179.2332     64.4303   2.5050322075e+01   3.2030757132e+01    0.2484833    0.2218111 -79.59 0.0007925742    1.078    0.072
       376 -11.1639     44.9702     62.2149   6.2375126530e+01   6.0852735976e+01    0.2425418    0.1553668  -7.68  0.001090555    2.042    0.510
       377 -13.0171    203.2994     66.3810   2.2248474355e+01   2.6652249395e+01    0.2588713    0.2364987 -64.87 0.0005024195    1.061    0.057
       378 -11.3592    108.9178     60.1468   3.8066086497e+01   4.8922415775e+01    0.2234729    0.1975364 -87.33 0.0006551754    1.276    0.217
       379 -11.9240     32.4221     57.4750   6.6936474336e+01   6.3500902838e+01    0.3674668    0.2109618  56.20  0.001500206    3.080    0.675
       380 -10.9454     60.2597     67.0006   5.7217655030e+01   5.7479368090e+01    0.1975819    0.1778613 -29.92   0.00032624    1.091    0.083
       381 -11.2612    160.1749     57.4156   2.6191391581e+01   3.7371250367e+01    0.1875805     0.128356  78.70 0.0004994301    1.593    0.372
       382 -11.1389    120.5509     57.0101   3.4044314628e+01   4.6743992302e+01    0.2060206    0.1428338 -35.29 2.170992e-05    1.516    0.340
       383 -11.3177     53.9413     56.9021   5.6394629384e+01   6.0583657124e+01    0.5293087    0.1566338  48.09  0.001260462    7.097    0.859
       384 -10.6302     18.3273     57.3014   7.4331057022e+01   6.4983374491e+01    0.1427759   0.08647764 -28.36 0.0004329496    1.641    0.391
       385 -11.3293    149.6134     56.2430   2.7703355273e+01   4.0006142800e+01    0.2288612    0.1807536  78.81   0.00123196    1.292    0.226
       386 -10.8416    126.3967     54.1393   3.1759469704e+01   4.5814953637e+01    0.2085983    0.1257671 -48.29 0.0009441597    1.783    0.439
       387 -11.2691    110.4748     54.4982   3.5743225881e+01   4.9493545197e+01    0.1434952    0.1362694  50.70 5.415894e-05    1.007    0.007
       388 -13.4496     30.9008     50.0155   6.5150014180e+01   6.5257017729e+01    0.3770515    0.3063184  41.07  0.002192563    1.436    0.304
       389 -10.7715    222.9502     49.9849   1.6439422667e+01   2.4992548565e+01    0.1423308    0.1201498 -66.15 0.0003812183    1.068    0.063
       390 -11.9195     19.1684     47.3274   7.0717918618e+01   6.7082079521e+01    0.4935764    0.1367557 -50.67  0.001866223    2.934    0.659
       391 -10.9756    143.5185     44.5086   2.5329808025e+01   4.3121564419e+01    0.1372322    0.1277786  83.70 1.417831e-05    1.011    0.011
       392 -11.2049    195.3186     43.6833   1.7824433268e+01   3.1401212392e+01    0.1354756   0.08282405 -64.07 0.0007039949    1.656    0.396
       393 -13.5647     36.7984     40.1150   5.8141721244e+01   6.6427210811e+01    0.3607369    0.2904187  16.15  0.001041584    1.156    0.135
       394 -11.2884    119.0829     40.8673   2.9013133174e+01   4.9480675713e+01    0.2699325    0.1843168   8.77  0.001169349    2.209    0.547
       395 -11.1088    241.8340     40.1217   1.2811730911e+01   2.2718861403e+01    0.1728488    0.1181596 -56.41 0.0003351092    1.178    0.151
       396 -12.6150     25.1494     37.6519   6.3611228438e+01   6.8405332485e+01    0.4226236    0.2355762 -16.81  0.001942704    2.269    0.559
       397 -11.1480     78.0675     37.1471   3.8958662445e+01   5.9420635096e+01    0.2080317    0.1703062  26.35  0.000440811    1.201    0.167
       398 -12.3333     44.3786     32.7288   5.0996659613e+01   6.6558296955e+01     0.361284    0.2320459  -7.66  0.001767413    1.983    0.496
       399 -12.8321     31.8047     32.4868   5.7551835978e+01   6.8508695694e+01    0.3478339    0.3111803 -21.77  0.001906167    1.153    0.133
       400 -11.8333    106.7868     32.5070   2.8887852636e+01   5.3516456627e+01    0.2313737    0.1944512 -29.71 0.0005767538    1.303    0.232
       401 -10.7200     67.5388     33.5542   4.1242984598e+01   6.2144321043e+01    0.1358913    0.1231351  29.60 3.762605e-05    1.034    0.033
       402 -12.5469     78.3800     31.3441   3.6434842355e+01   6.0175442671e+01    0.2955631    0.2386371  82.27  0.001614794    1.600    0.375
       403 -11.7274    208.9698     30.7443   1.3473129012e+01   3.0122529080e+01    0.2201467    0.1436119 -78.97 0.0008542442    1.492    0.330
       404 -10.3761      8.6605     31.7370   7.1581749005e+01   7.1198823101e+01    0.1309819   0.07909951 -21.58 0.0002365941    1.590    0.371
       405 -12.2676     19.4329     29.8314   6.3762512858e+01   7.0532152154e+01    0.2214458    0.1855678  -2.62 0.0003020632    1.050    0.047
       406 -10.8505      3.2190     29.6275   7.4491180061e+01   7.2023259283e+01    0.1755915    0.1019711  -3.42  0.000950876    1.717    0.418
       407 -11.5117     81.5026     28.0528   3.4040486577e+01   5.9924132368e+01    0.1893512    0.1351384 -29.01 0.0004502709    1.528    0.346
       408 -12.2864    139.3700    247.9792   7.0370430875e+01   5.2658462908e+00    0.2588641    0.2338396 -11.20  0.001222193    1.214    0.176
       409 -10.3125    123.3330     26.2617   2.3176323472e+01   5.0281190853e+01    0.1373776   0.09371921  41.47 0.0002567276    1.575    0.365
       410 -11.9893    162.2325    247.0379   6.5522423723e+01   2.5836684265e+00     0.228022    0.1632126   1.00 0.0007135685    1.273    0.215
       411 -11.9598     45.5476     25.9160   4.7199929442e+01   6.7433974501e+01    0.2471691    0.1791677  42.59 0.0005815381    1.378    0.275
       412 -10.5565    221.3046     25.3088   1.1294263135e+01   2.8275246199e+01    0.1007153   0.08980694  33.12  0.000299959    1.608    0.378
       413 -11.0283    166.1455     22.1832   1.5632506530e+01   4.0478551242e+01    0.1812679     0.161158  70.05 0.0003153979    1.167    0.143
       414 -10.5105    132.5756     21.4926   1.9992669493e+01   4.8561472371e+01    0.1319218     0.118494  82.61 9.955954e-05    1.016    0.015
       415 -10.4609    143.4992     18.5509   1.7441249117e+01   4.6227218981e+01    0.1315107    0.1144311  89.27 0.0001020517    1.027    0.026
       416 -10.5477    131.4629     18.4430   1.9181519951e+01   4.9150951313e+01    0.1321564    0.1165632  79.46 0.0001591547    1.007    0.007
       417 -10.3756     66.2322    250.3734   8.6532568594e+01   1.3761552420e+01    0.1080632   0.08712658 -26.97  0.000442455    1.607    0.378
       418 -10.6802     31.4654     16.0345   4.9540392129e+01   7.1207808866e+01    0.1738385     0.116986 -30.73 0.0003839642    1.508    0.337
       419 -10.3297     55.4653    245.5558   8.8529543261e+01   1.5869812918e+01    0.1206769   0.09923203  41.00 0.0002386225    1.021    0.020
       420 -11.1107    167.7573    243.1213   6.3870191797e+01   2.5020297415e+00    0.1708857    0.1458904  18.61 0.0006110013    1.216    0.178
       421 -11.2856    199.1670    241.5404   5.7583138731e+01  -9.8707628895e-01    0.1671256     0.137149  -8.91 0.0003582478    1.193    0.162
       422 -10.8143    143.0134    242.2397   6.8862886517e+01   5.7392509551e+00    0.1618511   0.08824103  27.63 0.0002906758    1.534    0.348
       423 -10.5185    100.4372    242.5012   7.8206372280e+01   1.1114452024e+01    0.1250496    0.1051361  25.22 -3.46768e-05    1.036    0.034
       424 -12.2958    104.4685    237.4742   7.6743432137e+01   1.1524303372e+01    0.4081116    0.2004193  16.23  0.001803184    2.455    0.593
