#   1 NUMBER                 Running object number                                     
#   2 MAG_AUTO               Kron-like elliptical aperture magnitude                    [mag]
#   3 X_IMAGE                Object position along x                                    [pixel]
#   4 Y_IMAGE                Object position along y                                    [pixel]
#   5 X_WORLD                Barycenter position along world x axis                     [deg]
#   6 Y_WORLD                Barycenter position along world y axis                     [deg]
#   7 A_WORLD                Profile RMS along major axis (world units)                 [deg]
#   8 B_WORLD                Profile RMS along minor axis (world units)                 [deg]
#   9 THETA_WORLD            Position angle (CCW/world-x)                               [deg]
#  10 FWHM_WORLD             FWHM assuming a gaussian core                              [deg]
#  11 ELONGATION             A_IMAGE/B_IMAGE                                           
#  12 ELLIPTICITY            1 - B_IMAGE/A_IMAGE                                       
         1 -11.9416     42.6930     20.9174   8.1668018975e+01   6.7083807072e+01    0.5845729     0.372655  33.21  0.002558287    1.670    0.401
         2 -11.9913    216.1094     13.9809   3.9457913341e+01   2.9568398006e+01    0.4306945    0.3948124  67.53  0.001475736    1.202    0.168
         3 -10.4103     65.1981     11.2227   6.7840126786e+01   6.4906727292e+01      0.15481    0.1470242   0.42 0.0007058512    1.329    0.248
         4 -12.8751    185.2793      3.9211   3.9993393317e+01   3.8049393373e+01    0.7368966     0.491122   6.19  0.003787139    2.143    0.533
         5 -11.3717     57.8541      7.6807   6.8877268793e+01   6.6564269875e+01    0.4158208    0.2800075  16.33  0.002494003    1.352    0.260
         6 -11.9619     43.5758      8.2948   7.5135530557e+01   6.8702792304e+01    0.2897704    0.2234787  24.85 0.0005199469    1.281    0.219
         7 -10.5040    167.8411      8.1806   4.3313332872e+01   4.1987988949e+01    0.1865422    0.1461299  45.84 0.0004494773    1.304    0.233
         8 -10.3830    109.4797      8.5215   5.3664142109e+01   5.6150984499e+01     0.132428     0.117866  38.48  0.000233665    1.034    0.033
         9 -11.2177    165.4690      1.6561   4.1662539440e+01   4.3168689043e+01    0.2745911     0.147579  66.70 0.0009554261    1.616    0.381
        10  -9.7953    104.4532    224.9651   1.0997859720e+02   1.4167085521e+01    0.1738554    0.1208269 -66.88  0.001028149    1.597    0.374
        11 -10.6129     95.8032    225.2067   1.1173292188e+02   1.5411664041e+01    0.2227423    0.1082075  66.05 0.0009582829    2.860    0.650
        12 -11.0419    226.6581    221.3353   8.5449968238e+01  -4.9174696551e+00    0.1658012    0.1528392  60.89  0.001104466    1.728    0.421
        13 -10.8366    149.0051    222.7014   1.0068361867e+02   7.4647360168e+00    0.2815322    0.1689703 -57.48  0.001389659    2.077    0.519
        14  -9.9711    211.1876    217.7835   8.7685002408e+01  -2.0212586195e+00    0.2501921   0.09209616 -44.82  0.001003807    3.495    0.714
        15 -10.6863    239.6499    215.7869   8.2154918040e+01  -6.1170068468e+00    0.2913091   0.09782472 -43.12  0.001109198    4.209    0.762
        16 -10.5198    217.9955    212.1801   8.5428429842e+01  -2.2970580725e+00    0.1650256    0.1467483 -51.43  0.001048151    1.615    0.381
        17 -10.4096    115.7624    209.5084   1.0571127409e+02   1.5360683434e+01    0.2653501    0.1600789 -76.23  0.001285678    2.198    0.545
        18 -10.3975      5.3608    200.8658   1.2736343681e+02   3.1115056839e+01    0.1551575    0.1062314  64.07 0.0007041609    1.197    0.165
        19 -10.2776    149.3077    198.6448   9.6885438844e+01   1.1772257285e+01    0.1386167     0.105551  74.47 0.0007042314    1.722    0.419
        20 -10.4085     48.4067    200.6291   1.1888151816e+02   2.6742104007e+01     0.243974   0.09701863 -88.07 0.0009589792    3.439    0.709
        21 -12.2385    159.4923    191.3714   9.3438410651e+01   1.1326487623e+01    0.7349546    0.5154572  82.92  0.003301244    2.484    0.597
        22 -10.5877    183.1319    183.0456   8.6858378875e+01   8.5080856254e+00    0.3418411    0.2060092 -40.65  0.001622494    1.728    0.421
        23  -9.8541    224.0000    183.0548   7.8793320820e+01   1.1320709286e+00    0.2181562   0.07196376 -37.33 0.0008050461    2.961    0.662
        24  -9.8720    215.0000    193.0467   8.2447117532e+01   1.0921227058e+00    0.2122099   0.07271817 -38.26 0.0008043209    2.956    0.662
        25  -9.6211    191.5047    178.0006   8.4126320568e+01   7.8553161161e+00    0.1918181    0.1258769 -64.33 0.0008105541    2.565    0.610
        26  -9.5157     28.4998    176.5728   1.2095806524e+02   3.4187590262e+01    0.1201912   0.09870572 -89.76 0.0001642212    1.068    0.063
        27 -10.0828     38.6510    174.7085   1.1852526700e+02   3.3560820508e+01    0.1168762   0.09062724 -43.85 0.0004264623    1.669    0.401
        28 -10.3513     34.3230    173.6573   1.1939634385e+02   3.4256697438e+01    0.1343238   0.07682811  69.85  0.000624284    1.730    0.422
        29 -11.5749     55.5267    167.8631   1.1384292525e+02   3.3204747176e+01    0.5327796    0.2695516  85.58  0.002258118    2.619    0.618
        30 -10.4855    120.8280    168.9754   9.8199022759e+01   2.3023640306e+01    0.2411691     0.167148 -88.55  0.001084597    1.982    0.495
        31 -10.1223     44.3542    168.3116   1.1653905617e+02   3.4406130848e+01    0.1238282   0.09217978 -41.68 0.0007044491    1.730    0.422
        32 -11.5777    106.3050    157.5263   9.9675933742e+01   2.8177672873e+01    0.6789153    0.4435847  89.42  0.002915527    2.193    0.544
        33 -10.2402     92.6572    160.3228   1.0360266079e+02   2.9774301742e+01    0.1512787    0.1038607  72.89 0.0007050514    1.729    0.422
        34 -10.6716     51.8674    159.7337   1.1370997046e+02   3.5555583980e+01    0.2569543    0.1484064  79.75  0.001224595    2.004    0.501
        35 -10.5303     22.5466    159.5326   1.2074118775e+02   3.8639866676e+01    0.2148601     0.086038  43.53  0.001035223    2.449    0.592
        36 -10.8683    167.4928    157.4636   8.4983678255e+01   1.6507472855e+01    0.3324173    0.2373496  86.01   0.00137765    2.421    0.587
        37 -11.0959    118.0326    157.0300   9.6646175404e+01   2.6224519962e+01      0.29836    0.2428933 -56.42 0.0008565917    1.227    0.185
        38  -9.7900    196.0000    156.9854   7.8773367113e+01   1.0849374977e+01    0.2439554   0.08125475 -40.32 0.0008051023    2.961    0.662
        39 -10.0943    218.1881    155.7972   7.4161839274e+01   6.7287321684e+00     0.321128   0.09544477 -43.17  0.001022509    3.520    0.716
        40  -9.7052     40.6099    153.2491   1.1569201629e+02   3.8353556252e+01    0.1787183    0.1014303 -62.03 0.0004745934    1.553    0.356
        41  -9.8180     23.4729    153.5453   1.1993275478e+02   3.9949812178e+01    0.1252226   0.09961061 -88.91 8.289277e-05    1.028    0.027
        42 -10.5980    189.7848    150.3191   7.8569962768e+01   1.3370955729e+01      0.35563    0.1961875 -53.48  0.001406434    2.293    0.564
        43 -10.3306    148.9418    145.4522   8.6627986891e+01   2.2829903883e+01    0.3149542    0.1987851 -83.53  0.001042692    3.531    0.717
        44 -10.8367    106.8213    145.4097   9.7211441121e+01   3.0929947724e+01    0.4489176     0.261256  81.82  0.001457955    3.836    0.739
        45 -10.0513    181.7189    141.7418   7.8307991958e+01   1.6732825821e+01    0.3059547    0.1808189 -60.22  0.001162116    2.486    0.598
        46 -10.4517     82.6712    131.2543   1.0091140333e+02   3.8304872909e+01    0.3719786    0.1808146 -70.65  0.001365027    2.690    0.628
        47 -12.1558     99.4982    128.6904   9.5664967801e+01   3.6183957651e+01    0.7637382    0.4700204  77.96  0.002802629    2.999    0.667
        48 -11.0772     43.1807    122.7213   1.1067704263e+02   4.5459476291e+01    0.4674257    0.2252897 -83.56  0.001861804    2.783    0.641
        49 -11.2119     26.9497    120.6870   1.1505483948e+02   4.7477789112e+01     0.489742    0.2197528  83.08  0.001757468    3.963    0.748
        50 -11.5099    193.1948    118.1134   7.0156838971e+01   1.8860701562e+01    0.6061562    0.4716237 -71.81  0.002838267    1.685    0.407
        51 -10.5705     14.9146    120.6348   1.1846264321e+02   4.8425543928e+01    0.2796396    0.1614263  12.71  0.001531297    2.383    0.580
        52 -10.5731    108.5407    112.9315   8.9387129622e+01   3.8268226116e+01    0.4894283    0.2421936 -64.38   0.00161398    3.123    0.680
        53 -10.8414     78.4979    112.5098   9.8117687100e+01   4.3471120818e+01    0.4178053    0.2513556 -89.21  0.001537449    3.145    0.682
        54 -11.9235    160.0389    111.7563   7.5695989579e+01   2.7645462291e+01    0.5104116    0.3769684 -60.21  0.002286572    1.572    0.364
        55 -10.5231     91.7924    111.1598   9.3811286936e+01   4.1672917789e+01    0.4683939     0.199125 -61.61  0.001562444    3.006    0.667
        56 -11.1006    174.2193    110.8157   7.2245640642e+01   2.4593370164e+01    0.4091242    0.2723282 -49.19  0.001013319    1.556    0.358
        57 -11.3311     14.2550    109.2571   1.1715913764e+02   5.1171178722e+01    0.5969435     0.268037 -79.58  0.002797177    2.133    0.531
        58 -12.5763    140.7830    103.2407   7.8075137459e+01   3.3768247658e+01    0.7560173    0.4411153 -46.37  0.003092608    1.705    0.413
        59 -12.0029     44.6268    101.0085   1.0624627952e+02   5.0554640476e+01    0.6581658    0.3781397 -88.05   0.00282985    2.619    0.618
        60 -12.0869    127.5794    100.7862   8.0847914604e+01   3.7169428018e+01    0.5645562    0.2995415 -56.27  0.002078569    2.314    0.568
        61 -12.7514    109.0562     99.8689   8.5778521603e+01   4.1146053458e+01    0.9831071    0.5928741  64.87  0.003691749    2.699    0.629
        62 -10.7233     94.5577     96.9914   8.9308938015e+01   4.4481435644e+01    0.3148031    0.1940478 -65.95  0.001294282    2.122    0.529
        63 -10.9088     62.7305     95.7274   9.9131344937e+01   4.9677590916e+01    0.2872016     0.169361 -78.10  0.001175291    2.573    0.611
        64 -12.3840    170.2847     91.1002   6.7720694335e+01   2.9357599800e+01    0.4502378    0.4000695 -57.74  0.001302874    1.174    0.148
        65 -10.7570     34.2938     88.8075   1.0714842635e+02   5.4437488898e+01    0.3041044    0.1521847 -72.76  0.001358585    2.219    0.549
        66 -11.3192     87.2925     87.4974   8.8915350807e+01   4.7866415359e+01    0.3745355    0.2465258  61.46  0.001627628    2.221    0.550
        67 -11.2198     46.5449     82.8077   1.0147172097e+02   5.4606334223e+01    0.5851392    0.3554877  76.99  0.002336149    3.534    0.717
        68 -10.9026    104.7995     83.6038   8.2310684994e+01   4.5510221821e+01    0.3617554    0.2611843  79.09  0.001540661    2.274    0.560
        69 -10.2257    140.6072     82.8159   7.2185254687e+01   3.7970787636e+01    0.2334419    0.1415567 -48.82 0.0009551382    1.754    0.430
        70 -10.7466     23.9982     80.4651   1.0899452817e+02   5.7214698532e+01    0.2753185    0.1494437 -82.21  0.001268509    2.461    0.594
        71 -11.0611     62.6120     74.8275   9.3560590509e+01   5.4423380509e+01    0.3447752    0.1622907 -56.73   0.00142924    2.215    0.548
        72 -11.1175     82.6224     73.6214   8.6250818538e+01   5.1636725701e+01    0.4421633    0.2890089 -80.95  0.001624067    3.572    0.720
        73 -12.1469    223.0076     70.7385   5.2871961015e+01   2.0339440565e+01    0.2891918    0.2522624 -60.85 0.0004469189    1.106    0.096
        74 -10.2701    115.9942     73.2490   7.5762143633e+01   4.5316806605e+01    0.2692694    0.1655091 -70.98 0.0008972283    3.548    0.718
        75 -10.5857     52.0114     70.9872   9.6294189320e+01   5.6612420200e+01    0.2142992    0.1843527 -39.31 0.0009815191    1.025    0.025
        76 -11.5856     20.8031     51.6342   1.0308362295e+02   6.3739895747e+01    0.6443145    0.2302495 -55.09  0.002949501    2.195    0.544
        77 -11.0969     28.4676     52.3524   1.0004149237e+02   6.2971542009e+01    0.4763472    0.2736207 -11.54  0.001727873    2.145    0.534
        78 -13.4376     28.7573     60.2547   1.0223808589e+02   6.1300326558e+01     1.131625    0.5812376  22.22  0.003018479    2.251    0.556
        79 -12.8841    231.6271     59.1352   4.8838039779e+01   2.0141489229e+01    0.7215669    0.3942622 -66.37 0.0006661641    2.449    0.592
        80 -10.5269     41.9261     62.7903   9.7725112373e+01   5.9504023003e+01    0.2150886    0.1767981  47.32 0.0006864226    1.582    0.368
        81 -11.4048      9.1002     56.4607   1.0929078817e+02   6.3490279777e+01    0.4410271    0.3153223 -86.21   0.00272191    1.781    0.438
        82 -10.0794    119.3216     56.6410   6.9257990046e+01   4.7605034551e+01    0.1510439    0.1183227 -71.58 0.0007043987    1.769    0.435
        83 -11.5146     19.6007     59.3710   1.0571576408e+02   6.2204299208e+01    0.2853721    0.2314994 -23.72 0.0009034236    1.218    0.179
        84 -10.1335    161.0035     53.0000   5.8312852366e+01   3.8206800195e+01    0.2517012   0.08329086  58.17 0.0008055003    2.964    0.663
        85 -11.2277    148.6998     52.1307   6.0584661409e+01   4.1393101418e+01    0.2566854    0.2049144  68.37 0.0005366077    1.328    0.247
        86 -11.7569     71.8390     42.5778   7.9068931815e+01   5.9312421743e+01    0.5949467    0.2985939  50.93  0.002519818    2.769    0.639
        87 -10.6617     10.2712     43.6535   1.0538428311e+02   6.6075803715e+01    0.2451607    0.1754783   7.88 0.0009263108    1.591    0.371
        88 -11.0870      5.8048     42.8034   1.0716045093e+02   6.6500811605e+01    0.3279023    0.2213919 -85.47  0.001927833    2.183    0.542
        89 -11.9466     40.8816     37.7887   8.9621686117e+01   6.4520761631e+01    0.5350635    0.3200659  10.35  0.001719492    1.925    0.480
        90 -11.7631    120.5644     34.5307   6.1003885865e+01   5.0669811858e+01    0.3149742    0.2505403  52.51 0.0004951947    1.223    0.182
        91 -11.3871     50.4090     34.7372   8.4322533010e+01   6.3858086096e+01    0.2664208     0.206074  20.77  0.000341377    1.310    0.237
        92 -10.4445     73.5218     32.5085   7.4364507831e+01   6.0630000493e+01    0.2754852    0.1979792  74.04   0.00127134    2.923    0.658
        93 -10.3343    104.8084     30.3702   6.3546700393e+01   5.4760573858e+01    0.3059728    0.1273378  50.45 0.0008546364    2.241    0.554
        94 -10.0500    101.3435     29.6698   6.4242663896e+01   5.5599233880e+01    0.3389382    0.1136046 -36.48  0.001238184    3.041    0.671
        95 -11.8400    220.9711    248.2928   9.0876729945e+01  -7.5106969578e+00    0.4565613    0.2553355  41.83  0.002675057    1.797    0.444
        96  -9.9592     46.7021     16.6418   7.7885474341e+01   6.7155933906e+01    0.1938456    0.1399896  -3.48  0.001100257    1.213    0.175
        97 -11.0434    239.2430     20.5522   3.8902282804e+01   2.3534587856e+01    0.2659674    0.2003858 -86.78 0.0006619489    1.247    0.198
        98 -11.6802    202.6750     21.0020   4.2643057310e+01   3.2001251265e+01    0.2664944    0.1724887 -75.30  0.001343861    1.646    0.393
        99  -9.5523    187.9539    248.3390   9.6857436362e+01  -2.6640698456e+00     0.199466   0.08043443  23.78 0.0007027159    4.230    0.764
       100  -9.9904     89.3340     18.3134   6.3057635390e+01   5.9508065977e+01    0.2575895    0.1710821  77.33  0.001180722    2.690    0.628
       101 -12.2906     21.9492    238.9501   1.2647281439e+02   2.2109770802e+01    0.4562749    0.1939021  67.03  0.002561944    2.036    0.509
       102 -10.7263      8.0007    240.5105   1.2884562087e+02   2.3227474848e+01     0.144354   0.08385482  44.03 0.0005866314    1.577    0.366
       103 -10.1373      2.4315    240.1944   1.2972634900e+02   2.3814065740e+01    0.1432855   0.06977222  80.30 0.0005819818    1.633    0.388
       104  -9.7418    109.5493    232.5794   1.0983920319e+02   1.2005022038e+01     0.124579    0.1001416  55.11 4.661333e-05    1.047    0.045
       105  -9.6232     71.7042    228.6672   1.1678650336e+02   1.8135320168e+01    0.1026324   0.09337538 -31.21   0.00034093    1.641    0.391
       106 -10.7568     12.6328    227.4740   1.2746460458e+02   2.5185374251e+01    0.1942309    0.1235081  77.72 0.0005988302    1.191    0.161
