#   1 NUMBER                 Running object number                                     
#   2 MAG_AUTO               Kron-like elliptical aperture magnitude                    [mag]
#   3 X_IMAGE                Object position along x                                    [pixel]
#   4 Y_IMAGE                Object position along y                                    [pixel]
#   5 X_WORLD                Barycenter position along world x axis                     [deg]
#   6 Y_WORLD                Barycenter position along world y axis                     [deg]
#   7 A_WORLD                Profile RMS along major axis (world units)                 [deg]
#   8 B_WORLD                Profile RMS along minor axis (world units)                 [deg]
#   9 THETA_WORLD            Position angle (CCW/world-x)                               [deg]
#  10 FWHM_WORLD             FWHM assuming a gaussian core                              [deg]
#  11 ELONGATION             A_IMAGE/B_IMAGE                                           
#  12 ELLIPTICITY            1 - B_IMAGE/A_IMAGE                                       
         1 -13.8963    179.8222     53.7810   5.1069609358e+01   3.3058394166e+01     1.451408    0.8635178  35.46  0.004486057    2.336    0.572
         2 -14.4612    195.3473     40.7182   4.5685205138e+01   3.1236010396e+01    0.9908044    0.8585163  45.90  0.004794605    1.350    0.259
         3 -13.8608    200.3797     34.8335   4.3696224603e+01   3.0835430514e+01    0.6604805    0.5426151  70.40  0.001578323    1.235    0.190
         4 -14.1935    224.6223      8.2404   3.5727660379e+01   2.8611770979e+01     0.830039    0.6901731 -56.09  0.004415471    1.122    0.109
         5 -12.8276    219.0054      9.7722   3.6417874335e+01   2.9596799244e+01    0.6965119    0.1317397 -37.62  0.002836881    3.444    0.710
         6 -12.2571     75.5526     13.5276   5.9420396576e+01   6.2837576433e+01    0.5210871    0.2536684  70.50  0.001801862    3.427    0.708
         7 -13.9625     53.0812      3.8285   6.2645063889e+01   6.8495444000e+01    0.9350752    0.4259339  53.99     0.004402    2.109    0.526
         8  -8.9969     59.8850    219.6503   1.1632860633e+02   2.0512167489e+01     0.264996    0.1737807 -41.66  0.001296526    1.932    0.482
         9 -19.4573     14.9990    145.0298   1.2125485273e+02   4.2777460346e+01     20.08435     6.722663 -81.93    0.0712203    3.245    0.692
        10 -10.7921     41.7179    208.0879   1.1967628247e+02   2.5064553290e+01    0.2313866    0.1459577  61.57 0.0008604815    1.554    0.357
        11 -10.6309     65.7230    207.2388   1.1366555072e+02   2.2496415063e+01    0.2313476    0.2222397   3.17  0.001401647    1.159    0.138
        12 -10.9780     89.6557    211.7763   1.0823301918e+02   1.8390956351e+01    0.2586559    0.2178062  74.72 0.0008096248    1.346    0.257
        13 -10.0096     93.5148    205.3558   1.0644078359e+02   1.9230067037e+01    0.2674493    0.1293656  25.57  0.001012624    2.056    0.514
        14 -11.2255     96.2862    201.9720   1.0527782696e+02   1.9570299046e+01    0.2806284    0.2106576 -46.92   0.00129224    1.452    0.311
        15 -11.8900    193.3866    195.6057   8.1460402626e+01   5.8541306452e+00    0.9376293    0.5187936 -61.25  0.002923152    6.299    0.841
        16 -11.6004     63.4835    201.4515   1.1360430568e+02   2.4068114239e+01    0.2712984    0.2074238 -51.71  0.001071753    1.437    0.304
        17 -10.6613     67.4605    196.2237   1.1198277159e+02   2.4766537191e+01    0.3426066    0.2604136 -67.18   0.00190214    1.385    0.278
        18 -11.0639     39.1432    199.9213   1.1961947071e+02   2.7177449887e+01    0.2226992     0.158233  40.33 0.0004487411    1.283    0.221
        19 -11.2833    204.8251    199.6758   7.9937503613e+01   3.5199181963e+00    0.2587512    0.1064779  26.79  0.001088765    2.587    0.613
        20 -13.1756     53.2110    195.9160   1.1565553009e+02   2.6559836847e+01    0.6173373    0.3031327 -40.49  0.002572636    2.833    0.647
        21 -12.2187     63.2948    249.8023   1.1812826081e+02   1.4140227324e+01    0.2769021    0.1549266  45.35  0.001593279    1.478    0.323
        22 -12.9054    131.8780    193.6589   9.5011981337e+01   1.5913354575e+01    0.4868515    0.2290061  29.04  0.001984737    2.048    0.512
        23  -9.7712     58.6416    250.0164   1.1913717845e+02   1.4633387926e+01    0.1450948    0.1102861 -73.88 0.0003403901    1.523    0.343
        24 -11.3988    151.5018    193.4868   9.0253025872e+01   1.2791311161e+01    0.2826893    0.2332521   3.16  0.001285537    1.130    0.115
        25 -12.8825    147.8200    187.8137   9.0093064885e+01   1.4514594550e+01    0.6074665    0.3717498 -59.56  0.002512317    2.259    0.557
        26 -12.3657     98.9061    181.0544   1.0144215833e+02   2.3884926873e+01    0.4408278    0.2772763  23.95   0.00160564    1.611    0.379
        27 -10.3828     82.2287    194.9641   1.0795654844e+02   2.3107169962e+01    0.2745022    0.2685773 -22.45  0.001678582    1.100    0.091
        28 -10.9704     92.1151    184.1528   1.0377109704e+02   2.4187588904e+01    0.2943847    0.2039755  30.91 0.0006391215    1.357    0.263
        29 -10.6178    184.4814    212.4883   8.6319875686e+01   4.3379281783e+00     0.133785    0.1092125   3.57 3.944525e-05    1.019    0.019
        30 -11.6981    186.9849    175.3431   7.8866150033e+01   1.0405886352e+01    0.3768353    0.2939417 -35.31  0.001123808    1.274    0.215
        31 -10.8780    148.6474    175.3152   8.7515339951e+01   1.6920288985e+01    0.2349747    0.2281348 -88.58 0.0007160913    1.294    0.227
        32 -11.4700    146.5802    171.8387   8.7330943294e+01   1.8001329833e+01    0.2800086    0.2729762 -56.07 0.0007808083    1.227    0.185
        33 -11.4843     84.3606    173.7630   1.0429627310e+02   2.7782346762e+01    0.2789977    0.2306374 -11.67 0.0001960355    1.380    0.275
        34 -10.1339     57.3200    211.4221   1.1616942518e+02   2.2585267987e+01    0.2212372    0.1892857  52.43 0.0006034128    1.047    0.045
        35  -9.4806     55.3457    206.4362   1.1617295463e+02   2.3918140315e+01    0.2939009    0.1756284 -87.02  0.001468167    1.940    0.485
        36  -9.4352    193.3320    170.2870   7.6539861872e+01   1.0271270401e+01     0.143971   0.09856696  -1.60 0.0003563566    1.621    0.383
        37 -11.1025    240.4859    169.4796   6.7848420429e+01   3.2322508283e+00    0.1269869   0.09982344 -17.65 -2.261907e-05    1.010    0.010
        38 -10.8028    184.9783    167.9670   7.7785355658e+01   1.2090527001e+01    0.2231951    0.1946127  -9.13 0.0006221106    1.015    0.015
        39 -10.4746    137.3190    167.4355   8.8763331278e+01   2.0567582646e+01    0.3661678    0.1372274  38.66  0.001274392    2.561    0.609
        40 -11.6224     53.3154    172.6639   1.1298044683e+02   3.2131677652e+01    0.3466589    0.2509021  66.72  0.000567598    1.483    0.326
        41 -13.0432     94.1564    150.7451   9.7365737714e+01   3.1894862744e+01    0.7553512    0.6149297  -2.30  0.003727408    1.378    0.274
        42 -11.9558    133.6853    145.0090   8.4919396031e+01   2.6176771085e+01     1.238155    0.3132602 -53.08  0.002775579    6.365    0.843
        43 -10.8937    112.6078    150.9106   9.2011342482e+01   2.8710047633e+01    0.2924472    0.2200278  41.44 0.0004392802    1.336    0.251
        44 -10.3586    174.9577    149.2866   7.5929632995e+01   1.7420691442e+01    0.2066066    0.1852132  11.23 0.0004660539    1.078    0.072
        45 -11.7749    106.1701    137.0881   9.0874342602e+01   3.3151341749e+01     0.602658    0.3225042 -30.08  0.002132285    2.600    0.615
        46 -11.5734    106.0762    130.9147   8.9478312702e+01   3.4644259179e+01    0.4188615    0.3567836 -55.76  0.001206258    1.240    0.194
        47 -12.3655     93.8860    136.9069   9.4579898787e+01   3.5346671598e+01    0.3110723    0.2771552 -25.14 0.0004047613    1.137    0.121
        48 -10.7768    136.0000    129.0015   8.0527575408e+01   2.9261388573e+01    0.4281798   0.08824269 -45.50  0.001041695    4.847    0.794
        49 -11.4342    113.8534    128.7600   8.6646051866e+01   3.3691836676e+01    0.3560277    0.2714728  19.59 0.0007734898    1.406    0.289
        50 -11.0487    164.1398    209.8521   9.0233079266e+01   7.7724708565e+00    0.1998063     0.145383  -0.58 0.0007033647    1.351    0.260
        51 -11.1277    101.2710    124.6139   8.9446213424e+01   3.7032358330e+01    0.2974263    0.2446704 -15.55 0.0004103089    1.323    0.244
        52 -11.3012    119.8117    123.0198   8.3495772431e+01   3.3849640168e+01    0.3481903    0.2592137   7.73  0.001539623    1.636    0.389
        53 -10.2774    135.0000    120.0065   7.8532033824e+01   3.1420677453e+01    0.2594865   0.08848081 -44.30 0.0006998896    2.926    0.658
        54  -9.8736     75.2487    220.4785   1.1274354830e+02   1.8457480515e+01    0.2228087    0.1186556  26.53 0.0007067346    1.769    0.435
        55 -10.1887    109.4577    118.0337   8.5281605784e+01   3.7032849198e+01    0.2279177    0.2068207  27.39 0.0002118263    1.086    0.079
        56 -10.7536    231.3842    113.7773   5.7854212886e+01   1.3365748780e+01    0.2337405     0.210296 -24.71 0.0007698616    1.076    0.071
        57 -10.0563    167.7753    112.7484   6.8809188704e+01   2.5954283652e+01    0.2447232    0.1770431 -77.50  0.001050508    2.187    0.543
        58 -12.1834    118.2163    109.7278   8.0480175596e+01   3.7151378385e+01    0.5642911    0.4343866  68.75  0.002530684    1.731    0.422
        59 -10.1953    205.5342    110.2077   6.1037389987e+01   1.8694088190e+01     0.227305    0.1964826  48.86  0.000608089    1.288    0.223
        60 -16.5574     69.1379    143.8842   1.0381621731e+02   3.7409910306e+01     10.41446     5.245984  73.60   0.02486346    7.077    0.859
        61 -10.9748     66.3101    104.4334   9.6365464281e+01   4.7819675837e+01    0.2876225    0.1506161  24.22   0.00113747    2.083    0.520
        62  -9.8353     53.2722    219.7107   1.1789983866e+02   2.1265324629e+01    0.1671656    0.1040499  26.74 0.0007897891    1.541    0.351
        63 -11.8592     49.0303    216.5121   1.1862889811e+02   2.2425998616e+01    0.3334422    0.2685179  66.90  0.002100542    1.176    0.149
        64  -9.4514    156.2918     82.6701   6.3236569518e+01   3.4038132692e+01    0.1506118     0.115609 -70.92 0.0003044293    1.626    0.385
        65  -9.9405     63.1300    214.1356   1.1501780956e+02   2.1304251112e+01     0.173846    0.1599968  31.71 0.0003137248    1.104    0.094
        66  -9.8768     75.7578    247.6638   1.1525730658e+02   1.3059778873e+01    0.1085935   0.08966959 -18.38 0.0002824575    1.550    0.355
        67 -10.8466     71.9616    245.0569   1.1585837481e+02   1.4001554047e+01    0.2243303    0.1650571 -60.73  0.001423676    1.606    0.377
        68 -11.7332    198.3107     23.3180   4.1143221681e+01   3.2596924168e+01    0.2325336    0.2272957 -16.26  0.001004258    1.272    0.214
        69 -10.0844    250.6815    237.3143   7.8189059004e+01  -7.3164651054e+00    0.0931844    0.0814322  -5.01 0.0002438215    1.650    0.394
        70 -11.2852     78.8687    236.3266   1.1351022653e+02   1.4817627811e+01    0.2499213    0.2023315 -38.27  0.001479601    1.509    0.337
        71  -9.7017    189.6126     15.1906   3.9988541915e+01   3.5389036452e+01    0.1541689     0.119464 -16.31 0.0006275647    1.609    0.379
        72  -9.6110     57.5355    225.4388   1.1740110351e+02   1.9575605158e+01    0.2123802    0.1143797  88.36  0.001016074    2.416    0.586
