#   1 NUMBER                 Running object number                                     
#   2 MAG_AUTO               Kron-like elliptical aperture magnitude                    [mag]
#   3 X_IMAGE                Object position along x                                    [pixel]
#   4 Y_IMAGE                Object position along y                                    [pixel]
#   5 X_WORLD                Barycenter position along world x axis                     [deg]
#   6 Y_WORLD                Barycenter position along world y axis                     [deg]
#   7 A_WORLD                Profile RMS along major axis (world units)                 [deg]
#   8 B_WORLD                Profile RMS along minor axis (world units)                 [deg]
#   9 THETA_WORLD            Position angle (CCW/world-x)                               [deg]
#  10 FWHM_WORLD             FWHM assuming a gaussian core                              [deg]
#  11 ELONGATION             A_IMAGE/B_IMAGE                                           
#  12 ELLIPTICITY            1 - B_IMAGE/A_IMAGE                                       
         1  -9.1110     17.6923     18.2711   1.2529741127e+02   7.1677118587e+01    0.4484133    0.2157644 -27.84  0.002116384    2.504    0.601
         2  -8.5645    130.3921     12.7941   7.8670484226e+01   5.1137691845e+01    0.4310328    0.1617908 -28.64  0.001575903    2.549    0.608
         3  -8.2696     72.3936      8.9026   9.2764104377e+01   6.5354119050e+01     0.413606    0.1938181  25.17  0.001368781    3.743    0.733
         4  -9.0682     80.2153     12.4298   9.1795677510e+01   6.3249324186e+01    0.4536511    0.2340011 -45.90  0.001713843    2.370    0.578
         5  -8.7693     77.5146      6.0082   8.9335248351e+01   6.4667429449e+01    0.4023208      0.24381   6.87  0.001815486    2.124    0.529
         6 -10.2888     50.2508     11.6654   1.0385982976e+02   6.8975093589e+01    0.3141353    0.2797025 -55.38 0.0005341649    1.414    0.293
         7  -9.5486    105.8313     10.1343   8.3006726340e+01   5.7665993154e+01    0.3204625    0.2560725  34.59  0.001709855    1.208    0.172
         8  -8.8313    109.6128      8.2254   8.1187299516e+01   5.6948010117e+01    0.1989615    0.1338967  -3.51 0.0004619659    1.643    0.392
         9  -8.4769     41.2786      7.8839   1.0636372766e+02   7.0973857890e+01     0.212894      0.16919 -54.89 0.0008153375    1.587    0.370
        10  -7.9604     92.7504      9.5862   8.6322910107e+01   6.0841097203e+01    0.1967515    0.1379393  70.04 0.0009596421    1.711    0.415
        11  -8.7812     28.0109      8.2334   1.1423461046e+02   7.2642426944e+01    0.3083314     0.110008 -48.02  0.001329299    2.461    0.594
        12  -7.3565    155.6297      7.2224   7.2234302409e+01   4.4992028029e+01    0.2012943    0.1380622  -2.14 0.0009460104    1.659    0.397
        13  -8.7472     57.3568      6.1478   9.7398425119e+01   6.8622450175e+01    0.3167981    0.2281686 -88.44  0.001428658    3.160    0.683
        14 -10.5880     60.0884      2.8282   9.4244847075e+01   6.8583029588e+01    0.2714428    0.2261653 -17.49 0.0002798587    1.111    0.100
        15  -9.4524     14.5745      3.0019   1.2028227020e+02   7.4979977289e+01     0.458223    0.2026843 -38.57  0.001995147    1.967    0.492
        16  -7.8208     18.4643      2.5234   1.1730094863e+02   7.4708662879e+01     0.122734   0.09760084 -30.05 7.792742e-05    1.021    0.021
        17  -9.4625    105.3756      3.5876   8.0014464277e+01   5.8489976628e+01    0.3259285    0.2607015 -11.48  0.001764641    1.263    0.208
        18  -8.3185     75.4390      3.2530   8.8538248770e+01   6.5447966584e+01    0.1810967     0.121166 -34.40 0.0005579874    1.530    0.346
        19  -7.3216     51.6898      3.2781   9.8319865033e+01   7.0035559684e+01    0.1156701     0.103674 -63.70 0.0002612292    1.559    0.359
        20  -8.2555     67.7342      1.7864   9.0525174400e+01   6.7224444387e+01    0.1696176    0.1543349 -44.35 0.0004379074    1.321    0.243
        21  -8.5047     39.8767      2.1184   1.0369472398e+02   7.2113041418e+01    0.2580247    0.1314348  35.40 0.0009225442    2.082    0.520
        22  -8.0260    116.2897      1.4080   7.6578530568e+01   5.5951212236e+01     0.191163    0.1364286  78.65 0.0006154733    1.542    0.351
        23  -7.3361     88.2937      1.3461   8.3389423088e+01   6.2811891294e+01    0.1486624    0.0958713  23.20 0.0005020295    1.667    0.400
        24  -9.4514    233.6549    240.0114   1.1392945529e+02  -1.4142722949e+00    0.1986401    0.1192976  14.72 0.0009272679    1.360    0.265
        25 -10.0251    241.4071    239.2668   1.1265556424e+02  -2.3239386185e+00    0.3220426    0.1501118  21.42  0.002024481    1.850    0.459
        26 -10.5831    237.5131    248.7716   1.1450931680e+02  -2.6242184818e+00    0.5798039    0.2179961  33.82  0.003547619    1.913    0.477
        27  -9.8389    237.0093    243.0229   1.1382551451e+02  -2.0898280688e+00    0.2034677    0.1314874  10.66  0.001225464    1.250    0.200
        28  -9.7578    241.6811    243.8098   1.1323042560e+02  -2.7316936684e+00    0.2651805    0.1093818  32.08  0.001671001    1.761    0.432
        29  -9.4477    246.1299    242.8603   1.1244173812e+02  -3.1983797511e+00    0.2634599    0.1633072 -35.36  0.001921456    2.465    0.594
        30  -9.1065    249.0349    249.7129   1.1293237029e+02  -4.0836624513e+00    0.2859074    0.1453052  26.29  0.002069357    1.376    0.273
        31  -9.0923    249.9704    245.0181   1.1216893999e+02  -3.8321565966e+00    0.2841277    0.1275147  -3.38  0.001603971    3.037    0.671
        32  -9.1613    226.4804    250.2588   1.1636604054e+02  -1.3858356063e+00     0.186606   0.09808858  30.52  0.000746542    1.334    0.250
        33  -8.7395    212.1164    246.1231   1.1806795897e+02   8.0408034428e-01    0.1659169    0.1160371   6.00 0.0007438374    1.348    0.258
        34 -10.3343    210.2686    249.9845   1.1883892249e+02   6.9022002650e-01    0.8602445    0.1206329  41.20  0.002822619    6.449    0.845
        35  -9.8746    218.1850    248.7559   1.1745109855e+02  -2.1178143981e-01     0.293613    0.1829875  23.45  0.002084085    1.147    0.128
        36  -9.4125    187.1857    244.8208   1.2192092335e+02   4.2234636152e+00    0.1811785    0.1373854 -11.71  0.001436101    1.554    0.356
        37  -9.4861    185.9832    249.6085   1.2267810901e+02   3.8969585522e+00    0.3324646     0.146835  45.41  0.001948185    2.142    0.533
        38  -9.7887    180.8681    249.1357   1.2345992642e+02   4.6235890628e+00    0.2897415    0.1128795  35.98  0.001429568    1.847    0.459
        39  -9.0145    143.8722    249.2177   1.2965659081e+02   9.5458217216e+00    0.2138154    0.1501329   7.00  0.001519017    1.925    0.481
        40  -8.1635     19.6704    241.3328   1.5038674943e+02   2.5111786836e+01    0.1058143   0.04302346  56.83 0.0004776767    1.721    0.419
        41  -8.8297    201.5137    239.8690   1.1897255862e+02   2.7987722761e+00    0.1795016    0.1091821  21.85 0.0009381463    1.357    0.263
        42  -9.0781    187.2284    239.5854   1.2128300885e+02   4.7617891593e+00    0.2101678      0.13304  24.65 0.0007727693    1.278    0.218
        43 -10.1713    188.7345    232.6070   1.2016033241e+02   5.2989297933e+00    0.3861899    0.2395657 -42.49  0.002635249    2.238    0.553
        44  -8.1337    153.7718    240.4328   1.2705607334e+02   9.2540618767e+00    0.1550901   0.07885754  31.09 0.0004950718    1.638    0.389
        45  -7.3217    138.5143    240.4890   1.2971263248e+02   1.1324782382e+01    0.1091585   0.07942306  39.12 -4.996204e-05    1.014    0.014
        46  -9.4837    248.9039    237.8131   1.1133864272e+02  -3.1300936210e+00    0.2789575    0.1404772  12.34  0.001805095    1.897    0.473
        47  -7.5491    214.7974    239.3878   1.1677953477e+02   1.0780045841e+00    0.1490032   0.07128353  29.56 0.0004679931    1.579    0.367
        48  -9.0110    183.5567    235.7090   1.2142098691e+02   5.6814235452e+00    0.2848751     0.159536 -13.83  0.001369168    2.833    0.647
        49  -7.4184     78.3293    238.2810   1.4016363798e+02   1.9354393761e+01   0.09130753    0.0736739  20.96 0.0004445064    1.603    0.376
        50  -9.9571      5.0214    234.5582   1.5261456548e+02   2.7445635410e+01    0.3073533   0.08752363  39.73  0.001898439    2.217    0.549
        51  -7.3681    221.2940    237.3533   1.1548500133e+02   4.1339407411e-01    0.1085352   0.06168302  13.29 0.0004098586    1.684    0.406
        52  -8.1893    194.9016    236.8434   1.1967115197e+02   4.0001753868e+00    0.1633534    0.1098005  18.49 0.0006413702    1.286    0.223
        53  -9.9328    171.8652    245.6628   1.2455808717e+02   6.1971652488e+00    0.2410157    0.1458866  27.07 0.0009198711    1.355    0.262
        54  -8.5109    159.8037    235.6897   1.2548532007e+02   8.9872078922e+00    0.2522518    0.1308762  25.82  0.001151368    1.933    0.483
        55  -8.3637    244.1136    235.0522   1.1166624775e+02  -2.3093711380e+00    0.1625662   0.09697267  15.18 0.0005665834    1.309    0.236
        56  -8.0343    204.6603    234.4534   1.1776201896e+02   2.9130630100e+00    0.1614249    0.1034896   5.30 0.0006252603    1.644    0.392
        57  -8.5561    178.5098    234.9902   1.2218665736e+02   6.4613745789e+00    0.2193578    0.1150515  26.24 0.0008755785    1.726    0.421
        58  -8.2307    232.7609    234.4592   1.1330801851e+02  -8.1607299490e-01    0.1460605   0.07145983  27.51 0.0004693981    1.550    0.355
        59  -8.2811    227.6448    234.6910   1.1413160077e+02  -1.7364564351e-01    0.1120815   0.06018763  16.34 0.0001765224    1.726    0.421
        60  -9.3139    249.0210    232.9597   1.1063924747e+02  -2.7466382215e+00    0.1637884    0.1054869  18.52 0.0005473777    1.079    0.073
        61  -7.5733    153.7738    232.3798   1.2616504796e+02   1.0232634886e+01    0.1541385   0.08069094  32.38 0.0003772044    1.551    0.355
        62  -9.0243    241.3788    230.2945   1.1140663852e+02  -1.5574359918e+00    0.2250981    0.1209615  12.85 0.0009581292    1.728    0.421
        63  -7.7452    209.3611    235.8115   1.1717882495e+02   2.1432398335e+00    0.1321367   0.08662452  -8.71 0.0006840877    1.685    0.406
        64  -8.0223    195.8906    228.4063   1.1841253941e+02   4.7508700735e+00    0.1795016    0.1080406  -5.97 0.0007927204    2.180    0.541
        65  -7.2456     37.6998    229.2988   1.4684637039e+02   2.5216405561e+01    0.1062541   0.05118948  57.45 0.0003081665    1.579    0.367
        66  -7.8457    152.1930    227.5722   1.2589518799e+02   1.1060661260e+01    0.1592456   0.08409595  30.93 0.0006170291    1.629    0.386
        67  -7.6593    108.9807    227.4908   1.3375641939e+02   1.7059884394e+01    0.1525574   0.08597305  20.23 0.0008099289    2.631    0.620
        68  -9.4979    244.9529    225.5110   1.1017556235e+02  -1.5988208488e+00    0.2393416    0.1703631  -0.24  0.001877247    1.239    0.193
        69  -8.6239    249.0841    223.2911   1.0922781209e+02  -1.9351202310e+00    0.1916392    0.1128364  -0.09 0.0006467811    1.570    0.363
        70  -9.4860    239.2613    225.0036   1.1096760057e+02  -8.1656580027e-01     0.214592    0.1150459  24.86  0.001424017    1.434    0.303
        71  -7.2895    223.2981    225.3570   1.1351231844e+02   1.2753060269e+00    0.1126786    0.0646089  12.39 0.0007035169    1.703    0.413
        72  -7.9744    211.9481    224.9785   1.1528846793e+02   2.8682939473e+00    0.1776238    0.1036804  13.70 0.0007674119    1.714    0.417
        73  -7.4678    185.2529    225.6182   1.1984846339e+02   6.5647377521e+00   0.09595078   0.08102979  57.46 0.0006960204    1.660    0.398
        74  -7.8773    167.9665    224.8300   1.2275888594e+02   9.1417263718e+00    0.1839344    0.1037225  20.41 0.0007210527    2.007    0.502
        75  -7.9075    127.6472    224.6426   1.3003302505e+02   1.4918676421e+01    0.1558028    0.1167054  13.58 0.0005950566    1.650    0.394
        76  -8.2336      7.3439    223.3067   1.5193063105e+02   2.9019702282e+01    0.2065553    0.1226925 -37.11  0.001178633    4.517    0.779
        77  -7.5556    218.4701    223.5484   1.1402831083e+02   2.1112273958e+00    0.1105502   0.07966004  21.78 0.0001843838    1.007    0.007
        78  -7.7223    206.9118    222.1662   1.1572278497e+02   3.8628971240e+00    0.1518761    0.1003926  17.65 0.0004443653    1.293    0.226
        79  -7.6374    147.4930    221.4784   1.2603325491e+02   1.2530139663e+01    0.1148694   0.08775578  35.58 1.893222e-05    1.019    0.018
        80  -9.5415    243.7351    219.8699   1.0952656232e+02  -9.4026630840e-01    0.3055825     0.116406  34.91  0.001659218    2.058    0.514
        81  -7.3848    140.6709    218.7157   1.2696643174e+02   1.3892321288e+01    0.1105269   0.07783113  17.82  0.000303092    1.609    0.379
        82  -7.4203    170.5514    217.4612   1.2135452575e+02   9.6750583409e+00    0.1155132   0.08822625  30.38 8.254378e-05    1.014    0.014
        83  -7.6219    194.7000    218.6713   1.1728964047e+02   5.9902519590e+00    0.1142288   0.07169743  13.81 0.0007030555    1.642    0.391
        84  -8.0180    204.5051    215.8874   1.1523063899e+02   4.8797399201e+00    0.1430621    0.1035229 -18.47  0.001007949    1.528    0.345
        85  -7.8040    150.9353    216.4775   1.2479765417e+02   1.2699794663e+01    0.1716571   0.09021705  37.45 0.0003891513    1.481    0.325
        86  -8.7552    248.7088    215.0580   1.0804398472e+02  -1.1593823878e+00     0.146761    0.1039398   5.70 0.0003938703    1.128    0.113
        87  -7.3963    211.5167    215.4889   1.1400127575e+02   3.9144905138e+00    0.1151902   0.08306511  20.47 4.361305e-05    1.062    0.059
        88  -9.0995    247.5142    210.6392   1.0754142314e+02  -5.9856576011e-01     0.267947    0.1196851  22.48  0.001480674    2.144    0.534
        89  -8.4500    187.5745    209.8700   1.1728083201e+02   8.0698524637e+00    0.2421134    0.1538065   4.51  0.001102544    1.942    0.485
        90  -8.0941    170.7403    210.6488   1.2040640443e+02   1.0512355636e+01    0.1796674     0.115596  28.25  0.000867413    1.324    0.245
        91  -7.6733    100.2469    210.5857   1.3380606562e+02   2.0806732410e+01     0.164265   0.09422595  29.82 0.0009515933    1.763    0.433
        92  -7.8969    146.9849    208.6581   1.2455610716e+02   1.4370970738e+01    0.1677286    0.1232636  37.52 0.0004340221    1.075    0.070
        93  -7.7270    108.1846    209.2153   1.3211535129e+02   1.9934722124e+01     0.168681    0.1170116  -2.13 0.0006556496    2.700    0.630
        94  -7.2236     77.6980    209.2842   1.3810650697e+02   2.3957881554e+01    0.1146375   0.06593861  58.34 0.0001689327    1.555    0.357
        95  -7.4313    177.2751    207.3180   1.1875603158e+02   9.9473930832e+00    0.1142134   0.07836314  12.35 0.0001995397    1.569    0.363
        96  -7.5553    163.4416    207.5044   1.2131710093e+02   1.2035167284e+01    0.1189573    0.0931341  28.38 9.461276e-05    1.069    0.065
        97  -8.2719    248.2506    205.8546   1.0667523316e+02  -2.5223861513e-01    0.1579823   0.09737516   9.37  0.001059116    1.385    0.278
        98  -7.2313    213.7206    206.3096   1.1225619300e+02   4.5851369251e+00   0.09640561   0.08574245  43.65 0.0005589916    1.561    0.359
        99  -7.2246    115.2827    205.6661   1.3033790343e+02   1.9493396649e+01    0.1160116   0.07731572  62.17 0.0006386999    1.616    0.381
       100  -7.9442     11.6826    205.3497   1.5059359891e+02   3.1647647495e+01    0.1133791   0.04899237  59.25 0.0007047815    1.733    0.423
       101  -7.6899    140.1487    204.6365   1.2535255336e+02   1.5984461621e+01    0.1703721   0.09274567  31.63 0.0004820764    1.678    0.404
       102  -7.7533     87.7987    204.3795   1.3567360946e+02   2.3485334721e+01    0.1565083   0.09495469  30.55 0.0009354575    1.662    0.398
       103  -7.4131    175.3854    202.2884   1.1837674191e+02   1.0889732332e+01    0.1245537    0.0785765  17.07 0.0007011997    1.751    0.429
       104  -7.8241     97.7347    202.3641   1.3348325139e+02   2.2490130651e+01    0.1626279     0.094886  32.50 0.0009431756    1.623    0.384
       105  -8.7724    250.3341    198.4426   1.0515950361e+02   1.6689138786e-01    0.2800151    0.1249624 -15.40  0.001497417    2.497    0.600
       106  -7.5253    134.7000    200.6327   1.2590596324e+02   1.7411896764e+01    0.1156332   0.08750188   5.48 0.0007032887    1.734    0.423
       107  -8.4992    243.6352    197.8691   1.0609076565e+02   1.1541320581e+00    0.2670708    0.1373231 -11.09  0.001526105    2.115    0.527
       108  -8.3901    230.3620    198.0287   1.0821201786e+02   3.0377832893e+00    0.2595557    0.1202973  27.34 0.0006941096    1.960    0.490
       109  -8.4220    151.1499    198.1177   1.2235694850e+02   1.5254590426e+01    0.2177323    0.1416891  36.37 0.0006335069    1.256    0.204
       110  -7.8120    203.2081    194.5950   1.1220779340e+02   7.5224203442e+00    0.1688048   0.09004419  29.76 0.0004198938    1.624    0.384
       111  -7.1059     79.6836    196.6368   1.3660054270e+02   2.5872069868e+01    0.1046163   0.08912922 -13.87 0.0007041079    1.766    0.434
       112  -8.1627    237.4044    192.1860   1.0612125391e+02   2.6235529893e+00    0.1925392   0.09847622 -21.06 0.0006840041    2.000    0.500
       113  -7.5140    214.6993    190.6501   1.0958552784e+02   6.2065492947e+00    0.1240971   0.07662149  10.68 0.0007038128    1.692    0.409
       114  -7.4104    162.3414    190.2998   1.1905793769e+02   1.4618631747e+01    0.1249218   0.08599586  14.46 0.0004170153    1.670    0.401
       115  -8.5132    243.1659    187.8723   1.0448553784e+02   2.2325910908e+00    0.2517979    0.1363075  -9.00  0.001202195    1.963    0.490
       116  -8.1744    224.3389    189.1857   1.0772691055e+02   4.8945315775e+00    0.1838862    0.1234778   1.41  0.001159893    1.432    0.302
       117  -8.5300    191.4580    188.6861   1.1334104047e+02   1.0124861928e+01    0.2229126    0.1760354  17.08 0.0008320081    1.105    0.095
       118  -8.1015    173.0592    187.9875   1.1664602831e+02   1.3208179290e+01    0.1944671    0.1326592  12.51 0.0006948703    1.669    0.401
       119  -8.2666    237.9900    185.1556   1.0482976748e+02   3.2793840181e+00    0.2292118    0.1252619   3.11   0.00122954    2.136    0.532
       120  -8.7986    230.3743    184.8030   1.0598979584e+02   4.4641684071e+00    0.2094609    0.1479229  23.35  0.000326372    1.144    0.126
       121  -7.5296    214.9935    185.7328   1.0870776003e+02   6.7380867157e+00    0.1483718   0.08792513  35.87 0.0003881863    1.434    0.303
       122  -8.7624    249.9266    182.4897   1.0251232006e+02   1.8046116227e+00    0.2277331    0.1345841   5.33  0.000832296    1.636    0.389
       123  -7.3388    199.5119    180.4688   1.1051175297e+02   9.8810544536e+00    0.1246702    0.1012349  21.18 0.0001385962    1.006    0.006
       124  -7.4483    182.8426    180.1318   1.1351697600e+02   1.2693342065e+01    0.1696746     0.127744  13.72 0.0004116255    1.305    0.233
       125  -8.1874    241.8326    177.5575   1.0288770006e+02   3.5193897119e+00    0.2107062   0.07840713 -26.04 0.0009795799    2.745    0.636
       126  -8.0711    177.0536    176.6759   1.1403373608e+02   1.4160528436e+01    0.1846756    0.1393266  30.86 0.0006428168    1.125    0.111
       127  -7.5856    231.3603    171.3224   1.0342825766e+02   5.8380432691e+00    0.1312914   0.07746489  13.16 0.0004045657    1.775    0.437
       128  -9.2342    246.1614    167.1938   1.0032430925e+02   3.9868047963e+00    0.2426089     0.157327  25.09 0.0005879074    1.334    0.250
       129  -7.8632    237.0156    167.4152   1.0179613714e+02   5.3904137173e+00    0.1711428    0.1013364  35.71  0.000388916    1.520    0.342
       130  -7.4109    156.3062    148.3398   1.1311239124e+02   2.2358310400e+01    0.1386313    0.1029665   5.83 0.0007041722    1.681    0.405
       131  -7.7086     64.6762    141.4747   1.3405719440e+02   3.8690210147e+01     0.208118    0.1109503 -68.63 0.0007140616    1.857    0.462
       132  -7.4294    131.3246    139.9987   1.1710990735e+02   2.8504862388e+01    0.2181417    0.1056136 -29.09 0.0007047844    4.278    0.766
       133  -7.9794    248.2710    134.5602   9.3555134703e+01   7.3714921303e+00    0.2230859   0.09749775 -26.25  0.001054838    2.100    0.524
       134  -7.8962    192.5428    127.4948   1.0135946354e+02   1.8721235504e+01    0.1418275    0.1226636  11.88 2.179277e-05    1.079    0.073
       135  -7.8230    240.1962    123.1386   9.2314683314e+01   1.0172837512e+01     0.273879    0.1396291  -6.18  0.001147886    2.734    0.634
       136  -7.7827    182.0186    123.6917   1.0254021428e+02   2.1453470205e+01    0.2538471    0.1474678   1.62 0.0009099444    3.356    0.702
       137  -7.3019    224.3119    119.6922   9.4020461625e+01   1.3583759617e+01    0.1238247    0.1054237 -59.23 0.0003227191    1.622    0.383
       138  -8.1902    246.4585    116.2703   8.9884022712e+01   9.8882435423e+00    0.2365397    0.2080326 -79.65  0.001467784    1.740    0.425
       139  -8.1126    219.1526    113.9947   9.3554205635e+01   1.5368184850e+01    0.3212898    0.1138514  36.01  0.001070847    3.749    0.733
       140  -8.3627    210.5000    110.4533   9.4168585292e+01   1.7614307519e+01    0.1401704    0.1237599   5.89 0.0002293394    1.036    0.035
       141  -7.2842    134.6452    110.3084   1.0990142492e+02   3.3669644657e+01    0.1495046    0.1161388  82.36 0.0005539465    1.723    0.420
       142  -7.8641    249.4971    106.9867   8.7382278651e+01   1.0465578711e+01    0.1847602    0.1000703  -1.58 0.0006603412    2.450    0.592
       143  -8.1309    241.2899    106.2623   8.8367141913e+01   1.2084563415e+01    0.3228866    0.1605325  14.16  0.001143756    3.934    0.746
       144  -7.5751    134.6359    106.6941   1.0902334330e+02   3.4384164985e+01    0.1525316    0.1155946   8.51 0.0007037728    1.741    0.426
       145  -9.4901      4.8201    106.1252   1.4712655649e+02   5.2355082337e+01    0.2199584    0.1282846  55.27 0.0009936652    1.646    0.392
       146  -8.4591    188.1843     99.4277   9.5451826242e+01   2.4040500001e+01    0.3130885    0.1701173  -0.51 0.0009553398    4.340    0.770
       147 -10.2768      5.3278     94.7287   1.4602944435e+02   5.4943276864e+01    0.3509103    0.2211524 -89.13  0.002146304    1.334    0.250
       148  -8.7297     22.5397     91.8999   1.4001503206e+02   5.4451512054e+01    0.2186948     0.151377  52.61 0.0006544932    1.499    0.333
       149  -7.8188    177.4761     91.4902   9.5442969832e+01   2.7724507699e+01    0.1487965    0.1389361   9.18 0.0003020387    1.036    0.035
       150  -9.1869      2.4041     88.1388   1.4640405713e+02   5.6628394137e+01    0.2637486    0.1401778 -74.03  0.001058842    1.510    0.338
       151  -9.3972      2.7883     81.0592   1.4559887579e+02   5.8254252365e+01    0.2590395    0.1546659  64.15  0.001086618    1.706    0.414
       152  -8.4734    184.2721     77.9012   9.0404056075e+01   2.8313400125e+01    0.3045245    0.1859036 -40.85 0.0009363924    1.653    0.395
       153  -8.0453      3.3227     75.3182   1.4480213643e+02   5.9567045001e+01    0.1239152   0.07242856 -50.01 0.0007043841    1.669    0.401
       154  -7.5809     36.3140     67.6798   1.3076669831e+02   5.8980685637e+01    0.1307642   0.09382389  73.34 0.0003329569    1.653    0.395
       155  -7.6951    207.6656     60.9786   8.1798451599e+01   2.5209193080e+01    0.2497271   0.07471149 -45.11 0.0007045461    4.293    0.767
       156  -7.6790     24.7782     60.9907   1.3404484169e+02   6.1573473020e+01     0.165442   0.08946899 -66.52 0.0003574101    1.566    0.361
       157  -8.5363      1.4267     58.3743   1.4347583086e+02   6.3607226632e+01    0.3015232   0.09933878 -78.15   0.00129452    2.591    0.614
       158  -7.3714     49.7100     58.3627   1.2298289434e+02   5.9651316574e+01    0.1346313    0.1017776  84.29   0.00048082    1.698    0.411
       159  -9.0503     32.9889     57.6139   1.2979110138e+02   6.1646703733e+01    0.2285976    0.1636523 -60.74  0.000317274    1.201    0.167
       160  -8.5038     94.9068     52.8349   1.0430365589e+02   5.3393461135e+01    0.2477051    0.1965122 -43.93 0.0005377231    1.236    0.191
       161  -8.3161     44.2059     51.8366   1.2337897006e+02   6.1783778514e+01    0.2013002    0.1752449  49.26 0.0004210193    1.317    0.241
       162  -8.8957     95.3624     45.4010   1.0137660680e+02   5.4704682103e+01     0.321441    0.2716527  -3.06   0.00164226    1.285    0.222
       163  -7.5866     74.1507     45.5753   1.0893784935e+02   5.8744554896e+01    0.1827045    0.1331066  22.74 0.0002616198    1.582    0.368
       164  -8.0453     54.3114     44.0490   1.1643282388e+02   6.2189056635e+01    0.1927813    0.1605908 -45.22 0.0005535352    1.084    0.078
       165  -8.6128      3.6578     44.5180   1.4027951403e+02   6.6716619851e+01    0.2746269    0.1149517  16.84  0.001371963    2.845    0.649
       166  -9.2532      9.3404     41.2771   1.3685193397e+02   6.7176522815e+01    0.4222961     0.150879 -78.65  0.001642467    3.260    0.693
       167  -9.6769     20.0662     40.1176   1.3121924776e+02   6.6743751202e+01     0.467057    0.1877792  29.48  0.001892032    2.745    0.636
       168  -8.0712     77.2875     40.0422   1.0558650826e+02   5.9259955584e+01    0.1936128     0.171156 -37.71 0.0002771982    1.087    0.080
       169  -9.2763     52.0410     38.4593   1.1535777225e+02   6.3676485451e+01    0.2396432    0.1754052 -45.55 0.0003191238    1.226    0.185
       170  -8.1523     41.4323     39.3154   1.2055131230e+02   6.4861084808e+01    0.1818109    0.1183614 -63.34 0.0009455121    1.596    0.373
       171  -7.7957     92.1875     36.7463   9.8959040415e+01   5.6916770201e+01    0.2668754    0.1996778  15.65 0.0004336098    1.577    0.366
       172  -8.4237     95.0661     33.4226   9.6622592014e+01   5.6867393791e+01    0.2308165    0.1923929  -9.58 0.0004541263    1.236    0.191
       173  -8.0048     73.4191     37.3119   1.0594747075e+02   6.0481989410e+01      0.19801    0.1277191 -50.52 0.0009454509    1.631    0.387
       174  -8.4656     14.6543     33.9537   1.3229550457e+02   6.8509949378e+01    0.2112029    0.1850793 -73.34  0.001136938    1.168    0.144
       175  -7.3784      5.7600     33.9752   1.3702827580e+02   6.9019138932e+01    0.1558701   0.08297471 -66.76 0.0003269224    1.512    0.339
       176  -8.9388      9.2563     32.6130   1.3481942591e+02   6.9140853953e+01    0.2767314    0.1233475 -70.46  0.001120777    2.003    0.501
       177  -7.5970    246.2989     32.2966   6.9672496608e+01   1.9837674892e+01    0.1255666   0.09537126  21.38 0.0004255993    1.572    0.364
       178  -8.9824     21.4978     31.3039   1.2783990461e+02   6.8589301032e+01    0.3023119    0.1905059 -79.59 0.0009374791    1.959    0.490
       179  -7.6560    164.6687     31.6829   7.9511150374e+01   3.9865306856e+01    0.1593128    0.1091473  29.81 0.0007047147    1.687    0.407
       180  -8.8463      3.4486     31.0161   1.3757797548e+02   6.9793319918e+01    0.3030156   0.08400656 -55.61  0.001338534    2.415    0.586
       181  -8.8406      6.0507     27.5213   1.3524547583e+02   7.0446894033e+01    0.2257893    0.1646723  62.45  0.001067675    1.757    0.431
       182  -8.3033      3.3279     23.6714   1.3577561565e+02   7.1429719380e+01    0.2289826    0.1454473  74.76  0.001289823    2.138    0.532
       183  -9.9983     92.5299     26.9685   9.4629814542e+01   5.8460232774e+01    0.2948415    0.2514389 -24.29 0.0004462167    1.135    0.119
       184  -6.9942    162.6770     27.6649   7.8459134085e+01   4.0886902615e+01    0.1598553    0.1084522  29.33 0.0007050671    1.710    0.415
       185  -7.9806      9.9178     27.2890   1.3298465084e+02   7.0284919111e+01      0.16034    0.1345758 -47.06  0.000270395    1.065    0.061
       186  -8.1755    172.6540     24.3760   7.5780756341e+01   3.8641502246e+01    0.2337081    0.1590503 -59.82 0.0008077002    1.667    0.400
       187  -8.1124     77.4374     24.4768   9.8740901541e+01   6.1996896720e+01    0.1397111    0.1281682 -10.61  0.000141017    1.012    0.012
       188  -7.7480     73.2822     23.6578   9.9938057014e+01   6.2939107484e+01    0.1341869    0.1089898 -64.25 0.0002419625    1.633    0.388
       189  -7.8420    137.3763     21.8256   8.0907826275e+01   4.8264674970e+01    0.2000754    0.1409941  -5.95 0.0003168729    1.602    0.376
       190  -9.2017     84.7086     21.4936   9.4719620903e+01   6.0984212210e+01    0.2587534    0.2320332 -14.79 0.0005614263    1.057    0.054
       191  -8.3625     65.2408     21.9830   1.0238357037e+02   6.4707349013e+01    0.1845829    0.1075469 -37.38 0.0008825777    1.608    0.378
       192  -7.7730     59.4838     22.5189   1.0512802230e+02   6.5609695558e+01     0.135676    0.1207207 -17.64 0.0001265201    1.001    0.001
       193  -8.1199    145.6585     21.1666   7.9068609644e+01   4.6167641521e+01    0.2461727    0.1972328  79.47 0.0006580008    1.331    0.249
       194  -8.0746     19.2666     20.4062   1.2519783198e+02   7.1103112084e+01    0.2579862    0.1257019 -40.47  0.001131567    1.824    0.452
       195  -9.6296    202.1860    248.7953   1.1997145991e+02   1.8465079712e+00    0.2633364    0.1296135  28.26 0.0009800449    1.567    0.362
       196  -8.2101    161.4680     18.9613   7.5600791918e+01   4.2218704465e+01    0.2148194    0.1965189  63.54 0.0004354587    1.071    0.066
       197  -7.5727    151.7606     18.0100   7.6817887850e+01   4.4911327099e+01    0.1847268    0.1241257 -23.12  0.000328559    1.519    0.341
       198  -8.8458     74.8328     16.4480   9.5803660460e+01   6.3779056830e+01    0.2449903    0.2352432  13.34 0.0006933648    1.118    0.106
       199  -7.8232    174.1977     15.9039   7.2723951692e+01   3.9161403296e+01     0.197091    0.1622383  30.12 0.0004163225    1.311    0.237
       200  -9.7755    164.2224    246.7364   1.2595835528e+02   7.1091758909e+00    0.3144172    0.1771548  16.60  0.001633361    2.280    0.561
       201  -8.3999    146.1010     14.1898   7.6338863398e+01   4.6837493302e+01    0.2164629    0.1855773  37.90  0.000327223    1.166    0.142
       202  -7.5431     89.6776    249.3168   1.3894801475e+02   1.6443036430e+01     0.106737   0.05608143  55.92 0.0006466392    1.665    0.399
       203  -8.6194     24.1478    249.3418   1.4991198801e+02   2.3512462065e+01    0.2232661   0.03540692  49.07  0.001158312    2.959    0.662
       204  -8.9040      4.0323    249.0776   1.5310525167e+02   2.5359371056e+01    0.1639032   0.05896631  56.70  0.001138344    1.797    0.444
       205  -9.3906    224.2764    246.3896   1.1620831106e+02  -7.7784607615e-01    0.1691964    0.1050748  -5.54  0.001250656    1.694    0.410
       206  -7.8765    151.0107     12.6899   7.4961323179e+01   4.5685562318e+01    0.2003879    0.1816759  60.97 0.0003530949    1.067    0.062
       207  -9.9796    157.1624    245.6779   1.2703741991e+02   8.1800831801e+00    0.3085479    0.1995907  22.82  0.001693251    1.481    0.325
       208  -8.3948     15.9887    247.5018   1.5117000119e+02   2.4535244326e+01    0.1097355   0.07735581   9.45 0.0008106038    2.639    0.621
       209  -8.0522      9.4845    247.4402   1.5220732999e+02   2.5125157285e+01   0.09544932   0.05912559  55.90 0.0001408009    1.052    0.050
       210  -7.2337     15.5162     10.5662   1.2337886895e+02   7.3425444349e+01     0.121013   0.09884618 -38.61 2.999796e-05    1.015    0.015
       211  -9.8081    168.9820    241.9549   1.2462394378e+02   6.9972507150e+00    0.1922726    0.1527565  36.50  0.001157557    1.171    0.146
       212  -9.5145    176.5896    244.1344   1.2359491949e+02   5.7238660771e+00    0.2022583    0.1360798  10.45  0.001439846    1.638    0.390
       213  -7.5361    136.4977    246.0040   1.3060539347e+02   1.0911196628e+01    0.1197477   0.08464658  -7.57 0.0008050948    2.274    0.560
       214  -7.1305    119.7094    246.3073   1.3353300399e+02   1.3078550478e+01    0.1031446   0.06279162  55.23  0.000351949    1.577    0.366
       215  -7.3300    104.4678    246.4528   1.3618620733e+02   1.5007295151e+01    0.1062777   0.07420414  46.41 0.0001908885    1.052    0.049
       216  -8.7655    150.8418    244.6695   1.2800874050e+02   9.1501035298e+00    0.1709723    0.1043791  28.23 0.0006729387    1.416    0.294
       217  -9.9171    192.8661    248.7883   1.2146593511e+02   3.0694771834e+00    0.2517818    0.1791645   7.47  0.001107254    1.419    0.295
       218  -8.2840      7.0126    243.6826   1.5251058401e+02   2.5894539885e+01    0.1640362          nan  46.25 0.0007046876    4.261    0.765
       219  -8.7326    229.4826    242.5077   1.1490114336e+02  -1.1010630111e+00    0.1057551   0.07064318  20.44 0.0008100134    1.043    0.041
       220  -8.2098    210.2171    241.8235   1.1782269535e+02   1.4523096286e+00    0.1439599   0.09211826  17.09 0.0006289385    1.313    0.238
       221  -7.9527    146.6416    242.0969   1.2846421134e+02   1.0025660971e+01    0.1415582    0.1120505  35.91  0.000550318    1.093    0.085
       222  -7.7544    113.9828    242.5118   1.3420046874e+02   1.4317361060e+01    0.1363468   0.07945879  20.98  0.000575638    2.294    0.564
       223  -7.6168     72.1567    242.6181   1.4152801534e+02   1.9449394827e+01    0.1362448    0.0785596  32.54 0.0005386432    1.622    0.384
