#   1 NUMBER                 Running object number                                     
#   2 MAG_AUTO               Kron-like elliptical aperture magnitude                    [mag]
#   3 X_IMAGE                Object position along x                                    [pixel]
#   4 Y_IMAGE                Object position along y                                    [pixel]
#   5 X_WORLD                Barycenter position along world x axis                     [deg]
#   6 Y_WORLD                Barycenter position along world y axis                     [deg]
#   7 A_WORLD                Profile RMS along major axis (world units)                 [deg]
#   8 B_WORLD                Profile RMS along minor axis (world units)                 [deg]
#   9 THETA_WORLD            Position angle (CCW/world-x)                               [deg]
#  10 FWHM_WORLD             FWHM assuming a gaussian core                              [deg]
#  11 ELONGATION             A_IMAGE/B_IMAGE                                           
#  12 ELLIPTICITY            1 - B_IMAGE/A_IMAGE                                       
         1 -13.7819    186.2796     20.7392   7.2740919075e+01   3.5474810832e+01     2.124969     1.088334   0.61  0.007580211    2.973    0.664
         2 -14.3486    193.5156     14.8687   7.0049040422e+01   3.4214482168e+01     2.412006     2.052457  30.92  0.009059907    1.286    0.223
         3 -13.1688    198.7142      7.7586   6.7342493543e+01   3.3572865402e+01     1.089166    0.6159664  43.50  0.001550996    1.994    0.498
         4 -10.2945     41.1546     16.8510   1.1122291693e+02   6.9412237437e+01    0.1885912     0.136971 -22.33  0.000871671    1.338    0.252
         5 -15.7801     12.3487    241.3253   1.5158738900e+02   2.5777403644e+01     6.965174     1.018825 -72.50     0.031703    6.132    0.837
         6 -11.1722    163.2497    248.8584   1.2635027728e+02   7.0044751131e+00    0.2456498    0.1611817  36.60 0.0009450616    1.096    0.088
         7 -10.7643    143.5015    249.9605   1.2979208007e+02   9.5073884171e+00    0.2119615    0.1361873  30.51  0.001150952    1.278    0.218
         8 -11.5796    139.0759    249.8004   1.3052819226e+02   1.0110484518e+01    0.2674983    0.2315546 -53.09  0.002301342    1.626    0.385
         9 -12.0636    126.4814    249.7850   1.3267506436e+02   1.1760405787e+01    0.6739525    0.2154476  30.43  0.002786428    4.063    0.754
        10 -10.6051    110.3785    250.3702   1.3548092927e+02   1.3748676903e+01    0.2598778   0.09449556  36.31   0.00099707    2.081    0.520
        11 -11.2695     98.9623    249.6811   1.3738343432e+02   1.5262835286e+01    0.3707006     0.179743  51.49  0.001920181    1.691    0.409
        12 -11.9248    102.8702    247.8104   1.3656894488e+02   1.5026704698e+01    0.3236376    0.2203711  46.22 0.0004450808    1.064    0.060
        13 -12.6713     67.3029    247.4306   1.4265124061e+02   1.9315749134e+01    0.6309595    0.4559762  31.63  0.005055156    1.467    0.318
        14 -10.5209     57.1246    250.0356   1.4451110489e+02   2.0070954339e+01    0.2591625    0.1093179  36.27  0.001018655    1.855    0.461
        15 -10.8594     88.8660    249.1547   1.3907574754e+02   1.6562683421e+01    0.2434203    0.2192777 -85.64  0.002197151    1.442    0.307
        16 -11.8303     81.1614    248.3191   1.4033894912e+02   1.7593972903e+01    0.5823297    0.2003862  48.52  0.002758156    2.134    0.531
        17 -11.8217     83.8232    244.7316   1.3964079347e+02   1.7777565915e+01    0.4363137    0.2247828  62.78  0.002830615    2.010    0.502
        18 -13.9739     33.7299    246.6543   1.4825227657e+02   2.2979514651e+01     1.394403     0.750009  34.87   0.01030951    1.648    0.393
        19 -13.1281     52.4733    230.2688   1.4427062020e+02   2.3511748403e+01    0.4113802    0.3122618 -71.87 0.0009698809    1.629    0.386
        20 -15.5370     60.4519    217.1186   1.4201031473e+02   2.4723521645e+01     6.687034     0.662858  39.53   0.02572053    4.181    0.761
        21  -9.4178    152.8321    212.8352   1.2399018893e+02   1.2913432499e+01    0.1653697    0.1286151  28.15 0.0003460419    1.126    0.112
        22 -10.8918    193.4256    195.4787   1.1407454211e+02   8.9437372879e+00    0.6500112    0.3529666 -59.27  0.002342355    6.675    0.850
        23 -11.6843     74.6352    196.1155   1.3759291028e+02   2.6606856869e+01    0.3234372    0.2231439 -42.94  0.002031666    2.120    0.528
        24 -11.7838     78.9892    189.0204   1.3602217352e+02   2.7323105962e+01    0.2485617    0.2196499 -46.32  0.000799427    1.487    0.328
        25  -8.6825    110.4638    197.4407   1.3037367856e+02   2.1518085807e+01    0.1211386   0.09503031  50.55   0.00013363    1.079    0.073
        26  -9.2158     66.1180    194.1012   1.3917909152e+02   2.8018292904e+01    0.1575214    0.1500107  26.72  0.001210967    1.370    0.270
        27 -11.2837     86.8722    176.8826   1.3302891632e+02   2.8514760180e+01    0.2225973    0.2028853  74.19 0.0003990395    1.120    0.107
        28 -13.4015     74.8824    174.3543   1.3542864200e+02   3.0608878272e+01    0.4059562    0.2647975 -40.80  0.001736807    2.230    0.551
        29 -14.0503     46.5128    129.2937   1.3739986019e+02   4.3535913080e+01     1.213808    0.6117773  57.44  0.005343899    2.070    0.517
        30 -13.2343     93.7954    168.4833   1.3045173710e+02   2.9135136135e+01     3.035058     0.328951  43.21  0.003706628    6.252    0.840
        31 -14.0149     69.3493    146.6085   1.3351845420e+02   3.6982333548e+01     2.141065     1.029759  69.67  0.008648778    3.192    0.687
        32 -12.0687     38.3363    161.2662   1.4261182738e+02   3.7500919864e+01    0.3616173    0.2816218 -60.36   0.00247349    1.487    0.327
        33 -10.7998     51.0351    157.6029   1.3927573829e+02   3.6893113903e+01    0.3153741    0.1323977  51.38  0.001524507    2.185    0.542
        34 -10.3927    104.0239    151.0287   1.2556294020e+02   3.1011115857e+01     0.328041    0.2787459 -42.06  0.001057954    1.368    0.269
        35  -9.7316    106.4131    146.8357   1.2430888602e+02   3.1468758219e+01     0.233021    0.1851997 -34.57  0.001318807    1.541    0.351
        36 -12.2820     93.1208    150.7537   1.2816758704e+02   3.2758304009e+01    0.2542098    0.2361834  21.31 0.0004993269    1.243    0.195
        37 -13.0522     39.7242    145.4626   1.4091099584e+02   4.0688536371e+01    0.6998116    0.3314756  89.19  0.003407478    2.300    0.565
        38  -9.9565    133.6998    144.2259   1.1736050558e+02   2.7268740442e+01     0.664371     0.131221 -52.41  0.001563518    7.962    0.874
        39  -8.6108    192.2324    143.9793   1.0496872190e+02   1.6275482283e+01    0.1578472    0.1091801 -31.43 0.0003351276    1.499    0.333
        40 -11.5555     95.5577    240.7807   1.3730078927e+02   1.6897925640e+01    0.2562858     0.209865 -36.37  0.001607869    1.861    0.463
        41 -13.3061     58.4919    132.2603   1.3449535132e+02   4.1487914309e+01     2.434582    0.7587237 -77.75  0.006468215    6.967    0.856
        42 -10.2562    113.3046    136.5125   1.2080740900e+02   3.2404149439e+01    0.3217374    0.2569483   1.86  0.001098612    1.680    0.405
        43 -10.8422    101.1695    133.8094   1.2338442389e+02   3.5012100258e+01    0.2729419    0.2338444 -19.27  0.000622735    1.472    0.320
        44 -11.2568     70.4353    134.9476   1.3165067134e+02   3.9363902140e+01    0.3610538    0.1744703  38.07  0.001613696    1.967    0.492
        45  -9.5101    118.7840    128.9978   1.1799029518e+02   3.2964065348e+01    0.2225432    0.1608453 -19.57  0.001065406    1.968    0.492
        46 -10.3972    228.9641    228.7439   1.1309853233e+02   1.9694405061e-01    0.2399344    0.1677433 -45.24  0.001622223    2.631    0.620
        47  -9.7151    109.4654    123.7594   1.1931816937e+02   3.5714821369e+01    0.2245481    0.1804368  42.73 0.0003560409    1.201    0.167
        48 -11.4282    174.1348    222.1806   1.2133379373e+02   8.5701349816e+00    0.3011958      0.21045  39.12  0.001451578    1.191    0.160
        49 -11.5362     32.0813    115.1903   1.3985804711e+02   4.8204157257e+01    0.3235458    0.1961141  55.73  0.001813473    1.627    0.385
        50  -9.3658    135.0000    113.0010   1.1045559010e+02   3.3067381556e+01    0.2422276   0.08322092 -44.87  0.000812555    3.013    0.668
        51 -10.8088    168.3875    113.3497   1.0290265258e+02   2.6033682311e+01    0.3941993    0.3077269 -81.16  0.001577375    1.904    0.475
        52  -9.1358    204.8421    110.8243   9.5236899026e+01   1.8727768940e+01    0.4048691    0.1706529  30.43  0.001298307    3.954    0.747
        53  -9.7127     47.3181    173.3300   1.4152078335e+02   3.4118829079e+01    0.1042623   0.08788579 -38.03 0.0002648359    1.686    0.407
        54  -9.4190    182.3284     82.3405   9.2005266403e+01   2.8076563630e+01    0.1579675    0.1119318  16.22 -1.858287e-05    1.738    0.425
        55  -9.2885    153.5516     75.5006   9.5944062516e+01   3.6015270784e+01    0.1507622    0.1461511   5.65 0.0001206393    1.011    0.011
        56 -11.8993    246.6723    247.6296   1.1300196027e+02  -3.6412786497e+00      0.53427    0.2518091  24.60  0.003637127    1.589    0.371
        57 -13.9775     10.7572    206.7921   1.5081481812e+02   3.1478590643e+01     1.127549    0.7627335  20.97  0.005322661    1.960    0.490
        58 -11.0925    115.9321    246.9697   1.3424377155e+02   1.3480858567e+01    0.2020347    0.1505637  16.89  0.001515838    1.665    0.399
        59 -12.8885      2.3828    225.3041   1.5283163192e+02   2.9119529660e+01    0.6488543    0.2742127 -83.34  0.003235175    2.311    0.567
        60 -15.9385      1.9003    101.4763   1.4766193226e+02   5.3584287282e+01     14.72295    0.8193931 -78.05   0.03287379   10.305    0.903
        61  -9.4925    127.9675     23.5298   8.3571676915e+01   5.0482372434e+01    0.2183889    0.1987974 -20.21 0.0004270964    1.108    0.098
