#   1 NUMBER                 Running object number                                     
#   2 MAG_AUTO               Kron-like elliptical aperture magnitude                    [mag]
#   3 X_IMAGE                Object position along x                                    [pixel]
#   4 Y_IMAGE                Object position along y                                    [pixel]
#   5 X_WORLD                Barycenter position along world x axis                     [deg]
#   6 Y_WORLD                Barycenter position along world y axis                     [deg]
#   7 A_WORLD                Profile RMS along major axis (world units)                 [deg]
#   8 B_WORLD                Profile RMS along minor axis (world units)                 [deg]
#   9 THETA_WORLD            Position angle (CCW/world-x)                               [deg]
#  10 FWHM_WORLD             FWHM assuming a gaussian core                              [deg]
#  11 ELONGATION             A_IMAGE/B_IMAGE                                           
#  12 ELLIPTICITY            1 - B_IMAGE/A_IMAGE                                       
         1 -14.1397    209.5910     30.2609   5.2761874107e+00   2.9908175365e+01     0.804643    0.6151833 -51.40     0.004933    1.065    0.061
         2 -11.7532    227.1915      9.8032   3.5954217759e+02   2.8672510177e+01    0.2094812    0.1474493 -55.24 0.0007551403    1.026    0.025
         3 -10.8197     75.5015    246.5476   7.3844834693e+01   1.3729349348e+01    0.1198585   0.09645978  11.43 0.0001306654    1.333    0.250
         4 -16.7022     66.5443    142.1820   6.4914580670e+01   3.8340258126e+01     4.113607     2.472695  45.10   0.01799142    1.550    0.355
         5 -11.5291    160.8001    200.6569   4.9668206876e+01   1.0790994225e+01    0.2909082    0.1762127 -52.40  0.001563196    2.000    0.500
         6 -13.2366    123.7549    173.6692   5.3657879440e+01   2.1501090619e+01    0.2871863    0.2330348  76.00 0.0009392985    1.542    0.351
         7 -12.2693    180.6104    168.7222   4.0368356871e+01   1.3350201923e+01    0.3473028    0.2251028 -61.46  0.001718273    2.348    0.574
         8 -12.8876     50.3706    165.6370   7.3239912412e+01   3.4406045128e+01    0.5345462    0.1876997  43.25  0.001539745    2.413    0.586
         9 -11.0929      9.2583    166.4910   8.6127756062e+01   3.8393599305e+01    0.1319462    0.1070677  82.71 0.0002566586    1.157    0.136
        10 -10.8283    210.8737    198.8339   4.0162035933e+01   4.5943349048e+00    0.1700273    0.1253048  -6.47 0.0004356939    1.166    0.143
        11 -11.3926     70.8800    186.9070   6.9552882889e+01   2.6503826612e+01    0.2473865    0.1738281  44.42 0.0003901944    1.235    0.190
        12 -12.2581    100.8917    162.5341   5.7789124514e+01   2.7743555691e+01    0.2544543    0.2135578 -79.76 0.0004328809    1.310    0.236
        13  -9.7660     11.6795    160.5090   8.5086414535e+01   3.9744749223e+01    0.3803343    0.1425109  13.04  0.001389083    3.240    0.691
        14 -12.2105    115.8525    154.8510   5.2371648171e+01   2.6971986966e+01    0.2206334    0.2010161  -1.16 0.0002698135    1.211    0.174
        15  -9.6989      9.6741    153.4171   8.5374024553e+01   4.1766606772e+01    0.3366778    0.1869526  -9.05  0.001018698    2.657    0.624
        16  99.0000     47.3290    203.4784   7.7479867185e+01   2.5627875089e+01     7.271264     3.959009  29.59   0.03618308    1.583    0.368
        17 -13.7745    133.3928    145.5640   4.6072547428e+01   2.5869473473e+01     1.065677     0.295837 -54.61  0.002923446    4.720    0.788
        18 -13.1103    106.7594    139.3028   5.1860123083e+01   3.2250151496e+01    0.4466409    0.2975895  68.77  0.001240715    1.954    0.488
        19 -12.8393    111.6597    150.1362   5.2615356994e+01   2.8798818844e+01    0.3153763     0.232851  68.37 0.0006833066    1.620    0.383
        20 -13.0805    108.8538    145.4516   5.2489882224e+01   3.0401914463e+01    0.3544351    0.3283466 -69.16 0.0006786011    1.113    0.102
        21 -12.5811     93.0309    147.9896   5.7535071554e+01   3.2571951702e+01    0.2990512    0.2713354  63.72 0.0003623131    1.062    0.059
        22 -14.0284     98.0160    142.9906   5.5128435705e+01   3.2937558041e+01    0.7392772    0.5277882 -14.10  0.001914618    2.147    0.534
        23 -11.8753      2.3311    147.2698   8.7538198648e+01   4.3923529647e+01    0.2564209    0.1960037 -41.29  0.001125672    1.599    0.374
        24 -10.2409    162.7768    135.9661   3.7416267599e+01   2.2363082773e+01    0.1801804    0.1104549 -42.87 0.0003387171    1.564    0.360
        25 -13.8393    106.7780    131.0072   5.0119905030e+01   3.4243009574e+01    0.6150075    0.4471613  54.26  0.002182075    1.395    0.283
        26 -12.8860     97.8001    130.4150   5.2663359986e+01   3.6085303613e+01    0.3190821    0.2802681  54.88 0.0003514196    1.092    0.085
        27 -13.3195    133.6071    128.5352   4.2363069827e+01   2.9540263504e+01    0.5272341    0.3653364  77.31  0.001967712    2.098    0.523
        28 -12.6995    115.6029    125.2746   4.6340044084e+01   3.3879096704e+01    0.2945754    0.2558785  22.55 0.0007804965    1.300    0.231
        29 -11.7672    103.5585    120.2025   4.8649303271e+01   3.7489412853e+01    0.2818684    0.2485558  18.62 0.0006047213    1.313    0.239
        30 -14.9110    108.7094    227.7646   6.4615909001e+01   1.3046032538e+01      4.26819     2.010583  32.46   0.02143819    1.692    0.409
        31 -11.4458    162.0577    119.8883   3.3981618363e+01   2.5625053390e+01    0.3364789    0.1892709 -66.53  0.001239951    3.031    0.670
        32 -12.0921    157.3484    118.8910   3.4718260321e+01   2.6765413841e+01    0.4597609    0.2461253 -67.32  0.001516507    3.750    0.733
        33 -12.2654     59.1435    116.4631   6.3036663137e+01   4.6400853758e+01    0.2935859    0.2373845  75.58 0.0005319634    1.253    0.202
        34 -12.7255     62.3790    113.7116   6.1251892449e+01   4.6646215290e+01    0.3111597    0.2813679  57.58 0.0008780509    1.054    0.051
        35 -12.2076    110.5020    114.9930   4.5355730032e+01   3.7334172987e+01     0.352466    0.2352062  77.88  0.001398211    2.149    0.535
        36 -12.1900    157.1137    184.1898   4.7793069498e+01   1.4193648590e+01    0.2070332    0.1665598   0.47 0.0007657698    1.253    0.202
        37 -12.3841     71.2224    230.1311   7.3557091487e+01   1.7252015528e+01    0.2726198    0.1726195 -74.09  0.001093748    1.934    0.483
        38 -12.8187    119.0383    112.3233   4.2293790482e+01   3.6169983513e+01    0.3109517    0.2551582 -78.18 0.0007416854    1.326    0.246
        39 -13.2077    116.1296    109.0010   4.2256312136e+01   3.7549320263e+01    0.4818855    0.2348199  45.59  0.001435412    2.038    0.509
        40 -11.2449      1.9954    112.4166   8.5922670310e+01   5.3433418110e+01     0.243002    0.1712691  69.06  0.001205302    1.302    0.232
        41 -12.4233     82.0968    105.3416   5.2060970260e+01   4.5402316133e+01    0.6291143    0.2916769  56.82  0.001551868    2.942    0.660
        42 -13.5009    172.7413    173.8647   4.2815644656e+01   1.3660813190e+01    0.5450522    0.3810985  -2.48  0.001680676    1.696    0.410
        43 -18.6373     25.1163     82.6430   7.1523035939e+01   6.0023022000e+01     15.34591    0.7899272 -70.77   0.02041355   18.815    0.947
        44 -12.6543     66.6063    104.2701   5.7549795961e+01   4.8485177144e+01    0.2913714    0.2106602  48.13  0.001212621    1.348    0.258
        45 -11.3792    175.0051    179.6956   4.3396296930e+01   1.2316263983e+01    0.1818246    0.1550515  18.00 0.0008045261    1.114    0.102
        46 -13.2910    112.5005     99.8018   4.0853921837e+01   4.0442329167e+01    0.5945743    0.3511704  73.78  0.002067511    2.804    0.643
        47 -11.1953     98.2383     88.3968   4.1934051433e+01   4.6209769740e+01    0.2378202    0.1439641  57.34 0.0009520026    1.752    0.429
        48 -11.8223    110.0621     82.1591   3.6443767159e+01   4.4917009601e+01    0.3889042    0.2656763  78.81 0.0009362937    1.869    0.465
        49 -16.4310     70.5770    168.5388   6.7431336186e+01   3.0968308422e+01     2.668035     2.066758 -19.72   0.01328968    1.724    0.420
        50 -10.4841      1.7421     73.9783   8.2900642450e+01   6.3988380990e+01     0.175401    0.1094995 -78.63 0.0003698613    1.466    0.318
        51 -13.5566    170.3190     68.5246   1.9482239717e+01   3.3173242498e+01    0.3903525      0.33883 -65.88 0.0008034389    1.026    0.025
        52 -11.1806     69.4858     64.4396   4.4630582460e+01   5.7871006299e+01      0.15342    0.1456786  69.30 0.0001088697    1.011    0.011
        53 -14.2945    186.1205     55.3236   1.3807344945e+01   3.1640003849e+01    0.9333256    0.8095742  23.29   0.00371522    1.622    0.384
        54 -12.6836    192.2075     49.6893   1.1658660107e+01   3.1100151752e+01    0.3358557    0.2946952  61.75 0.0008822015    1.369    0.270
        55 -10.6160     51.3029     62.6834   5.2411264144e+01   6.1703450400e+01    0.1528143    0.1152653  73.36 0.0003570421    1.621    0.383
        56 -10.8221    213.3939    247.7456   4.6826623503e+01  -1.8630689580e+00    0.1371753   0.07661366 -22.33 0.0008543268    1.618    0.382
