#   1 NUMBER                 Running object number                                     
#   2 MAG_AUTO               Kron-like elliptical aperture magnitude                    [mag]
#   3 X_IMAGE                Object position along x                                    [pixel]
#   4 Y_IMAGE                Object position along y                                    [pixel]
#   5 X_WORLD                Barycenter position along world x axis                     [deg]
#   6 Y_WORLD                Barycenter position along world y axis                     [deg]
#   7 A_WORLD                Profile RMS along major axis (world units)                 [deg]
#   8 B_WORLD                Profile RMS along minor axis (world units)                 [deg]
#   9 THETA_WORLD            Position angle (CCW/world-x)                               [deg]
#  10 FWHM_WORLD             FWHM assuming a gaussian core                              [deg]
#  11 ELONGATION             A_IMAGE/B_IMAGE                                           
#  12 ELLIPTICITY            1 - B_IMAGE/A_IMAGE                                       
         1 -11.9465     14.3521     59.6813   1.3590184522e+02   6.2894795383e+01     2.515137       1.2278  68.85   0.01021584    3.320    0.699
         2 -12.4419     18.5594     40.5844   1.2923401306e+02   6.7202930775e+01     1.192484    0.9221506 -70.44  0.004277623    1.292    0.226
         3 -12.0670     51.4438     34.6831   1.0970583801e+02   6.4920851782e+01     1.972428     1.105424 -42.77  0.009390297    1.619    0.382
         4 -11.1891     78.2871      7.1356   8.4129106169e+01   6.4322588424e+01    0.8281987     0.497265  -6.90  0.003870314    1.848    0.459
         5 -13.0714     85.3029     55.5389   1.0385924678e+02   5.4933232902e+01     2.556209     1.920707   8.01  0.009480163    1.579    0.367
         6 -12.0377     74.7131     75.9194   1.1454754442e+02   5.2353327772e+01     2.727879     1.834103  75.27  0.008246282    2.602    0.616
         7 -12.4170    134.9641      4.7784   6.9534425352e+01   5.0508227023e+01     2.039368    0.7430292  62.81  0.007715852    2.397    0.583
         8 -12.4252     19.0075     13.7568   1.1872064363e+02   7.3044423765e+01     1.221721    0.6138321 -35.68  0.005921022    1.773    0.436
         9 -11.3290    113.3643      8.9460   7.5380694091e+01   5.5706450659e+01     1.226443    0.6144429  44.91  0.005229231    1.886    0.470
        10 -12.7881     71.3888     30.9290   9.8998305603e+01   6.2254830964e+01     4.246636     1.391406  49.24   0.01386816    3.737    0.732
        11 -11.9892    130.3665     20.2855   7.6601871657e+01   5.0136891162e+01     1.216599    0.6036528  60.16  0.003137845    1.919    0.479
        12  99.0000     40.5502     64.7174   1.2517795389e+02   5.9546707963e+01     4.892372      2.12084  55.41   0.01499239    5.285    0.811
        13 -12.6033     62.7268      4.0984   8.8257149221e+01   6.7997851143e+01     3.023082    0.5243655  53.17  0.007836314    6.367    0.843
        14 -12.5896     92.4324     16.8287   8.4571793383e+01   5.9922120152e+01    0.6162362    0.3391033  -5.61  0.002484939    2.403    0.584
        15 -13.5202     98.9448      7.3515   7.8075025273e+01   5.9462839974e+01     1.002329    0.8003398  49.55  0.002769985    1.177    0.150
        16 -12.6705    112.2065     22.0035   8.1451279311e+01   5.4519236270e+01     1.250088    0.8966624  -2.77   0.00607066    1.529    0.346
        17 -12.5653    120.5555     15.5338   7.6695992164e+01   5.3184470924e+01      1.63106    0.3011689  58.56  0.001050418    4.083    0.755
        18 -13.3561      5.1352     12.3053   1.2804872496e+02   7.4366229225e+01     1.598708    0.7421376 -55.01  0.007258629    1.677    0.404
        19 -12.0850     29.6598     25.5089   1.1740028376e+02   6.9579061557e+01     1.552172    0.4402061 -47.83  0.005862503    2.814    0.645
        20 -12.1032     41.5907     16.7914   1.0616220130e+02   6.9775187946e+01     1.089979    0.6597979 -44.93  0.005601768    1.641    0.391
        21 -12.0181     50.1241     10.9723   9.8264691990e+01   6.9400962101e+01    0.6066766    0.5510561  88.82  0.003118529    1.709    0.415
        22 -12.2599     37.9344     46.7500   1.2105910431e+02   6.4043838233e+01     1.439604    0.9132116  58.07  0.006718444    2.450    0.592
        23 -11.8794    123.6343     69.4487   9.6590543869e+01   4.4165270456e+01     1.641659    0.6530284 -37.13  0.005710175    2.496    0.599
        24 -11.4558    117.4869     65.0450   9.6837986343e+01   4.6369400523e+01     2.363894      1.29084  -5.60   0.00586783    6.165    0.838
        25 -11.6957    110.8557     64.9049   9.8743501046e+01   4.7850150234e+01      2.71377      1.53379  -0.49   0.00707697    5.709    0.825
        26 -12.0745     57.9393     69.3630   1.1912420878e+02   5.6353107586e+01     2.838422    0.8496167 -60.60  0.008396747    4.120    0.757
        27 -11.9112    148.1799     19.2927   7.2932336489e+01   4.5632085330e+01     1.620647     0.681806 -16.03  0.005370877    2.779    0.640
        28 -12.3377      8.4368     26.2886   1.3084020921e+02   7.1112116572e+01     1.480761    0.4607554   6.81  0.005540472    4.377    0.772
        29 -11.7053     67.8531     20.6075   9.5384315316e+01   6.4653027893e+01     1.418266    0.5558137  35.48  0.004249766    2.994    0.666
        30 -12.7267    163.5513     11.3261   6.7827806042e+01   4.2445099609e+01     2.443564     1.380764 -18.88   0.01117895    1.834    0.455
        31 -10.6145    162.0186     38.8784   7.7462395579e+01   3.9729876997e+01     0.547577    0.2938757 -21.54  0.002274527    1.951    0.487
        32 -10.1739    185.7095     14.1989   6.6127118437e+01   3.6540911844e+01    0.5105189    0.3922502 -10.51  0.002260406    1.383    0.277
        33 -11.5021    184.3168     26.8582   7.0209853921e+01   3.5572709738e+01    0.4977194    0.3350231  31.27  0.001133495    1.746    0.427
        34  -9.7039    217.4040     14.5222   6.3196968297e+01   2.8962163459e+01    0.3860547    0.2495426  -9.20  0.001506296    1.720    0.419
        35 -10.8071    213.9551     21.1717   6.5301620984e+01   2.9090950865e+01    0.5508599    0.3022363 -37.49  0.001692264    1.613    0.380
        36 -10.4580    212.4659     14.7847   6.3689013667e+01   3.0064960748e+01    0.7199565    0.3550729 -26.76  0.003420248    1.837    0.456
        37 -10.7051    244.6245     19.7505   6.2413708409e+01   2.2599148715e+01    0.4207897    0.3215738 -85.76  0.001732452    1.445    0.308
        38  -8.9689    231.2323     16.8207   6.2688195491e+01   2.5686686304e+01    0.3618872    0.1543631 -46.91  0.001655074    2.168    0.539
        39  -9.3400    192.3618     13.2498   6.5139567189e+01   3.4991635618e+01    0.4147415    0.1741503 -50.37  0.001365479    2.593    0.614
        40 -10.6554    202.2585     18.8549   6.5783333618e+01   3.2053835647e+01    0.5419281    0.3619713  29.60  0.002076901    1.845    0.458
        41  -9.7134    177.8620     20.0740   6.8893416847e+01   3.7916188914e+01    0.3165596    0.2421509 -35.07  0.001241836    1.267    0.211
        42 -11.3876    232.8535     11.2000   6.1150049899e+01   2.5872861606e+01    0.9988251    0.4048592 -64.72 0.0005287493    3.345    0.701
        43  -9.5845    229.8752      3.2880   5.9363062088e+01   2.7228455875e+01    0.3411164    0.2200631  31.80  0.001852606    2.059    0.514
        44 -10.5454    224.0238      1.4872   5.9282929331e+01   2.8664703433e+01    0.2565158    0.1871891  87.75 0.0003876378    1.415    0.293
        45 -10.2452    220.5461      1.5378   5.9525630839e+01   2.9434106000e+01    0.2753868    0.1775568 -28.92 0.0008324574    1.411    0.291
        46 -10.0751    242.9682     12.6311   6.0809247411e+01   2.3619026927e+01    0.3424748    0.2426016 -22.21  0.001280829    1.323    0.244
        47  -9.1502    221.7545     11.2319   6.1975500320e+01   2.8295475112e+01    0.4378394    0.1675237 -46.39  0.001051363    2.419    0.587
        48  -9.9917    190.0578      8.2694   6.3874169103e+01   3.6021059450e+01    0.2791192    0.2273879  56.92   0.00058783    1.264    0.209
        49  -9.9493    196.0988      4.4951   6.2203676793e+01   3.4881299246e+01    0.5918495    0.4131662  -1.95  0.003165239    1.653    0.395
        50 -10.1964    200.4930      6.4733   6.2397065384e+01   3.3649517299e+01    0.4873332    0.2407129  -9.60  0.001687297    2.428    0.588
        51 -11.1875    204.3220      6.5174   6.2086677303e+01   3.2734852353e+01    0.4430823    0.3781147  -3.45   0.00158798    1.282    0.220
        52 -11.8055    209.5504      3.5989   6.0860820809e+01   3.1765740863e+01    0.5071793    0.3313119 -77.71 0.0005783036    1.611    0.379
        53 -10.4266    248.2449      7.2792   5.9202403116e+01   2.3039084281e+01    0.5104845     0.305509 -29.33  0.002494964    1.418    0.295
        54  -9.4106    245.4854      4.0030   5.8591001559e+01   2.3889405215e+01    0.3560124    0.2024896  34.74  0.001451766    2.561    0.610
        55  -9.2721    180.5703      7.3553   6.4543863962e+01   3.8464511049e+01    0.4840132    0.1449404 -24.53  0.001739282    3.023    0.669
        56  -9.2864    171.3673      1.2712   6.3546469508e+01   4.1321047169e+01    0.2742055    0.1235219  77.52 0.0001056821    2.261    0.558
        57  -9.9223    173.6693      9.0206   6.5827852915e+01   4.0061264390e+01    0.2340674    0.2287049 -12.58  0.000598379    1.060    0.057
        58  -9.7509    174.9422      4.4530   6.4207859838e+01   4.0142402869e+01     0.510641    0.2632275  56.63  0.002313101    1.868    0.465
        59  -8.7577    241.8040      1.4550   5.8195261171e+01   2.4866470561e+01    0.2028459    0.1138241  87.98  0.001113848    1.955    0.489
        60  -8.4582    189.5036      1.4189   6.1867514023e+01   3.6753950991e+01    0.1288138    0.1242954 -88.27  8.65578e-05    1.049    0.046
        61 -11.6633     37.0267     27.4974   1.1404599933e+02   6.8325087519e+01    0.3890514    0.2562894  26.22 0.0006889359    1.628    0.386
        62  -8.8908    184.0120    250.5057   1.1958256178e+02   3.3151969243e+00    0.1474807    0.0727304  45.78  0.000810632    2.606    0.616
        63  -9.4318    211.0164    240.8318   1.1371986180e+02   1.0240468622e+00    0.1791056    0.1305224  -6.24  0.001228128    1.298    0.230
        64  -9.8195     12.8840    238.8485   1.4991490107e+02   2.4253841793e+01    0.1359634    0.1165363  52.15 0.0007836897    1.247    0.198
        65  -9.8587     12.4105    232.2605   1.4980431825e+02   2.5357593336e+01    0.2697517    0.1183252  71.71  0.001727064    2.072    0.517
        66 -12.5919     53.7199     87.6925   1.2542224551e+02   5.2474535417e+01     2.599184      1.78077  -8.63   0.01127293    1.955    0.489
        67  -9.4079    136.8791    225.8280   1.2529981052e+02   1.2502987067e+01    0.2063551    0.1348908 -54.36  0.001322445    2.026    0.507
        68  -8.5362    234.3176    200.3269   1.0363724926e+02   2.4037134686e+00    0.1225048   0.06975753   5.68 0.0005886404    1.677    0.404
        69 -10.5505     26.5214    191.5244   1.4535840478e+02   3.1444029155e+01    0.3710024    0.2383661  75.53  0.002366386    1.407    0.289
        70 -11.3578     18.1740    186.0812   1.4689454579e+02   3.3229572674e+01    0.3554827    0.2993892 -10.54  0.001393792    1.681    0.405
        71 -10.9096      6.1852    186.0379   1.4948114568e+02   3.4178940774e+01    0.4648328    0.1271881  48.67    0.0021802    2.637    0.621
        72  -9.6037     39.1118    177.4052   1.4162460322e+02   3.3109251010e+01    0.2894264    0.1764057 -66.41  0.001739115    1.688    0.407
        73 -12.1043      6.4455    113.7892   1.4557657556e+02   5.0050379574e+01     1.331064    0.2675118 -59.49  0.004835528    3.778    0.735
        74 -13.0716     18.7778    100.1353   1.4022140495e+02   5.2618700966e+01     2.452688     1.024189 -54.14   0.01124316    2.153    0.536
        75  -9.5354      1.4610    177.7311   1.5020262257e+02   3.6171442137e+01    0.1976116   0.08909674  87.51  0.001116888    1.981    0.495
        76  -9.4955     62.7357    167.9138   1.3505430367e+02   3.2580219375e+01    0.2741666    0.2000863  78.19 0.0009896971    1.414    0.293
        77  -9.0879      9.0584    167.4969   1.4806847227e+02   3.7735750279e+01    0.1901636    0.1101982  17.78 0.0009636041    2.053    0.513
        78  -9.5434     13.3183    165.0570   1.4694275345e+02   3.7935358231e+01    0.2179201    0.1587969  39.59 0.0009286889    1.320    0.242
        79 -10.6255      2.5361    159.8568   1.4926774642e+02   3.9807112576e+01    0.5608477    0.2130799  88.09   0.00276198    2.416    0.586
        80  -9.6998     21.9280    138.3640   1.4297645390e+02   4.3208879079e+01    0.2407228      0.18008 -41.33   0.00108817    1.607    0.378
        81 -10.6359     16.7630    158.6210   1.4574466106e+02   3.9057007354e+01    0.4471472    0.2689047 -37.31  0.002491753    2.391    0.582
        82 -12.0321     19.7300    147.9411   1.4429333617e+02   4.1192814120e+01    0.6756374    0.5778378 -63.26  0.003379519    1.268    0.211
        83  -8.3735     55.6538    155.6768   1.3553133472e+02   3.6047621140e+01    0.1260806   0.09463625 -31.13 0.0007049907    1.739    0.425
        84  -8.7047     83.2210    154.5926   1.2814863046e+02   3.2855694277e+01    0.1820413    0.1249224  20.15 0.0007425043    1.649    0.393
        85 -10.6557    105.0908    116.4059   1.1508747276e+02   3.7968298944e+01    0.4880602    0.2282002  35.55  0.001926377    2.172    0.540
        86  -9.0577     39.1804    115.4302   1.3536817575e+02   4.7196601041e+01    0.2251925     0.168812  88.09  0.000438697    1.308    0.236
        87  -9.5148     12.8320    117.3456   1.4389014524e+02   4.8815852893e+01    0.2585755    0.2056541  45.84  0.001025935    1.303    0.232
        88  -9.1435     41.6871    118.3277   1.3496492886e+02   4.6248284601e+01    0.2703683    0.1661531  52.27  0.001385107    1.706    0.414
        89  -9.5621     97.7837    115.0274   1.1691151093e+02   3.9527799400e+01    0.3095174    0.2799989 -33.56  0.001063652    1.124    0.111
        90  -8.9067     27.8818    115.8774   1.3903452004e+02   4.8082626008e+01    0.1842972    0.1484623 -61.39 0.0002871634    1.190    0.160
        91 -10.4568    132.7983    111.2196   1.0622447435e+02   3.3888428586e+01    0.6554204    0.3900001 -37.07  0.002856112    1.724    0.420
        92  -9.7267    133.8656    102.8457   1.0377698525e+02   3.5372835998e+01    0.3678084    0.2872019 -47.74  0.001451157    1.339    0.253
        93  -9.2896     92.6478    111.6527   1.1769869924e+02   4.1151334115e+01    0.3505691    0.2970754  26.01  0.001884788    1.225    0.183
        94  -8.6568     45.4366    113.0004   1.3299432728e+02   4.7169797914e+01    0.2031975    0.1739793  32.14  0.001117222    1.257    0.205
        95  -8.8807    194.3181    112.3359   9.2773168310e+01   2.1110029698e+01     0.150998     0.103771   6.83 0.0007048778    1.700    0.412
        96  -9.7479    105.3416    109.5255   1.1340987736e+02   3.9457772068e+01    0.3520139    0.3015823 -40.47  0.001870336    1.161    0.138
        97  -9.2281     75.9606    102.5191   1.2093891311e+02   4.5898114629e+01    0.3195085    0.1922622 -57.13  0.001188404    1.599    0.375
        98 -11.0340     67.3925    107.8407   1.2488521293e+02   4.5826069610e+01    0.7193225    0.3590499 -36.69  0.002812064    2.675    0.626
        99 -10.2287     73.9632    108.1075   1.2279823630e+02   4.4853519554e+01    0.3547583    0.3033269  39.22 0.0007580808    1.205    0.170
       100  -9.3250     34.5387    109.4432   1.3606479890e+02   4.9091188079e+01    0.2524164    0.2368327  11.81  0.001630684    1.227    0.185
       101  -8.7340     38.6248    107.2596   1.3438740742e+02   4.9253942426e+01     0.192888    0.1049236 -58.43 0.0006529884    1.645    0.392
       102  -9.5591    120.6104    109.0781   1.0895260856e+02   3.6719383618e+01    0.2773387    0.2193069  29.61 0.0006635741    1.283    0.221
       103  -8.9120     53.4667    105.2067   1.2902997355e+02   4.8203865366e+01    0.3455952    0.1333947 -67.77  0.001299334    2.637    0.621
       104  -8.8743     97.5632    103.8933   1.1437526765e+02   4.2096884942e+01    0.3106498     0.186638  54.02  0.001309675    2.035    0.509
       105  -8.2362    105.6889    103.2792   1.1176627013e+02   4.0784495784e+01    0.1451162    0.1185869  76.40 0.0003890007    1.563    0.360
       106 -10.1028    140.8331    100.7104   1.0141777780e+02   3.4348356703e+01    0.3448457    0.2505777 -29.89  0.001634711    1.398    0.285
       107  -9.4532      8.1684     93.9921   1.4326374643e+02   5.4765244511e+01    0.4557606     0.142399  35.32  0.001921379    3.176    0.685
       108 -10.6726      4.1219     99.9318   1.4521465064e+02   5.3517958486e+01    0.4736499    0.3195663 -77.99  0.001723628    1.229    0.186
       109  -9.1702      9.3990     99.7072   1.4340319118e+02   5.3297992536e+01    0.2299352    0.1892084  67.71  0.000899787    1.208    0.172
       110 -11.0367      3.2503     89.3235   1.4456478057e+02   5.6148868583e+01    0.6464134    0.2731428 -63.83  0.002830172    1.893    0.472
       111 -11.2696      4.3482     80.8877   1.4328798690e+02   5.8172280617e+01    0.5499319    0.2711158 -46.10  0.001780588    1.965    0.491
       112 -11.2988     13.3473     89.0121   1.4083127430e+02   5.5708038440e+01    0.4056402     0.291846 -77.91 0.0006210351    1.190    0.159
       113 -10.5621      9.3591     85.3839   1.4188784993e+02   5.6823990413e+01     0.285373    0.2069382 -71.08 0.0006266499    1.147    0.128
       114  -9.4053    151.1288     99.7696   9.8645869486e+01   3.2340533540e+01    0.3978572       0.2128 -43.79   0.00162318    1.920    0.479
       115 -11.1974    116.7731     99.3133   1.0749763642e+02   3.9545796936e+01    0.6751893    0.5957929   3.98  0.002930098    1.191    0.161
       116  -9.9837    159.1189     96.8182   9.5988490258e+01   3.1157066466e+01    0.4287659    0.3507522  31.91  0.001840807    1.220    0.180
       117  -9.0080      8.4914    152.7042   1.4747127541e+02   4.0955465026e+01    0.2748459   0.08899445  37.48  0.001109889    2.553    0.608
       118  -9.6483    187.9334     92.7473   8.8943143003e+01   2.5563434997e+01    0.4417945    0.1904714 -38.85  0.001711797    2.235    0.553
       119 -10.1287    114.4485     51.3601   9.2797720542e+01   4.9544454254e+01    0.7630322      0.51973 -18.54  0.003428151    1.632    0.387
       120 -10.2523     89.8400     77.8791   1.0976983435e+02   4.9332362895e+01    0.6684872    0.2899994  35.10  0.002464375    2.508    0.601
       121 -11.6147     96.8083     62.3821   1.0232428297e+02   5.1288638425e+01     1.137411    0.7662368 -11.45  0.002903064    2.015    0.504
       122 -11.0000     34.8854    150.2671   1.4047555582e+02   3.9380879493e+01    0.3771457    0.2878215  65.91  0.001424932    1.196    0.164
       123 -11.0593     38.9922    145.7835   1.3895007713e+02   4.0013960967e+01    0.4796815    0.3255934 -81.91  0.001669006    1.390    0.281
       124 -10.5996    102.3915     70.7362   1.0334824036e+02   4.8454780276e+01    0.6842523    0.3834405 -53.24  0.002221333    2.065    0.516
       125 -10.0079     67.0556    148.3639   1.3159624428e+02   3.6342838138e+01    0.2569584    0.1905414 -83.12 0.0008859835    1.402    0.286
       126 -10.3941    130.5641     40.4348   8.4438340790e+01   4.7438977470e+01     1.027644    0.4400682 -22.71  0.003565195    2.747    0.636
       127 -10.8173    134.9818     34.2482   8.1086602129e+01   4.7208010068e+01    0.4624648    0.3264368  44.08 0.0004188166    1.394    0.282
       128 -11.3764    141.8724     40.8345   8.2043221093e+01   4.4555896427e+01    0.8202649    0.6721271  58.58  0.003613116    1.242    0.195
       129 -10.7670    147.8493     35.0379   7.8733482621e+01   4.3832709346e+01     1.084306    0.2372434  57.59   0.00311796    3.895    0.743
       130 -11.3428    105.5934     87.3281   1.0747261911e+02   4.4305539340e+01      0.80504    0.5298707 -40.69  0.002794397    1.494    0.330
       131 -12.1085    100.5836     78.9469   1.0654557984e+02   4.7083927586e+01     1.046461    0.9537095  73.02  0.005570862    1.288    0.224
       132  -9.3166    194.3150     90.2570   8.7113683500e+01   2.4576734778e+01    0.3182495    0.1908641 -25.02  0.001274668    1.615    0.381
       133  -9.7676     74.6033     88.8663   1.1813620968e+02   4.9346623976e+01    0.3914036    0.2985596  -6.29  0.001938071    1.633    0.388
       134  -9.4406     60.4298    147.8602   1.3333305806e+02   3.7254603089e+01     0.194328    0.1781153 -10.81 0.0005645304    1.300    0.231
       135 -10.1028    161.2589     82.1811   9.1354273652e+01   3.3266673613e+01    0.5597948    0.4270099 -55.63  0.002680455    1.565    0.361
       136 -10.0846    152.9787     87.4255   9.4743027667e+01   3.4214858979e+01    0.3524119    0.2743783  33.30 0.0008908843    1.306    0.234
       137  -9.1723    237.9891     86.0400   7.9324786069e+01   1.6281816769e+01    0.2194516    0.1483797   8.95  0.001150314    1.727    0.421
       138 -10.5921    150.0924     75.2797   9.1775020599e+01   3.7039117926e+01    0.8195989     0.427222 -22.00  0.003022779    2.418    0.586
       139 -10.9168    135.1788     79.6700   9.6775703819e+01   3.9644246958e+01     1.041034    0.6090788 -15.93  0.003853114    2.545    0.607
       140 -10.8217    143.2144     77.5918   9.4119904729e+01   3.8211828568e+01    0.6281277      0.39801  19.78  0.002508665    2.202    0.546
       141  -9.1437    155.5005     70.7238   8.9144760420e+01   3.6553492768e+01    0.4143778    0.2268032 -28.19  0.001530936    1.869    0.465
       142 -10.4120    151.8401     66.9099   8.8748727702e+01   3.8058965133e+01    0.7397413    0.2835375  48.43  0.002578967    2.572    0.611
       143 -11.0182    140.6331     68.6186   9.1906274084e+01   4.0414867583e+01    0.7039649    0.5862021  79.36  0.002922413    1.509    0.337
       144 -10.0972    132.4758     68.3391   9.3860228991e+01   4.2360555727e+01    0.5482433    0.3554814  68.76  0.001976842    2.183    0.542
       145  -9.5030     17.2631     82.3324   1.3845052136e+02   5.7128086737e+01    0.2795251    0.2047229  -3.77  0.001632157    1.661    0.398
       146 -11.8256    119.2709     86.2859   1.0310835310e+02   4.1775503898e+01     1.160334     0.732337  54.52  0.001762259    1.841    0.457
       147  -9.5437    217.8907     79.4832   8.0475628949e+01   2.1145703654e+01    0.6394172    0.2840006  -9.87  0.001895849    4.816    0.792
       148  -9.3669    206.7175     91.6642   8.5355245817e+01   2.1740017202e+01    0.2751565     0.211076 -37.98 0.0006400794    1.293    0.227
       149  -9.3209     37.0077     75.6510   1.2930254016e+02   5.7236220260e+01    0.2523872    0.1728143 -52.30 0.0006798601    1.288    0.224
       150  -9.3671     18.1636     74.0097   1.3679374402e+02   5.9136084400e+01    0.3116605    0.2236509 -81.04  0.001507437    1.300    0.231
       151  -9.3444     21.4111     72.2334   1.3512357382e+02   5.9360627016e+01    0.2407835    0.1973259  56.35  0.001225382    1.382    0.276
       152  -9.0424      2.4614     75.0468   1.4337427177e+02   5.9687663037e+01    0.2316951    0.1461847 -32.66 0.0009341326    1.743    0.426
       153  -8.6327    192.8670     74.0187   8.2928833468e+01   2.7348324951e+01    0.2487555    0.1457598 -49.11  0.001036304    1.979    0.495
       154  -9.4538    214.9794     71.6625   7.8856504306e+01   2.2821194952e+01    0.3611756    0.1884113 -23.31  0.001195647    1.837    0.456
       155  -9.5821      4.5550     70.1818   1.4191919142e+02   6.0798277811e+01    0.4078279    0.2868057  54.16  0.001572319    1.607    0.378
       156 -10.2596    250.3396     66.7170   7.3209626245e+01   1.6341808309e+01    0.5517452    0.1578903 -24.57  0.001969157    3.337    0.700
       157  -8.7437    202.2249     68.2469   7.9819064832e+01   2.6074418245e+01    0.1938932    0.1572513 -51.13 0.0005285703    1.337    0.252
       158 -10.5350    173.8632     49.0223   7.8724827240e+01   3.5416743550e+01    0.9453132     0.538563  62.29  0.004129214    1.855    0.461
       159 -11.6787    164.3587     63.1193   8.4916258539e+01   3.5669218006e+01    0.7940504     0.641436  -0.55   0.00399232    1.336    0.252
       160 -10.8518    165.1763     56.9119   8.2795253772e+01   3.6416641917e+01    0.6847289    0.4451228  38.90  0.002489396    1.640    0.390
       161  -9.9444    178.1703     60.2120   8.1439089374e+01   3.2790465185e+01    0.4147137    0.2892798  -6.67 0.0005816982    1.648    0.393
       162 -11.0302    174.0428     57.3604   8.1297256568e+01   3.4196652653e+01    0.5863067    0.4428959   3.31  0.001784792    1.517    0.341
       163  -9.0905    188.9591     64.8122   8.0961237545e+01   2.9582793346e+01    0.2513758    0.2071566 -82.39 0.0007563482    1.521    0.343
       164  -8.8567    135.5136     63.5355   9.1487866054e+01   4.2507049826e+01    0.3017967    0.1483352 -35.12 0.0006191607    1.993    0.498
       165  -9.9682     19.0373    119.3399   1.4216028733e+02   4.7917862286e+01    0.6726339    0.2517475 -65.07  0.003038276    2.231    0.552
       166  -9.0424    219.1867     60.8166   7.5420441191e+01   2.3344072521e+01     0.317039    0.2571909  61.05 0.0006094925    1.388    0.279
       167  -9.8867    222.3279     57.2093   7.4074015394e+01   2.3125329097e+01    0.3689046    0.2801638 -36.27   0.00159223    1.195    0.163
       168 -10.4303    200.9891     57.7343   7.7069716478e+01   2.7785635945e+01    0.6140823    0.3781909  16.28  0.002644294    2.304    0.566
       169  -9.2728    149.2894     59.5686   8.6925765554e+01   3.9875114991e+01    0.5261002    0.2627845 -50.99  0.001887355    2.652    0.623
       170  -9.9915    157.9292     50.7176   8.2185013087e+01   3.9114801946e+01    0.4696311    0.3767824 -20.97  0.001608212    1.239    0.193
       171  -9.5273    152.7878     56.3364   8.5098996080e+01   3.9534120385e+01    0.3752683    0.2959787 -10.77  0.001509459    1.340    0.254
       172  -9.8925    134.7172     52.4983   8.7866401878e+01   4.4553615607e+01    0.5774044    0.3753326 -19.58  0.002527082    1.685    0.406
       173 -10.6616    149.9465     51.7677   8.4165079268e+01   4.0934587777e+01    0.5756853    0.4034179   8.10  0.001917667    1.798    0.444
       174  -9.3928    158.5332     58.6821   8.4675517280e+01   3.7767680447e+01    0.4522675    0.3030883  10.86  0.001923403    1.997    0.499
       175 -10.0366      3.0804     57.4678   1.4076901519e+02   6.3970220782e+01    0.3736583    0.2690048  80.22  0.002052106    1.468    0.319
       176  -9.7609     60.6096     54.3509   1.1321715866e+02   5.9403360337e+01    0.3974757    0.2939831 -54.90  0.001428277    1.365    0.268
       177  -9.4420    237.1022     53.7765   7.1489525862e+01   2.0460270975e+01    0.3612861    0.1911284   6.46  0.001385243    3.524    0.716
       178 -10.0777    186.6944     53.2605   7.7928995523e+01   3.1729639409e+01    0.5080893     0.286439  15.45  0.001876274    2.995    0.666
       179  -9.7966    188.8273     48.8805   7.6293613149e+01   3.1803345430e+01    0.3527668    0.2480476 -49.48 0.0006164544    1.500    0.333
       180  -8.6872    192.8028     53.8365   7.7159663917e+01   3.0204694375e+01    0.1929866    0.1591831 -56.21 0.0002984112    1.313    0.238
       181 -10.6436    105.7701     53.6772   9.6260278822e+01   5.1079825552e+01    0.6921608     0.468055  36.45  0.003182248    1.522    0.343
       182 -10.4114    222.2890     48.4030   7.1759534050e+01   2.4207636477e+01    0.5063532    0.3797817 -41.36  0.002632464    1.240    0.194
       183  -8.6163     65.4584     50.0752   1.0959360029e+02   5.9573012868e+01    0.2213406    0.1853496  28.96 0.0009896576    1.254    0.202
       184  -9.9709      5.0658    147.1640   1.4805059085e+02   4.2408402972e+01    0.3668917    0.2070725  30.60   0.00219882    1.793    0.442
       185  -9.1607    196.8504     41.7986   7.3069009343e+01   3.0786626278e+01    0.2726806    0.1843914 -60.21 0.0004137415    1.717    0.418
       186 -10.2394    191.7662     39.0192   7.2929620378e+01   3.2339670446e+01    0.5739616    0.3657459   6.10  0.001060471    2.080    0.519
       187  -8.8831    188.3284     34.6078   7.2063480955e+01   3.3700171481e+01    0.2154136    0.1338401  65.78  0.000330093    1.674    0.403
       188  -9.8069    194.6846     30.9039   7.0139519681e+01   3.2584621029e+01    0.4064474    0.2581737 -18.44  0.001521429    1.599    0.375
       189 -10.2793    206.9620     44.2961   7.2480596524e+01   2.8123319621e+01    0.6396073    0.4573607 -75.46  0.003277369    1.735    0.424
       190 -10.9229    203.1534     37.6443   7.1068390520e+01   2.9797833776e+01    0.5479732    0.3663805  38.02  0.002750933    1.710    0.415
       191 -10.4072      6.9840    142.6614   1.4731099291e+02   4.3292186756e+01    0.6103464    0.3172111  23.61  0.003436228    2.088    0.521
       192  -8.7794    248.9685     44.8126   6.8105938222e+01   1.9116751389e+01    0.1871519    0.1339489  -0.34  0.001074943    1.589    0.371
       193  -9.2941    230.9734     44.4190   6.9770662920e+01   2.2816620994e+01    0.4670446    0.2051975  39.99  0.001888298    3.155    0.683
       194 -10.4674    200.1761     31.7556   6.9730845801e+01   3.1174918486e+01    0.4140887    0.2798449 -62.18  0.001050011    1.667    0.400
       195 -11.4645    141.5578     51.5713   8.5935999945e+01   4.3031650339e+01    0.8265156    0.3868561  41.41  0.002253243    2.326    0.570
       196 -10.6922    118.4202     41.8130   8.8029622111e+01   5.0192511280e+01    0.5524251    0.4720494 -41.88  0.002210322    1.234    0.189
       197  -9.9750    124.8853     37.3980   8.4641454015e+01   4.9288292818e+01    0.3958848    0.3053248  -9.19  0.001187906    1.379    0.275
       198 -10.2503    125.0853     32.3593   8.2606110323e+01   4.9952903466e+01    0.5252694    0.2922017 -17.33  0.002148056    2.042    0.510
       199  -9.1320     28.4049    121.6455   1.3951423327e+02   4.6643213154e+01    0.3909667     0.178713 -75.53  0.001827245    1.988    0.497
       200 -10.1995     21.0143    128.3507   1.4238958014e+02   4.5623072331e+01     0.391935    0.3208622   8.22  0.002529664    1.498    0.332
       201  -8.9114    215.0411     41.9973   7.0876117093e+01   2.6563843061e+01     0.221358    0.1550985  22.10  0.001128243    1.762    0.432
       202  -9.7921    180.5937     38.9821   7.4501351480e+01   3.5069941384e+01    0.4389036    0.2965434 -61.30  0.001630914    1.765    0.434
       203  -8.9313    234.7926     39.4071   6.8110288730e+01   2.2579941089e+01    0.1773618    0.1143012  51.47 0.0009599232    1.745    0.427
       204  -8.7512    173.0880     38.9734   7.5650391597e+01   3.6934903334e+01    0.2292671    0.1832505 -57.02 0.0006832339    1.356    0.262
       205  -9.7376    168.5517     36.4263   7.5547794611e+01   3.8394204313e+01    0.3390449    0.2711796 -39.72  0.001178906    1.240    0.194
       206  -8.7774    114.0640     36.6642   8.7151075794e+01   5.2030127012e+01    0.2110593    0.1864986  39.88 0.0008105043    1.107    0.097
       207  -8.5904    221.9800     35.9178   6.8485306235e+01   2.5716047760e+01    0.1635259    0.1421601 -31.28 0.0009949065    1.036    0.035
       208 -10.0970    246.4633     33.3322   6.5555845179e+01   2.0849427582e+01    0.4011874    0.2191886  53.28  0.001139074    2.097    0.523
       209 -10.8822    237.0121     32.6444   6.6201317053e+01   2.2851294579e+01    0.4547179    0.3547318  76.76  0.002008814    1.454    0.312
       210  -8.9964    242.3154     31.3157   6.5412532397e+01   2.1898658760e+01    0.1821164     0.140404 -32.06 0.0004427219    1.108    0.098
       211 -10.1428    211.0318     32.1749   6.8625408702e+01   2.8593591008e+01    0.4893891    0.3218266  -1.08  0.001983486    1.839    0.456
       212 -10.3057     26.5417    127.7484   1.4070615298e+02   4.5334083410e+01    0.3819411    0.3297168  52.75  0.002365326    1.165    0.142
       213  -9.9601      8.9972    134.7455   1.4629284829e+02   4.4966623443e+01     0.233227    0.1786871  42.08 0.0007876971    1.324    0.245
       214  -9.7256    187.6915     23.3317   6.8705351339e+01   3.5120964749e+01    0.4473002    0.2186082 -38.74  0.001713044    1.915    0.478
       215  -8.8794     37.8528     33.3735   1.1612614054e+02   6.7002119325e+01    0.1851948    0.1210255   6.17 0.0009238364    1.793    0.442
       216 -10.5409    226.5297     28.5787   6.6111178249e+01   2.5515033803e+01    0.5856506    0.2593043 -41.77  0.002679168    2.003    0.501
       217  -9.4906     77.0634     41.5189   1.0142392255e+02   5.9248744699e+01     0.268621    0.2467375 -76.19 0.0008758004    1.394    0.283
       218  -8.4641    201.3419     25.7206   6.7854078228e+01   3.1559763667e+01    0.1794223    0.1236071 -13.95 0.0003833366    1.517    0.341
       219  -8.2035    191.5196     26.4988   6.9207387852e+01   3.3840835182e+01    0.1359597    0.1317348 -29.74 0.0008102199    1.027    0.026
       220  -8.5759    193.7577     24.0130   6.8201352437e+01   3.3563830640e+01    0.1903905    0.1302605  -6.20 0.0003665518    1.648    0.393
       221  -8.9031    219.5045     25.4375   6.5935240723e+01   2.7395869369e+01    0.2186938    0.1233407 -88.82 0.0007549698    2.244    0.554
       222 -11.1565     13.8103    131.0744   1.4469029631e+02   4.5499032894e+01    0.6578649     0.429632  36.09    0.0039875    1.559    0.359
       223 -10.3339     11.6973    125.3190   1.4486881921e+02   4.6991357730e+01    0.3107459    0.2305245  41.97 0.0009469172    1.379    0.275
       224  -9.8105     33.6454    155.9400   1.4128721136e+02   3.8225182946e+01     0.174962    0.1642482  17.29 0.0004597764    1.274    0.215
       225  -9.5069    241.3372     23.6981   6.3621753669e+01   2.2880566285e+01    0.3838308    0.1644339 -44.62  0.001214478    2.070    0.517
       226  -9.9972     45.5002    132.5397   1.3564599258e+02   4.2453654087e+01    0.3213147    0.2245812 -59.69  0.001812953    1.390    0.280
       227  -8.6383    239.6787     18.6662   6.2511375086e+01   2.3721676170e+01    0.1932952    0.1540823 -15.67  0.001217059    1.263    0.208
       228  -9.7908     98.1591     22.3103   8.5449280489e+01   5.7865286495e+01     0.278482    0.2598523 -83.42 0.0008537067    1.302    0.232
       229  -9.6526    229.6436     20.1928   6.3674094762e+01   2.5698205666e+01    0.3834022    0.2534143 -76.13  0.001975359    1.708    0.414
       230  -9.9541     47.0223    137.0573   1.3575345362e+02   4.1232674817e+01    0.6370775    0.1613259  47.27  0.002042486    4.460    0.776
       231 -10.4433     54.4935    137.9794   1.3373065836e+02   4.0208631727e+01    0.4761875    0.3073708  37.46  0.002571325    1.515    0.340
       232 -10.7830     55.3227    132.4706   1.3275435819e+02   4.1407569623e+01    0.5384021    0.2989331 -64.56  0.002659356    1.703    0.413
       233  -9.2789    197.6486     16.8918   6.5679449458e+01   3.3353134334e+01    0.2426986    0.2193018  63.01 0.0006585148    1.154    0.133
       234 -10.6573     55.4957    128.4970   1.3214314670e+02   4.2329544049e+01    0.6746001    0.2804508 -50.81  0.002817708    2.448    0.591
       235  -8.3881     61.5052     15.9369   9.5647480489e+01   6.6590871025e+01    0.1849822    0.1270488 -29.33 0.0004249205    1.378    0.274
       236  -9.2990     98.5865    135.7552   1.2090905589e+02   3.4738100598e+01    0.1942419    0.1361695 -69.99 0.0009509933    1.656    0.396
       237  -8.8689     52.8753    151.5271   1.3580606302e+02   3.7282444732e+01    0.1836666    0.1187936  32.46  0.000796571    1.526    0.345
       238  -8.7494     23.3805    133.9326   1.4219631542e+02   4.4126752734e+01    0.2218519    0.1494306  41.34  0.001316575    1.464    0.317
       239 -11.1010     65.1543    130.6275   1.2958937530e+02   4.0668081913e+01    0.7407086    0.2739845  46.86  0.002776788    2.967    0.663
       240  -8.9964     86.5970     16.0985   8.6062598123e+01   6.1352499559e+01    0.2929234    0.1974873  25.02 0.0008104669    1.560    0.359
       241  -8.6896     78.5231    127.5201   1.2512503062e+02   3.9616761183e+01    0.2473327    0.1571559  53.52 0.0007254211    1.729    0.422
       242 -10.2568     72.3997    129.0643   1.2719854528e+02   4.0097339374e+01    0.3881106    0.3216313  58.20  0.001324455    1.226    0.185
       243  -9.6390     74.4786    125.1864   1.2591397346e+02   4.0725774936e+01    0.3763202    0.2447273  27.66  0.001364615    1.633    0.387
       244  -9.4628    234.1695    131.0776   9.0265962411e+01   1.1002491441e+01    0.1983671    0.1630873  12.64 0.0004152713    1.140    0.123
       245  -9.2977     95.5122    130.5677   1.2078395721e+02   3.6379535232e+01    0.2843682    0.1389525 -56.41  0.001186032    2.094    0.522
       246  -9.0562    120.3360    130.3421   1.1394924984e+02   3.2254154755e+01    0.1520081    0.1121164  -7.61 0.0007050404    1.762    0.433
       247 -10.2768     38.4827    127.0103   1.3706027257e+02   4.4462154056e+01    0.2671278    0.2055304 -41.78  0.001021692    1.469    0.319
       248 -10.2494     47.9148    124.2843   1.3384524038e+02   4.4172155381e+01    0.5277467    0.2869196 -83.75  0.002437579    2.048    0.512
       249 -11.1636     67.6679    122.6070   1.2752705657e+02   4.2246249577e+01    0.8101182    0.3298634 -43.42  0.002990557    3.039    0.671
       250 -10.0059     67.6493    115.3073   1.2623415302e+02   4.3993877447e+01     0.247482    0.1525691  51.88  0.000715058    1.795    0.443
       251  -9.9380     92.0074    120.6539   1.1982444562e+02   3.9185299601e+01    0.4155101    0.2701683 -30.65  0.001885129    1.934    0.483
       252  -9.2918     41.2002    122.3684   1.3565479159e+02   4.5317032218e+01    0.1828451    0.1109466  39.72 0.0009462539    1.653    0.395
       253 -10.1382      4.4654    136.0153   1.4760920347e+02   4.4959035464e+01    0.4034688    0.3154438  52.07  0.002116887    1.230    0.187
       254 -10.9323    177.2734     29.5849   7.2013148239e+01   3.7021627695e+01     0.559633    0.4735336 -29.33  0.002177781    1.150    0.130
       255 -11.5009     27.2543     51.5151   1.2780392412e+02   6.3960951471e+01    0.6761574    0.2675242 -38.47  0.002702256    2.685    0.627
       256  -8.3562     25.6324    248.7329   1.4800906879e+02   2.1609091629e+01   0.08235294   0.07080152   8.95  0.000699173    1.658    0.397
       257 -10.1225    141.9008    243.5455   1.2633345539e+02   9.4299269162e+00    0.2246166    0.1582932  18.26 0.0003856371    1.294    0.227
