#   1 NUMBER                 Running object number                                     
#   2 MAG_AUTO               Kron-like elliptical aperture magnitude                    [mag]
#   3 X_IMAGE                Object position along x                                    [pixel]
#   4 Y_IMAGE                Object position along y                                    [pixel]
#   5 X_WORLD                Barycenter position along world x axis                     [deg]
#   6 Y_WORLD                Barycenter position along world y axis                     [deg]
#   7 A_WORLD                Profile RMS along major axis (world units)                 [deg]
#   8 B_WORLD                Profile RMS along minor axis (world units)                 [deg]
#   9 THETA_WORLD            Position angle (CCW/world-x)                               [deg]
#  10 FWHM_WORLD             FWHM assuming a gaussian core                              [deg]
#  11 ELONGATION             A_IMAGE/B_IMAGE                                           
#  12 ELLIPTICITY            1 - B_IMAGE/A_IMAGE                                       
         1 -13.7638    244.9458    110.8964   3.4331682258e+01   7.7437678991e+00     2.201033     1.058522 -43.96  0.009443223    1.978    0.494
         2 -11.0929     39.6262      8.0103   5.3732994117e+01   6.8990158265e+01    0.5821662     0.170007 -39.12  0.002542804    3.182    0.686
         3 -11.3675     49.8398     37.0342   6.1245367974e+01   6.3223956563e+01    0.8170666    0.5619377 -88.30  0.003555289    4.132    0.758
         4 -12.9881     44.7348     23.3063   5.8111886641e+01   6.6123442214e+01    0.9158512     0.673706 -53.55  0.005771398    1.727    0.421
         5 -11.0197     76.1570     24.8352   4.6703117644e+01   6.1219988277e+01    0.3029421    0.2198128  -5.56   0.00174183    1.467    0.318
         6 -10.4119     20.5137     14.3554   6.5426600472e+01   7.0074917127e+01    0.4132857    0.1559677 -31.23  0.001944437    2.888    0.654
         7 -12.4181    156.1016     11.6739   2.2082293570e+01   4.4932786148e+01    0.7029258    0.4726219  75.70  0.003579285    1.414    0.293
         8 -11.9530    165.0155     12.1020   2.0796755981e+01   4.2590075730e+01    0.4464306    0.3801889  78.60  0.002019374    1.055    0.052
         9 -13.8111    166.1530      4.1945   1.8226756514e+01   4.3115320997e+01     2.586354    0.8644765  72.52  0.009146269    2.942    0.660
        10  -9.9310    129.7329     12.7922   2.7357729035e+01   5.1392113163e+01    0.2713705    0.1923508  28.53  0.001395376    1.553    0.356
        11 -11.1348     78.3342     13.5956   4.1300515536e+01   6.2318999378e+01     0.342795    0.2084441  -8.82  0.001785217    1.932    0.482
        12 -11.7376    143.9537      3.8313   2.1571372024e+01   4.8801337873e+01    0.6049137    0.4147173  83.64   0.00315976    1.525    0.344
        13 -10.4072     70.9133      5.7507   4.0360027305e+01   6.4562853334e+01    0.3658523    0.1406512  45.71  0.001690364    2.384    0.580
        14  -9.9601    222.5342      4.5440   1.1874248382e+01   2.8671767832e+01     0.260426    0.1256059 -31.67  0.001213831    2.185    0.542
        15 -10.8160    208.2191      4.5873   1.3270742830e+01   3.2243584744e+01    0.2975045    0.2113744  67.35  0.001173512    1.309    0.236
        16 -11.1592    131.6138      3.6985   2.3758554540e+01   5.1854546596e+01    0.7058464     0.204324  52.85  0.002628949    2.716    0.632
        17 -10.8401    121.3745      4.5363   2.6121526661e+01   5.4218328062e+01     0.429403    0.3385987  67.17  0.002513875    1.227    0.185
        18 -10.2026    106.4459      5.1073   2.9738034157e+01   5.7561055140e+01    0.2659558    0.1753713  79.76  0.001342074    2.035    0.509
        19 -11.6315     84.0442      3.4614   3.5128331481e+01   6.2378197707e+01     0.715537    0.2803977  53.06  0.003226063    2.374    0.579
        20 -10.3749     61.6154      1.8780   4.1881232473e+01   6.6568476969e+01    0.3309736    0.1541298  28.99  0.001603231    2.385    0.581
        21 -11.2086    204.6855      4.6596   1.3654549651e+01   3.3132264811e+01    0.3271652    0.1714006  65.61  0.001562306    1.691    0.409
        22  -9.1044     17.6732      1.6985   6.1343141461e+01   7.2223326325e+01    0.1113469   0.06552412 -14.80 0.0007030967    1.640    0.390
        23 -11.3644    191.4960    185.5301   5.9797959382e+01   6.0007713714e+00    0.2747664    0.2315834  12.97  0.001217285    1.300    0.231
        24 -10.4666     37.0530    185.3967   9.2514493832e+01   3.2387637837e+01    0.2431242    0.1051739  37.23  0.001242989    2.379    0.580
        25 -10.0263     26.6549    180.3383   9.4220851699e+01   3.4608512467e+01    0.1301776   0.06595913  68.45 0.0007048384    1.777    0.437
        26 -10.6971    173.8552    162.9404   5.9086063357e+01   1.3756642333e+01    0.5734909    0.3137982  31.46  0.002264611    2.340    0.573
        27 -10.1031     14.6869    160.1913   9.5127424191e+01   4.0115747732e+01    0.1930467    0.1136201  83.64   0.00118061    1.409    0.290
        28 -11.3208    219.5191    155.7106   4.8518963004e+01   5.4802563645e+00     0.485147     0.330606  62.68   0.00234148    1.813    0.449
        29 -10.1671     20.5159    155.9312   9.3480528706e+01   4.0514936723e+01    0.1767004    0.1431122  69.26  0.001228466    1.172    0.147
        30 -10.9393    163.1549    152.1493   5.9205901281e+01   1.8206465280e+01    0.3772586    0.3338502 -53.11  0.002016465    1.195    0.163
        31 -12.6572     11.2499    140.1227   9.4179140440e+01   4.4814615661e+01    0.6215406      0.27147  79.69  0.002985826    2.520    0.603
        32 -10.0483     53.6479    143.4149   8.4194191879e+01   3.9771195204e+01    0.2474702    0.1808652 -82.62  0.001366123    1.196    0.164
        33  -9.2979    165.3935    142.7836   5.6721644105e+01   1.9640173480e+01    0.2068988    0.1465828 -34.26  0.000806735    1.646    0.392
        34  -9.5235    173.5029    144.4924   5.5319457245e+01   1.7488941990e+01     0.152222    0.1434397  64.18 0.0008105743    1.018    0.018
        35 -10.0780    220.7962    137.2035   4.4296154333e+01   8.4152621576e+00    0.2030697    0.1708597  10.36  0.001077259    1.340    0.254
        36  -9.6219    165.0956    134.6551   5.4984491193e+01   2.1388216270e+01    0.2505433     0.188623  65.28 0.0009932773    1.404    0.288
        37 -13.4981    241.0060    125.1531   3.8147086219e+01   6.2075059350e+00     1.402008     1.067347  66.07  0.007452059    1.535    0.349
        38 -11.5827    240.6970    229.5763   5.8384674857e+01  -8.9913259727e+00    0.3898806    0.2456557  43.23  0.002409735    1.545    0.353
        39  -9.4451    208.9479    123.3274   4.3325124762e+01   1.3528833965e+01    0.2103142    0.1941006  53.05  0.001059743    1.083    0.077
        40 -11.6349    190.0551    114.5111   4.4893315665e+01   1.9607668383e+01     1.035744    0.5398228 -23.31  0.003395693    3.352    0.702
        41 -10.0667    154.2276    120.5840   5.4188841606e+01   2.6825190703e+01    0.2213462    0.1457898  39.93 0.0005238093    1.610    0.379
        42 -11.0867      4.2216    124.4992   9.4421394954e+01   4.8789028360e+01    0.2645054    0.1395687  57.90   0.00154353    1.988    0.497
        43 -11.0666    212.9275    112.5342   4.0046673318e+01   1.4581924892e+01    0.5732065    0.3165048 -44.74   0.00242507    1.796    0.443
        44 -10.1318    224.4560    111.7445   3.7838627459e+01   1.2082807580e+01    0.3281688    0.1625579 -48.93  0.001303373    2.148    0.535
        45 -11.2508    222.3625    107.0082   3.7077461780e+01   1.3389460829e+01    0.5509859    0.3136963  50.38  0.002419436    1.797    0.443
        46  -9.5488     94.6559    111.9689   6.7524390270e+01   4.1031210241e+01    0.2405493    0.1183456 -75.17 0.0007046806    4.359    0.771
        47 -10.0835    148.4971    111.0945   5.3217564700e+01   3.0158623029e+01    0.3484459    0.1489048 -50.78  0.001197019    2.516    0.603
        48 -11.1370     19.3075    106.0132   8.8215377697e+01   5.1816449336e+01    0.7241453    0.3067807  62.75  0.002978008    3.804    0.737
        49  -9.2947    155.5417    108.4994   5.0893884303e+01   2.9063270095e+01    0.1568341    0.1504503  78.05 0.0001054415    1.012    0.012
        50 -10.2244     30.7856    101.6994   8.4204387919e+01   5.1829043224e+01    0.2725724    0.1524429 -46.10   0.00146914    1.812    0.448
        51  -9.6470    208.9514     94.2990   3.6303983810e+01   1.8810127953e+01    0.2104841    0.2002476  69.38 0.0006236128    1.061    0.057
        52  -9.8919    178.6317     92.7368   4.1690299247e+01   2.6593045199e+01    0.2876547    0.2060073 -52.91  0.001301544    1.445    0.308
        53 -10.7444     12.9699     89.9550   8.7769009317e+01   5.5833214085e+01     0.185663    0.1494132 -68.79  0.001311469    1.013    0.012
        54 -12.7132      4.6768     75.5710   8.8176159971e+01   5.9433525268e+01    0.7522395    0.4411295  87.08  0.003966558    1.971    0.493
        55 -13.2338     15.1072     73.3228   8.4257368719e+01   5.9283888220e+01    0.7278702    0.5880002  45.26  0.005179337    1.507    0.336
        56 -10.9797      2.4937     88.5315   9.0788783013e+01   5.6777033015e+01    0.3298727    0.2023035 -84.63  0.001985697    1.483    0.326
        57 -10.6030      2.3435     83.4996   9.0135274976e+01   5.7867874657e+01    0.2570432    0.1556288 -66.68  0.001087705    1.259    0.206
        58 -10.4526    192.6472     86.9419   3.7394550807e+01   2.4162975140e+01    0.5903473    0.2289074  57.44  0.002003744    2.601    0.615
        59 -12.9947     42.7433     80.4697   7.6331538351e+01   5.5402573462e+01    0.9431539    0.6891969 -24.41  0.005068395    1.613    0.380
        60  -9.9925    214.9755     79.5489   3.1583109460e+01   1.9907280170e+01     0.373489    0.1765523 -49.79  0.001427313    2.220    0.550
        61  -9.3464    145.6545     80.7048   4.5724887468e+01   3.7042848794e+01    0.1572544    0.1229679  19.23 0.0006797486    1.669    0.401
        62  -9.9223    220.8220     77.7550   3.0208081127e+01   1.8782674042e+01    0.2966832    0.1702941 -59.42 0.0009841274    2.034    0.508
        63 -10.0961    169.6369     76.4591   3.9119803084e+01   3.1897215658e+01    0.3139834    0.2608318  87.28  0.001457769    1.280    0.218
        64 -10.9290     17.9083    127.3620   9.1251280878e+01   4.7124379407e+01    0.2132911    0.1369657 -87.34 0.0009040497    1.326    0.246
        65 -10.6394     75.4802     68.9965   6.2326791685e+01   5.3601334177e+01    0.4328392    0.3111718  -7.93  0.002193357    1.884    0.469
        66  -9.9946    175.7465    127.2676   5.0942201656e+01   2.0457485014e+01    0.2914249    0.1940293  53.97  0.001291095    1.474    0.322
        67 -12.0781    214.9926     67.0508   2.8415071452e+01   2.1975672939e+01    0.4919121    0.2714341 -35.33  0.002115572    1.829    0.453
        68  -9.9978     83.5548     68.6804   5.9594595062e+01   5.2357737031e+01    0.2603895    0.1935506 -28.35  0.001371097    1.448    0.309
        69  -9.1374    240.6422     67.3002   2.4841582503e+01   1.5759736059e+01    0.1511443   0.09894045 -69.47 0.0007036749    1.710    0.415
        70 -11.2261     25.4799     65.4040   7.8947776707e+01   6.0195894960e+01    0.3909957    0.2117532 -61.03  0.002046081    1.557    0.358
        71  -9.5111    178.9931     66.4877   3.4437892525e+01   3.1259722555e+01    0.2424933    0.1474189  60.35  0.001032095    1.590    0.371
        72 -11.5209    233.0246     64.2465   2.5125547104e+01   1.8024536904e+01    0.3435894    0.2447325  49.72  0.001738934    1.573    0.364
        73  -9.5788    200.0542     63.6739   2.9913378236e+01   2.6300866450e+01    0.2153763    0.1902763  76.01 0.0007373943    1.081    0.075
        74  -9.1470    132.4556     63.5234   4.3840082785e+01   4.3391744876e+01    0.1483179    0.1443932  58.29 0.0001895847    1.006    0.006
        75 -10.3150    218.6849     61.8432   2.6543106070e+01   2.1890299418e+01    0.2236982    0.1924609 -17.49  0.001189919    1.404    0.288
        76 -11.7610      9.9676    121.6080   9.2664207947e+01   4.9025885423e+01     0.391551    0.1380975  52.66  0.001751206    3.361    0.702
        77  -9.1818     76.5030     59.4944   5.9082213844e+01   5.5320304047e+01    0.1332745     0.123509 -25.87 0.0008106617    1.004    0.004
        78 -12.2117    215.3466     51.3863   2.4363770752e+01   2.4337870640e+01    0.5540097    0.4267651  -3.00  0.002720525    1.874    0.466
        79  -9.9845    164.7159     53.8433   3.3565035473e+01   3.7043136515e+01    0.2355301    0.2003505   3.63  0.001184036    1.468    0.319
        80  -9.8006     35.0362     52.7005   7.2117076463e+01   6.1937560384e+01     0.166921    0.1439683 -23.77    0.0010605    1.126    0.112
        81 -11.1638     84.6250     47.6847   5.2428382198e+01   5.6117432491e+01    0.8473086    0.4817176 -54.40  0.003852733    2.238    0.553
        82 -10.8935    198.3693     52.8987   2.7294692351e+01   2.8445158991e+01    0.5627452     0.343076 -11.63  0.002202861    2.734    0.634
        83 -11.0675    196.6701     43.9080   2.5120003981e+01   3.0235502116e+01    0.2711941    0.1926869  56.73  0.001329545    1.386    0.278
        84  -9.4422    242.3227     43.3289   1.9009457660e+01   1.8936086355e+01    0.1303646    0.1073712  30.33 0.0007049199    1.694    0.410
        85 -11.4149    182.6436     40.7800   2.6468655338e+01   3.4353187931e+01    0.6282321    0.3883341  84.78  0.002723902    1.860    0.462
        86 -11.6269      3.4304     41.1996   8.1816647901e+01   6.6473387098e+01    0.3761521    0.3288231 -69.75  0.002487782    1.266    0.210
        87 -11.4787    248.5192    224.5434   5.6245269546e+01  -9.5893049277e+00    0.4909899    0.3194806 -14.51  0.003095695    1.606    0.377
        88 -11.5592    163.3118    228.2632   7.2168511631e+01   4.2196894199e+00    0.2815384    0.2098966 -57.16  0.001730221    1.676    0.403
        89 -11.7479     40.0621     29.3516   6.2431688879e+01   6.5692329489e+01    0.4586815    0.2470614 -44.22  0.002085293    1.656    0.396
        90 -10.9100      4.2328    230.2142   1.0120534911e+02   2.7074846061e+01    0.2158753    0.1002037  53.19  0.001449244    1.600    0.375
        91  -9.3442    137.6717     56.3128   4.0279573722e+01   4.3410523435e+01    0.1534736    0.1168735 -79.55 0.0007042963    1.669    0.401
        92 -11.1781    191.0272     37.0263   2.4083840159e+01   3.2688398821e+01    0.3624164    0.1999272 -43.61  0.001595329    1.813    0.449
        93 -10.8367      5.7355     35.3184   7.9322135713e+01   6.7465881682e+01    0.2523806     0.191677  43.80  0.001833446    1.806    0.446
        94 -10.1881    197.7060     34.0277   2.2281766616e+01   3.1359574764e+01    0.2080064    0.1874023 -73.98  0.001173336    1.059    0.056
        95 -10.3744     86.4615     31.5186   4.5898041007e+01   5.8394714646e+01    0.2385728    0.1115086  36.67  0.001032639    2.271    0.560
        96 -10.3337    145.5443     27.9523   2.9296018714e+01   4.5701099188e+01    0.4219465    0.2522075 -84.94  0.001679518    2.628    0.619
        97  -9.7002     90.4912     28.0499   4.3279626743e+01   5.8132684105e+01    0.1976544    0.1259792 -31.55  0.001030533    1.583    0.368
        98 -11.9095    178.6553     23.6662   2.2161666834e+01   3.7689741418e+01    0.4994086    0.4054061  48.65  0.002716093    1.294    0.227
        99 -11.5504    173.3901     20.6474   2.2079402401e+01   3.9435086743e+01    0.4541598    0.2672141  67.80  0.001962009    1.530    0.347
       100 -10.0502    168.5001     26.5253   2.4623974812e+01   3.9986860634e+01    0.1458678     0.131217  72.41  0.000136513    1.020    0.020
       101  -9.6260    111.5269    228.9988   8.2109490116e+01   1.3009349380e+01    0.1673902    0.1188965 -70.45 0.0008234702    1.593    0.372
       102  -9.7822    224.4877     22.9929   1.6125948135e+01   2.5991374967e+01    0.2056469   0.08603286 -53.74 0.0007865041    2.452    0.592
       103 -10.1723    187.3165     19.4769   1.9719619702e+01   3.5935035919e+01    0.2494364    0.2372266  86.89  0.001492079    1.118    0.105
       104 -10.2739    128.2794     18.5579   2.9718054085e+01   5.1094918487e+01    0.3125107    0.2454683  60.65  0.001321577    1.184    0.155
       105 -10.0350    116.4138     17.2260   3.1966228583e+01   5.4025945925e+01    0.1885238    0.1223495 -39.69 0.0009568838    1.710    0.415
       106  -9.9086     94.5446     16.9304   3.7656230187e+01   5.8789117259e+01    0.2539125    0.1749614  70.95  0.001311256    1.977    0.494
       107  -9.8205    247.9751     16.4912   1.2347000739e+01   2.1177201013e+01    0.1898002   0.09054691 -76.08 0.0006894142    2.411    0.585
       108  -9.8723    228.5992     15.7573   1.3964853538e+01   2.5878369025e+01    0.1933733    0.1082257 -46.45 0.0009525308    1.646    0.393
       109  -9.8817     31.5077    227.4715   9.6549463127e+01   2.4631367010e+01    0.1119851   0.07886991  71.45 0.0003562363    1.026    0.025
       110 -12.5339    203.4288    221.1439   6.3607292688e+01  -1.7891457404e+00    0.6308455    0.4575126  -2.37  0.003700287    1.726    0.421
       111 -12.2875    209.7444    215.4433   6.1528120248e+01  -2.0809823236e+00     0.759289    0.6415603  70.08  0.004781515    1.598    0.374
       112  -9.5409     79.8408    224.8015   8.7658345787e+01   1.8735465750e+01    0.1788183      0.11176  66.63  0.001074738    1.334    0.250
       113 -13.6387    183.8731    215.8004   6.6420790185e+01   2.4815351599e+00    0.8722897    0.6526055 -26.27  0.005134237    1.677    0.404
       114 -10.6067     76.8561    220.1793   8.7791966532e+01   2.0050222185e+01    0.3511611    0.1492245  37.13  0.001646586    2.533    0.605
       115 -11.0101     50.5715    217.8512   9.2508521934e+01   2.4123515351e+01    0.2545274    0.1777517  78.61  0.001582131    1.129    0.114
       116 -10.4622     67.2501    217.1358   8.9335331419e+01   2.2016220651e+01    0.2562874    0.1115554  61.06  0.001254858    2.120    0.528
       117 -10.1366    141.3236    206.5776   7.3407816124e+01   1.1884103065e+01    0.2413625    0.1711345 -54.40  0.001344888    1.642    0.391
       118 -11.6474    243.9715    202.0812   5.3147912803e+01  -6.0628296016e+00    0.5503866    0.4390895 -38.50  0.003555539    1.486    0.327
       119 -11.2472    158.6027    225.2607   7.2648358264e+01   5.5319578212e+00    0.2219842    0.2122425   7.66  0.001220494    1.287    0.223
       120 -10.1559      7.3206    221.6754   1.0032157720e+02   2.8334994068e+01    0.1159613   0.05192782  66.56 0.0007046376    1.679    0.404
       121  -9.7623     26.6759    199.3236   9.5615952056e+01   3.0660828187e+01    0.1248506   0.06240314  67.95 0.0007047721    1.685    0.406
       122 -10.7033    202.7071    197.0497   5.9701495346e+01   1.9486286877e+00    0.2778807    0.2086239 -26.27  0.001192572    1.512    0.339
       123 -11.2472    203.7227    192.9958   5.8784852386e+01   2.4019742749e+00    0.4355768    0.2466878  29.17  0.002027675    1.960    0.490
       124 -12.0221    196.1262    185.8247   5.8942950415e+01   5.0418884066e+00    0.4732142    0.4057954 -80.81  0.002708252    1.507    0.337
