#   1 NUMBER                 Running object number                                     
#   2 MAG_AUTO               Kron-like elliptical aperture magnitude                    [mag]
#   3 X_IMAGE                Object position along x                                    [pixel]
#   4 Y_IMAGE                Object position along y                                    [pixel]
#   5 X_WORLD                Barycenter position along world x axis                     [deg]
#   6 Y_WORLD                Barycenter position along world y axis                     [deg]
#   7 A_WORLD                Profile RMS along major axis (world units)                 [deg]
#   8 B_WORLD                Profile RMS along minor axis (world units)                 [deg]
#   9 THETA_WORLD            Position angle (CCW/world-x)                               [deg]
#  10 FWHM_WORLD             FWHM assuming a gaussian core                              [deg]
#  11 ELONGATION             A_IMAGE/B_IMAGE                                           
#  12 ELLIPTICITY            1 - B_IMAGE/A_IMAGE                                       
         1 -10.0906      8.6006     26.0683   9.6940511760e+01   6.9823306715e+01    0.4691381    0.3216351 -27.50  0.003136134    1.145    0.127
         2  -9.0396    157.3851     16.0412   4.4952856836e+01   4.3662180778e+01    0.3985818    0.3734579   7.09  0.002479614    1.201    0.167
         3  -8.7956    152.3073     15.9883   4.5710549133e+01   4.4924733088e+01    0.4473274    0.2609112  -7.76  0.002070278    2.280    0.561
         4 -11.2128    218.9440     25.0288   3.9903139743e+01   2.7717882897e+01      0.32519    0.2942425  80.92 0.0004960036    1.155    0.134
         5  -8.8199    149.7077      9.7951   4.4138140311e+01   4.6166020181e+01    0.4506941    0.1661599 -42.70  0.001765299    3.004    0.667
         6  -8.9858    144.8199      5.8714   4.3610047868e+01   4.7716345229e+01    0.6252769    0.2888804  73.86  0.002117609    2.163    0.538
         7  -9.3771    141.7612     21.4649   4.9263453401e+01   4.6950826457e+01    0.6593443    0.3742243 -47.63  0.003058833    2.030    0.507
         8  -8.7570    127.0103     14.2842   4.9532763335e+01   5.1258048796e+01    0.2747309    0.1906923 -55.52 0.0005196639    1.778    0.438
         9  -9.2874    134.5706     10.5966   4.6850967191e+01   4.9789293907e+01    0.4375595    0.3279915  30.46  0.002464425    1.406    0.289
        10 -10.3742    141.3933     13.1366   4.6546146356e+01   4.7890904018e+01    0.3797037    0.3617508  -2.72  0.000774841    1.151    0.131
        11 -10.4342    134.3704     18.1046   4.9475995010e+01   4.9106324471e+01    0.7448423    0.3721689  28.61  0.002966464    2.846    0.649
        12 -10.1164    211.0515     18.7163   3.9151392131e+01   3.0289243494e+01    0.5818284    0.4296206 -53.26  0.002646169    1.245    0.196
        13  -9.7357    204.6323     12.6033   3.8268377929e+01   3.2473266297e+01    0.3237009    0.2692164  81.38 0.0009333881    1.117    0.105
        14  -9.8996     24.5939      8.4718   8.0598903254e+01   7.1117901808e+01    0.5720613    0.3969826 -32.94  0.003504644    1.419    0.295
        15  -9.4537     13.0168      9.4740   8.7262666954e+01   7.2176965731e+01    0.2970758     0.170759 -30.11  0.001207729    1.380    0.275
        16  -9.9627     51.8204     18.0408   7.2904308047e+01   6.6167378103e+01    0.3890482    0.2441885 -36.85 0.0005034586    1.699    0.411
        17  -9.4229     17.2881      9.6907   8.5048503168e+01   7.1734162778e+01    0.4877959    0.1790508 -33.96  0.002415568    2.338    0.572
        18  -8.8728     15.2007      3.3999   8.2909199296e+01   7.2824901614e+01    0.2334895    0.1729874  16.46 0.0009964921    1.361    0.265
        19  -9.6999     45.3362     17.9261   7.5572630100e+01   6.7150089755e+01    0.4430899    0.2636302  20.93  0.002070029    1.682    0.406
        20  -9.6016     31.6349     16.4431   8.1099878576e+01   6.9172892291e+01    0.4156079    0.2083173  33.30  0.001493891    2.082    0.520
        21 -10.1192     16.2317     17.7805   8.9478640947e+01   7.0604480148e+01    0.6006675    0.2356675 -48.84   0.00233537    2.624    0.619
        22 -10.3500     22.7901     17.4973   8.5966535233e+01   7.0009774793e+01    0.6013283    0.2595442  34.00  0.002123951    2.607    0.616
        23 -10.2061     40.5026     13.9461   7.5761985902e+01   6.8365723251e+01    0.7348309    0.4114484   9.97  0.002068601    2.096    0.523
        24  -9.3073     33.5209     12.6442   7.8332199043e+01   6.9469598630e+01    0.2913951    0.1781587  26.53 0.0009535459    1.584    0.369
        25  -9.7235     79.9793     13.6698   6.0824040990e+01   6.1697674628e+01    0.4985593    0.2934025   2.30  0.002489311    2.006    0.501
        26  -9.3583     85.1686      8.9294   5.7198201145e+01   6.1128238271e+01    0.4911305    0.2599258  -7.05  0.002362359    2.219    0.549
        27 -11.4860     90.1885     14.1626   5.8055589570e+01   5.9571107030e+01    0.6690624    0.3925127  27.51  0.001158026    1.762    0.433
        28 -12.0975    100.7158     12.9685   5.4795507569e+01   5.7432823038e+01    0.4472256    0.3833445 -43.91   0.00117692    1.399    0.285
        29  -9.8587     94.3689      5.0723   5.3102015738e+01   5.9537904708e+01    0.6673456    0.3157597  65.36  0.003016539    2.358    0.576
        30  -8.7983     70.9102     20.1297   6.6680522575e+01   6.2683054641e+01    0.3466046     0.191313 -37.55  0.001755666    1.991    0.498
        31  -8.8108    203.4613      3.1031   3.6021083895e+01   3.3718634363e+01    0.4179801    0.1571454  74.86  0.001397971    2.452    0.592
        32  -8.6351    196.1761      5.0440   3.7180067942e+01   3.5254148752e+01    0.3470791    0.2475933  53.43  0.001569781    1.501    0.334
        33  -9.7028    193.2286     12.9289   3.9520408687e+01   3.5164739692e+01    0.4548309    0.4014731  32.20   0.00186516    1.387    0.279
        34  -9.7052    170.2885     17.7276   4.3624615461e+01   4.0285834522e+01    0.5639678    0.2020154  57.46  0.001600775    2.429    0.588
        35  -9.4884    172.8846     12.3625   4.1729529811e+01   4.0195909060e+01    0.5332282    0.2635445 -80.30  0.002114172    2.886    0.653
        36  -9.3197     63.7110     17.9948   6.8273062451e+01   6.4224137647e+01       0.4557    0.2940321  -0.17  0.002505071    1.630    0.387
        37  -9.0209     61.6587     11.9563   6.6180485682e+01   6.5290746066e+01     0.259162    0.2454868 -17.71 0.0009273374    1.371    0.271
        38  -7.8349     57.7002      9.7061   6.6559879299e+01   6.6221267327e+01    0.1797906    0.1428669  27.33 0.0006362131    1.159    0.137
        39  -9.0035    247.5141     17.4262   3.5688459250e+01   2.2320045756e+01    0.3198452    0.1424623 -50.03  0.001608192    1.883    0.469
        40  -9.8265    121.7172     17.5309   5.1774456491e+01   5.2188874185e+01    0.2563474    0.2364477  36.53   0.00018726    1.033    0.032
        41 -10.3874    183.3044     11.1168   4.0132385583e+01   3.7761969182e+01    0.8243652    0.2687623 -39.05    0.0032955    2.833    0.647
        42 -11.5890    186.0417      3.5123   3.7786129218e+01   3.7834302096e+01    0.4364991    0.3091179  71.86  0.001340378    1.266    0.210
        43  -9.4746    113.4499      4.1464   4.8466052362e+01   5.5347950397e+01    0.4594118     0.307483  40.49  0.001442687    1.359    0.264
        44  -8.5545    109.0823      6.9281   5.0449942228e+01   5.6115400626e+01    0.4164293    0.1907513 -44.13   0.00160496    2.892    0.654
        45 -10.8491    113.2022     13.0696   5.1926526613e+01   5.4613097309e+01    0.4539502    0.2740775 -28.01   0.00148842    1.767    0.434
        46 -10.4528    236.8665     13.0552   3.5560486640e+01   2.5095104149e+01    0.4925958    0.3946274 -18.86  0.001207014    1.594    0.373
        47 -10.1808    243.5726      4.0230   3.3134588602e+01   2.4646009645e+01    0.4794724    0.2167808 -60.27  0.002428739    2.033    0.508
        48  -8.8859    248.4219      1.9502   3.2388239571e+01   2.3850481737e+01     0.195167    0.1475372  84.64 0.0003020734    1.268    0.211
        49  -9.3505    233.3630      5.7876   3.4230243257e+01   2.6652156459e+01     0.338336    0.2336143  61.11  0.002065277    1.598    0.374
        50  -9.5227    234.9082      1.3979   3.3165631078e+01   2.6775089446e+01    0.1970987    0.1290261 -79.28 0.0003999276    1.348    0.258
        51 -10.1791      6.3035      7.0260   8.9834640511e+01   7.3125255600e+01    0.7087606     0.266784 -46.16   0.00366238    2.465    0.594
        52  -9.0068    128.5822      9.7824   4.7635260494e+01   5.1304521289e+01    0.4120261    0.1662519 -39.00  0.001712012    2.752    0.637
        53  -8.5405    130.0840      3.7728   4.5257395548e+01   5.1461949825e+01    0.3972462    0.1762786 -21.41  0.001788324    2.490    0.598
        54  -9.0660      1.4802      2.6000   9.0448420042e+01   7.4163778834e+01    0.2354188    0.1218972 -41.72 0.0009865662    1.656    0.396
        55  -8.6349    229.2601     12.0087   3.5931741670e+01   2.6882582170e+01    0.2629658    0.1392559 -82.03  0.001313554    1.977    0.494
        56  -9.1979    162.5815     11.0483   4.2689586785e+01   4.2870474378e+01    0.3128164    0.2059107  85.03  0.001219631    1.540    0.351
        57  -8.5926    122.1925     11.0723   4.9312045794e+01   5.2705439570e+01    0.3837534    0.1481515  45.70   0.00156763    2.380    0.580
        58  -8.6230     66.8498     11.8543   6.4281216927e+01   6.4380195373e+01     0.238414    0.1448494  39.04 0.0005673567    1.486    0.327
        59  -8.9603    250.3291      7.7267   3.3452900911e+01   2.2831885920e+01    0.1941768    0.1339033 -48.74 0.0005631918    1.232    0.188
        60  -7.8777    227.0000      2.9006   3.4061813131e+01   2.8354940045e+01    0.2302584    0.1166031 -32.66   0.00120688    1.952    0.488
        61  -9.3986    223.7699      5.0858   3.4800132015e+01   2.8850296535e+01    0.4483316    0.1575722 -50.55  0.001870633    2.589    0.614
        62  -8.7386    223.5667      1.4602   3.3994658091e+01   2.9266618311e+01    0.1960896    0.1409143 -86.52 0.0007003293    1.219    0.180
        63  -9.8485    209.4472     11.4296   3.7518552163e+01   3.1466256296e+01    0.2878344    0.2076221 -65.38 0.0009253146    1.270    0.212
        64 -11.1593     64.8685      5.8995   6.2118151421e+01   6.5358227964e+01     0.601233    0.2967544  42.60 0.0009959695    1.785    0.440
        65  -9.1890     74.1390      5.4503   5.8881663319e+01   6.3657406009e+01    0.4040375    0.2395808 -38.78  0.002164081    2.095    0.523
        66 -10.0619     32.2049      6.4713   7.5782399900e+01   7.0441685933e+01    0.2726564    0.2223293  -9.12  0.000542803    1.171    0.146
        67  -8.1441     40.8125      6.1783   7.1666590463e+01   6.9286214577e+01    0.1657008    0.1432388 -10.52 0.0008706589    1.287    0.223
        68  -8.0063     38.2774      2.6898   7.0940378748e+01   7.0051111329e+01    0.1808689    0.1656459  -9.74 0.0007815518    1.449    0.310
        69  -9.2731     34.1188      1.7519   7.2334556123e+01   7.0744728026e+01    0.2014355    0.1343413  27.00  0.000363386    1.368    0.269
        70  -8.8570    168.7071      5.0699   4.0144045285e+01   4.1919342108e+01    0.2340797     0.186244  57.05 0.0005654792    1.213    0.175
        71  -8.7900    218.0593      3.3026   3.4841267121e+01   3.0322994604e+01    0.2205683    0.1590002 -48.83 0.0005615085    1.279    0.218
        72  -8.8646    121.9919      3.2791   4.6505328618e+01   5.3425294170e+01    0.3112975    0.2154985  33.28  0.001386022    1.444    0.307
        73  -9.2078    150.3542      2.3084   4.1674731692e+01   4.6664543502e+01    0.3387824    0.1952215  45.18   0.00171409    1.732    0.423
        74  -7.9834     82.1345      2.5894   5.5226963901e+01   6.2317963818e+01     0.192286    0.1304786  -6.30 0.0005825028    1.504    0.335
        75  -8.6806     77.9808      2.4085   5.6321927528e+01   6.3172253389e+01    0.2033214     0.163453 -30.25 0.0005798623    1.454    0.312
        76  -7.2425    210.2845      2.3641   3.5254662202e+01   3.2200183322e+01    0.1192622   0.09217765  39.05 0.0007019514    1.688    0.408
        77  -7.7761    158.2428      1.3680   4.0344010041e+01   4.4810398391e+01    0.1806571    0.1119932  83.12 0.0002952479    1.577    0.366
        78  -8.0382     56.8540     66.3748   9.0020022430e+01   5.7154694719e+01     0.233039     0.168867 -27.35  0.001061871    1.319    0.242
        79  -7.9334    110.4473    249.7496   1.0942720640e+02   8.3477334238e+00    0.2000053    0.1171474 -69.69  0.001135088    2.130    0.530
        80  -7.5787      3.5261    250.4617   1.2828575043e+02   2.1485378953e+01    0.1037012   0.07183602  70.28 0.0003768815    1.023    0.022
        81  -8.9478     59.4181     71.1786   9.0586738505e+01   5.5801956192e+01    0.4093648     0.261834 -46.19   0.00182936    1.387    0.279
        82  -7.3995     55.6933     71.2954   9.1992171062e+01   5.6275659511e+01    0.1909207    0.1549746 -46.89 0.0006243067    1.140    0.123
        83  -9.3128    243.3681     71.4891   4.8192496762e+01   1.5889126443e+01    0.2958861    0.2293001  27.60 0.0007159128    1.791    0.442
        84  -8.3749    160.8644     71.4771   6.1421298493e+01   3.5125283342e+01    0.3288875    0.1777349 -49.67  0.001243719    2.036    0.509
        85  -8.3394    152.4607     71.7792   6.3316482497e+01   3.7113354920e+01    0.2602342    0.2048114  55.45 0.0003094496    1.283    0.220
        86  -8.1963    137.5319     69.0292   6.5910053624e+01   4.1163907982e+01    0.2249272    0.2012146 -30.03  0.001174937    1.115    0.103
        87 -11.2104    129.1019     70.9882   6.8638801423e+01   4.2766464972e+01    0.4764809    0.2968566  34.96 0.0004182791    1.801    0.445
        88  -8.1032    123.8223     70.5880   6.9887529587e+01   4.4035145748e+01    0.2190228    0.1997865  28.37 0.0004722529    1.100    0.091
        89  -9.6581    113.4396     70.2354   7.2616794241e+01   4.6377242837e+01    0.4440429    0.3994531 -76.44  0.001964595    1.332    0.249
        90  -9.6993     28.8814     71.5814   1.0224910747e+02   5.9135454709e+01    0.2290507    0.1726582 -50.96 0.0002898031    1.096    0.088
        91  -8.4332    232.7969     74.4955   5.0236561740e+01   1.7671430296e+01    0.2558053    0.1791589 -39.98 0.0007706721    1.266    0.210
        92 -10.0529     19.7457     74.6918   1.0650169590e+02   5.9177363518e+01     0.540736    0.4247003  31.38   0.00347524    1.563    0.360
        93  -8.3446     37.2137     71.1552   9.8927887284e+01   5.8444693242e+01    0.1950337    0.1611958 -19.53 0.0003193535    1.211    0.174
        94  -8.9630     37.9345     67.0486   9.7486066912e+01   5.9259805952e+01    0.3116665    0.1834086 -14.70 0.0008350146    2.215    0.549
        95  -8.7089    210.3813     69.4774   5.2122249934e+01   2.3502829221e+01    0.3675852    0.2347939  88.70  0.001416469    2.079    0.519
        96  -9.3258    192.5444     69.4880   5.4929487554e+01   2.7731851437e+01    0.2786632    0.2469297  50.71 0.0007848688    1.196    0.164
        97  -9.1364    101.0052     69.5064   7.6021990691e+01   4.9090242464e+01    0.3988809    0.2756385 -89.13  0.001546225    3.032    0.670
        98 -10.6236    100.4997     62.9650   7.3950616777e+01   5.0417596376e+01    0.7427409    0.5088614  57.23  0.002457511    1.763    0.433
        99  -9.1395     94.3367     69.3439   7.8032833846e+01   5.0424419786e+01    0.3161289    0.1916691 -18.01  0.001285563    2.284    0.562
       100  -9.4229    235.2123     56.6561   4.5695211226e+01   1.9839096975e+01    0.4009857    0.2118782 -62.47  0.001771326    2.226    0.551
       101  -9.8648    235.6563     66.2955   4.7919393965e+01   1.8315570000e+01    0.5124425    0.2207458 -44.68  0.001773216    2.035    0.509
       102  -9.1672    233.0186     63.7784   4.7646287364e+01   1.9267765015e+01    0.2272722    0.1963185  83.35 0.0003787801    1.212    0.175
       103  -8.2328    235.2724     61.6401   4.6864706705e+01   1.9095550264e+01    0.2349905    0.1620597 -47.09 0.0005016573    1.270    0.212
       104  -8.2466    204.3354     68.8349   5.2866944152e+01   2.5022275770e+01      0.22851     0.188759  82.21 0.0002937986    1.278    0.218
       105  -7.5710    141.4732     69.5117   6.5121491504e+01   4.0147040714e+01    0.1505246    0.1476463   4.59 0.0008099278    1.014    0.013
       106  -8.4729    222.0251     67.9623   5.0087265156e+01   2.1071658738e+01    0.2070897    0.1858398 -56.65 0.0002984373    1.008    0.008
       107  -8.7890    172.1404     66.9273   5.7835370868e+01   3.3131330950e+01    0.6060589    0.2748018  46.51  0.002271073    2.355    0.575
       108  -7.9963      3.5255     67.9548   1.1125078114e+02   6.1681059865e+01    0.2251067    0.1022079 -70.34 0.0007653091    2.012    0.503
       109  -9.1356      7.6713     63.0157   1.0852272465e+02   6.2536981663e+01    0.3660267    0.2386272 -15.71  0.001185873    1.704    0.413
       110  -9.3580    149.6071     66.7163   6.2387591434e+01   3.8681930741e+01    0.3571133    0.2634741  35.24  0.001580129    1.483    0.326
       111 -10.7073     48.9247     65.4827   9.2746434399e+01   5.8356153969e+01     0.296638    0.2573677   6.73  0.001837116    1.220    0.180
       112  -9.5885     15.0353     66.3041   1.0635243965e+02   6.1365191585e+01     0.290641    0.1964658  -9.88  0.000406288    1.694    0.410
       113  -8.7165     19.4966     63.4832   1.0385175769e+02   6.1660742910e+01    0.2557642    0.1439046 -49.21 0.0009164981    1.380    0.275
       114  -9.6576     24.4862     59.1091   1.0060539116e+02   6.2196929048e+01    0.4312021    0.3073944 -38.52  0.002665399    1.150    0.131
       115  -8.9215     28.6936     54.2377   9.7376120021e+01   6.2833995677e+01    0.3724998    0.1437532 -40.62  0.001175509    2.228    0.551
       116  -8.6117    208.5300     64.6962   5.1159388518e+01   2.4686921387e+01    0.2764678    0.2085142  49.24  0.001188644    1.460    0.315
       117  -9.1648    144.0067     64.0527   6.2807040279e+01   4.0485483333e+01    0.3180654    0.2736152 -66.24 0.0007782761    1.300    0.231
       118  -8.0778     89.7649     65.2276   7.8098367806e+01   5.2080229184e+01    0.2030976    0.1627963  -2.89 0.0006692241    1.343    0.255
       119  -8.0231    201.8066     63.9634   5.1967999922e+01   2.6391548198e+01    0.2049974     0.191975   2.98 0.0004234255    1.239    0.193
       120  -8.4316    126.7539     64.1564   6.7012577840e+01   4.4524779015e+01      0.24535    0.2075924  67.90 0.0008004742    1.329    0.248
       121  -7.4253     67.2295     64.6456   8.5630352885e+01   5.6018356155e+01    0.1297905    0.1055155 -65.44  0.000407686    1.567    0.362
       122  -7.9158    161.0733     62.4813   5.8670365799e+01   3.6585338170e+01    0.2227361    0.1992221 -29.80  0.000774103    1.142    0.124
       123  -8.6913     81.7588     61.8269   7.9569605275e+01   5.4178665703e+01    0.4867572    0.2536043  25.79  0.001961375    2.523    0.604
       124  -8.5956     34.4799     59.4881   9.6606454150e+01   6.1202513918e+01     0.249179    0.1833994 -32.07 0.0007420483    1.178    0.151
       125  -8.5914     36.5419     56.4157   9.4792889134e+01   6.1621185412e+01    0.2527895      0.14596 -32.92 6.199662e-05    1.603    0.376
       126  -7.5942      1.2725     62.6376   1.1101391810e+02   6.2953563963e+01    0.1113605   0.08385044  86.70 0.0007001413    1.658    0.397
       127 -10.0678    243.1667     59.1942   4.5380627828e+01   1.7762016290e+01    0.4259692    0.2865043 -40.84  0.001934372    1.295    0.228
       128  -8.9057     40.5481     61.6215   9.4820062063e+01   6.0126489659e+01     0.281856    0.2344062  58.94  0.001295705    1.698    0.411
       129  -7.7085     60.2742     61.5951   8.7162497403e+01   5.7651269519e+01    0.1836731    0.1260496  15.84 0.0009489452    1.642    0.391
       130  -9.4677    188.2074     51.8964   5.0779296334e+01   3.1512444659e+01    0.6233863    0.3741085 -71.65  0.001985315    2.254    0.556
       131 -11.5270    192.8934     56.7587   5.1394664728e+01   2.9645033434e+01     0.388094    0.3111798  42.54 0.0003295958    1.398    0.285
       132 -10.4667    194.2401     49.6726   4.9258274128e+01   3.0359093132e+01    0.8306735    0.5024643  67.49  0.003814203    1.675    0.403
       133  -8.9936    134.8006     59.1173   6.3356142019e+01   4.3505081136e+01    0.4421606    0.2855558 -55.84  0.001923789    1.923    0.480
       134  -8.8676    249.9968     58.5655   4.4491809182e+01   1.6426785223e+01    0.2672276    0.2033277 -41.17  0.001585492    1.163    0.140
       135  -9.4238    174.5011     58.6403   5.4985704573e+01   3.3877743856e+01    0.4336479    0.2238357  45.89  0.001758409    2.094    0.522
       136  -8.5195      5.7543     58.6353   1.0827119861e+02   6.3584942504e+01    0.2614126    0.1423203 -25.93  0.001214322    1.913    0.477
       137  -8.0702    159.6673     58.1960   5.7645046271e+01   3.7618133734e+01     0.282312    0.2120094  84.02  0.001343845    1.576    0.365
       138  -8.3550    155.9604     56.5101   5.7867174413e+01   3.8797100867e+01    0.2603258    0.2499126  15.35 0.0009950394    1.091    0.084
       139  -8.8623     89.6235     57.2543   7.5342758590e+01   5.3580246010e+01    0.2436361    0.2196273 -40.90 0.0001024206    1.192    0.161
       140  -8.2034    224.1802     56.8526   4.7068079754e+01   2.2261390187e+01    0.2110456    0.1690958 -63.80 0.0007273366    1.175    0.149
       141  -8.0683    221.1358     54.3995   4.6844749368e+01   2.3311282319e+01    0.1942701    0.1345062  72.73 0.0002800873    1.512    0.339
       142  -9.3151     62.9322     55.3347   8.3981496041e+01   5.8477627532e+01    0.4274446    0.3159516  81.92  0.001858771    2.881    0.653
       143  -8.8231    141.7657     54.5353   6.0248626356e+01   4.2574531784e+01    0.3886007    0.2635518  39.23  0.001811163    1.548    0.354
       144  -9.2161    125.0118     54.5326   6.4216451215e+01   4.6538966470e+01    0.4071146    0.2537627  43.48  0.001297854    1.587    0.370
       145  -9.2829    113.1765     54.4723   6.7308903612e+01   4.9216491486e+01    0.4663401    0.3603204  30.05  0.001482888    1.324    0.245
       146  -8.2536     41.9309     53.4513   9.1589798527e+01   6.1621628866e+01    0.2550493    0.1442585 -35.10 0.0007280718    1.581    0.367
       147 -10.3258      9.9207     52.4857   1.0492402407e+02   6.4635863634e+01    0.3713155    0.3053903 -10.07  0.001765914    1.303    0.233
       148  -9.3279    205.1555     51.5421   4.8211188250e+01   2.7458708553e+01     0.413701    0.2833664  19.61  0.001531883    2.340    0.573
       149  -7.3410    173.3439     53.6670   5.3735862448e+01   3.4923759434e+01    0.1578185    0.1087039 -68.83 0.0007050388    1.759    0.432
       150  -8.3832     88.3277     46.3748   7.1727666705e+01   5.5679970393e+01    0.2884512    0.2100663  53.19  0.001498047    1.586    0.369
       151  -8.5374     94.6048     51.6111   7.1706089975e+01   5.3588075224e+01    0.3716576     0.271652  -2.20   0.00153176    1.572    0.364
       152  -8.4064     92.6914     48.3337   7.1083526384e+01   5.4509049351e+01     0.229643    0.1930423 -41.91 0.0007403388    1.293    0.226
       153  -8.2770    129.3930     52.1496   6.2322415600e+01   4.5896768452e+01    0.2593939    0.1859363  44.58 0.0006974387    1.362    0.266
       154  -9.2372    244.9031     49.5210   4.2987699674e+01   1.8769122186e+01    0.3454269    0.2294226  48.46  0.001409459    1.889    0.471
       155  -9.3157    246.7820     44.5136   4.1672869780e+01   1.9059281863e+01     0.270992     0.211417 -27.52 0.0003301142    1.414    0.293
       156  -8.6360    250.2362     40.5968   4.0476433675e+01   1.8861155520e+01     0.259914    0.2118686 -74.51 0.0008710426    1.134    0.118
       157  -9.3376    248.0392     37.0014   3.9887729127e+01   1.9792746784e+01     0.326395     0.254282 -53.17  0.001719263    1.077    0.071
       158  -9.3836    212.5917     49.1116   4.6600010164e+01   2.6047680698e+01    0.4021266    0.3228613  42.11  0.002225468    1.489    0.329
       159  -9.9910    120.0510     49.6985   6.3801565287e+01   4.8439327201e+01    0.5013626    0.2431551 -35.21  0.001092649    2.066    0.516
       160  -8.0235     84.6683     51.2820   7.4778527982e+01   5.5555984871e+01    0.2632544    0.1957465  62.01 0.0008933971    1.859    0.462
       161  -8.8037     80.2256     49.5695   7.5631681030e+01   5.6660892813e+01    0.3976898    0.2735919   8.16  0.001967777    1.735    0.424
       162  -9.1243     72.7423     49.5042   7.8224338876e+01   5.7976141402e+01     0.439986    0.2982673 -24.08  0.001669005    1.446    0.309
       163  -8.1763     67.9667     50.4129   8.0300590184e+01   5.8601213218e+01    0.2430288    0.1656333 -16.05  0.001068619    1.566    0.361
       164  -9.3380    233.9346     36.0377   4.1011367689e+01   2.2955680006e+01    0.4731587    0.2957391  56.82   0.00254161    1.779    0.438
       165  -9.3120    237.4327     48.2294   4.3476682092e+01   2.0550568314e+01    0.3406634    0.2151885 -34.86  0.001446041    1.493    0.330
       166  -8.8397    231.9029     41.3028   4.2446939029e+01   2.2710726462e+01    0.2980509    0.1826388 -65.94  0.001146668    1.680    0.405
       167  -9.7205    234.0267     44.9933   4.3087009841e+01   2.1741642523e+01    0.2869175    0.2480519 -54.63  0.000870862    1.050    0.048
       168  -8.6540    237.7415     43.0123   4.2237902057e+01   2.1197449195e+01    0.2175372    0.1993231 -63.36 0.0004415514    1.108    0.097
       169  -9.3734    222.4124     49.8584   4.5569739914e+01   2.3670143662e+01    0.3322688    0.1833465  62.98  0.001233348    1.865    0.464
       170  -8.7204    220.6154     46.1653   4.4876313678e+01   2.4598074633e+01    0.3267797     0.255936 -25.63 0.0006305834    1.412    0.292
       171  -9.4028     41.8088     46.4927   8.9175451489e+01   6.2969519737e+01    0.5116585    0.3863615  84.38  0.002571369    2.886    0.654
       172  -7.2837     34.6520     49.7074   9.3353588269e+01   6.3151632591e+01     0.133661   0.08236276 -21.90 0.0007029527    1.669    0.401
       173  -9.7188    174.1009     45.2105   5.1125556680e+01   3.5959836783e+01    0.3603562    0.3134794 -26.62  0.001994866    1.225    0.184
       174  -7.7827    181.7374     47.0110   5.0415339752e+01   3.3810451072e+01    0.1953707    0.1780889 -46.74   0.00042315    1.095    0.086
       175  -8.6187    164.8146     46.5672   5.3124553452e+01   3.8082453245e+01    0.2589293    0.1957547 -45.07  0.000434656    1.340    0.254
       176  -9.1231     20.3673     46.7941   9.8620192005e+01   6.5045008108e+01    0.2544037    0.2137883  48.43  0.001690894    1.696    0.410
       177  -9.5723    137.1769     44.8882   5.8068534182e+01   4.5128888413e+01    0.4416984    0.3380077  42.05  0.001951549    1.287    0.223
       178  -8.1027    111.9424     46.8591   6.4924439653e+01   5.0696966739e+01    0.3358263   0.09524507  51.89  0.001059487    3.449    0.710
       179  -9.1993     29.4671     44.9042   9.3935417166e+01   6.4601218523e+01    0.3792334    0.2447159 -65.52  0.001330908    2.174    0.540
       180 -10.3842     34.2578     43.6204   9.1366361782e+01   6.4354961485e+01     0.439309    0.2801117 -30.12 0.0008405664    1.363    0.267
       181  -8.1784      8.8012     44.1902   1.0304140090e+02   6.6390800062e+01    0.3636544    0.1263425 -40.52  0.001710761    2.289    0.563
       182  -8.5560    155.6462     44.1628   5.4065826782e+01   4.0701974066e+01    0.3639991     0.228583  65.24  0.001181718    1.603    0.376
       183  -8.1080    152.5197     40.4976   5.3495789333e+01   4.1980767798e+01    0.3036502    0.1993549 -46.96  0.001445019    1.626    0.385
       184  -8.6934     95.9453     43.4706   6.8239553156e+01   5.4622431016e+01    0.2817333    0.1973132  22.29  0.001414005    1.542    0.352
       185  -9.1144    185.3581     41.5888   4.8329808509e+01   3.3664500778e+01    0.4165288    0.2440792 -62.36  0.001469738    2.036    0.509
       186  -8.6897    163.3168     42.1171   5.2033713264e+01   3.9075405873e+01    0.2354196     0.183124  50.26 0.0004416387    1.273    0.215
       187  -8.2959    147.8584     41.5068   5.4722420708e+01   4.2995596361e+01    0.2341075    0.2057816 -23.70 0.0006194559    1.196    0.164
       188  -8.6342    127.1787     41.5449   5.9187846470e+01   4.7987708535e+01    0.2862916    0.2264093   5.83 0.0009912734    1.427    0.299
       189  -7.8322     85.2929     42.5627   7.1239643088e+01   5.6868054717e+01    0.1844987    0.1226513  31.13 0.0005232877    1.510    0.338
       190  -8.3631     66.9959     41.9770   7.7395325423e+01   6.0208261179e+01    0.2817557    0.1795121  40.78 0.0008206303    1.673    0.402
       191  -7.9193    242.0781     40.8478   4.1309098119e+01   2.0550951255e+01    0.2067722    0.1478909 -67.86  0.000684041    1.309    0.236
       192  -9.6170    224.5385     37.9153   4.2425875039e+01   2.4814884108e+01    0.4723121    0.3210351 -21.88  0.002492522    1.750    0.429
       193  -8.5538    226.0349     46.2363   4.4264537608e+01   2.3353854885e+01    0.2371441    0.2036202  24.22   0.00106254    1.550    0.355
       194  -8.2557     78.5018     41.0305   7.2908745765e+01   5.8372935134e+01    0.2137778    0.1724565  32.05 0.0009278785    1.223    0.182
       195  -9.3887     67.4589     28.3078   7.1526461672e+01   6.2219452475e+01    0.4927684    0.3038275  -8.44  0.002397905    1.843    0.458
       196  -8.1422     59.5030     33.4793   7.6756449018e+01   6.2765670441e+01    0.1718884    0.1148784  22.42 0.0006947413    1.498    0.332
       197  -9.8340     51.8792     37.4666   8.1469247815e+01   6.3260297390e+01    0.4040657    0.2918912 -41.28 0.0005899479    1.414    0.293
       198  -8.4363     56.2513     36.4186   7.9271048057e+01   6.2797495408e+01    0.3937769    0.2419925 -49.41  0.001971062    2.022    0.506
       199  -9.1906     62.0354     38.2579   7.7765771384e+01   6.1612255324e+01    0.4383813    0.3683143 -18.03  0.002240369    1.072    0.067
       200  -9.3948     67.5365     36.4916   7.4967931289e+01   6.0997137099e+01    0.5773312    0.3049753  15.63  0.002323205    3.013    0.668
       201  -8.8054     11.9822     35.5901   9.8749719636e+01   6.7843291025e+01    0.5304465    0.3517692 -84.91  0.002655545    3.346    0.701
       202  -8.6616     25.3975     38.0558   9.3296508357e+01   6.6274582437e+01    0.2608948     0.151048 -25.30 0.0003588072    1.633    0.388
       203 -10.0005     13.2170     29.9546   9.6090853197e+01   6.8788043877e+01    0.6097202    0.1988634  24.70  0.002842701    3.316    0.698
       204  -8.4771    213.7392    244.9674   8.9331832418e+01  -6.5591693644e+00    0.2119106    0.1328205  41.39  0.001269701    1.638    0.390
       205  -8.9842     24.7644     33.0208   9.1665929730e+01   6.7243280965e+01    0.3357876    0.1854701 -55.23  0.001776156    2.113    0.527
       206  -9.2281     21.1219     31.8417   9.2943513352e+01   6.7790962578e+01    0.3494052    0.2163132 -49.13   0.00120757    1.542    0.351
       207  -8.8844     19.8068     40.3940   9.6725790566e+01   6.6331569884e+01    0.2226928    0.2037525  13.12 0.0009782696    1.359    0.264
       208  -8.9775     19.9738     36.7445   9.5345086971e+01   6.7002092650e+01    0.2819335      0.18825 -35.49 0.0009113136    1.178    0.151
       209  -9.6372    140.5020     39.3872   5.5513116804e+01   4.5086340384e+01    0.6672103    0.3041656  57.01  0.002714555    2.053    0.513
       210  -8.1751    106.6952     39.8759   6.3776403210e+01   5.2881705330e+01    0.1873749    0.1691261 -18.59 0.0003990445    1.116    0.104
       211  -7.7830     89.6076     40.6142   6.9091905936e+01   5.6329915998e+01    0.2753101    0.1027975  36.19 0.0009541654    3.219    0.689
       212  -9.3193    211.3878     31.8115   4.2372010820e+01   2.8643702861e+01    0.5308589    0.2651992 -64.20  0.002258504    2.408    0.585
       213  -8.8726    216.7402     38.8190   4.3512726532e+01   2.6487765099e+01    0.2564645    0.2009344  86.78 0.0004735946    1.247    0.198
       214  -9.6397    212.9632     37.6626   4.3660761766e+01   2.7521807477e+01    0.3639682    0.2466417  71.47 0.0006110058    1.463    0.316
       215  -8.8421    112.8557     36.1169   6.0735451894e+01   5.2037055328e+01    0.8217329    0.3065899  47.22  0.003128965    2.476    0.596
       216  -9.7437    123.8806     26.4743   5.4568497268e+01   5.0699883562e+01    0.2800848    0.2149837 -19.53 0.0002658055    1.385    0.278
       217  -9.0990    120.0236     38.9136   5.9964833714e+01   5.0021826989e+01    0.2724932    0.2060988  47.04 0.0004783112    1.251    0.200
       218 -10.3995    124.3376     35.5203   5.7718430289e+01   4.9472678542e+01    0.4226747    0.3569314 -40.87  0.001117729    1.277    0.217
       219  -9.4281    100.1664     36.9487   6.4489714187e+01   5.4699712069e+01    0.4534006    0.3403573  -1.11  0.001719266    1.433    0.302
       220  -8.5078      1.5263     36.9822   1.0426223276e+02   6.8228555384e+01    0.2827204    0.1838634 -66.00  0.001160973    1.658    0.397
       221  -9.7990      5.1409     33.6196   1.0141394115e+02   6.8666811152e+01    0.5551072    0.2269766 -56.73   0.00284189    2.126    0.530
       222  -8.9239    241.1935     36.6651   4.0449649673e+01   2.1291922976e+01    0.2166661    0.1908928 -64.96 0.0004568439    1.070    0.065
       223  -8.6053    192.9584     36.3322   4.5811240867e+01   3.2492190198e+01    0.2242673    0.1946626 -45.99 0.0005923206    1.141    0.124
       224  -7.8027    173.5625     36.1767   4.8561099170e+01   3.7306489342e+01    0.1926857    0.1393162  -9.78 0.0009485016    1.738    0.425
       225  -7.7681    157.9000     34.5238   5.0631877101e+01   4.1424331453e+01     0.292921    0.1336288  63.00 0.0005144595    2.088    0.521
       226 -10.0551    153.5845     33.5362   5.1080851010e+01   4.2622121538e+01    0.5165746    0.3075333 -17.07 0.0005464032    2.040    0.510
       227  -8.2240    235.1783    242.6336   8.5160512167e+01  -9.2532224195e+00    0.1664652   0.08751799  24.95 0.0005350925    1.670    0.401
       228  -8.3743    248.0000    239.5287   8.2450074009e+01  -1.0580506836e+01    0.2259885   0.05827167 -34.66 0.0009275425    3.877    0.742
       229  -8.4877    159.5698     28.2803   4.8406565054e+01   4.1772209392e+01    0.3326783    0.2187342 -39.71  0.001632568    1.568    0.362
       230  -8.9987    152.6748     23.6373   4.8084114509e+01   4.4020069269e+01    0.4148682    0.2160361 -39.51  0.001523339    1.996    0.499
       231  -9.6962     91.3495     34.6346   6.6185114861e+01   5.6850158646e+01    0.4163001    0.3525824 -76.89  0.001818661    1.729    0.422
       232  -7.8443    165.6175     34.8530   4.9432019913e+01   3.9457761958e+01    0.1934829    0.1236112 -43.18 0.0004665847    1.598    0.374
       233  -8.6188     34.0748     34.4206   8.7909692721e+01   6.6031303543e+01    0.2814311     0.242957  57.75   0.00181023    1.877    0.467
       234  -7.3555     83.2604     34.6559   6.8746110809e+01   5.8441602861e+01    0.1253335    0.1055866 -56.34 0.0003089545    1.595    0.373
       235  -8.8688     39.6912     32.5140   8.4608332714e+01   6.5695121578e+01    0.2326715     0.186266 -15.60 0.0006912902    1.012    0.012
       236  -9.2352    186.8619     29.2216   4.4674281062e+01   3.4878967538e+01    0.5173043    0.2767237 -38.79  0.002423669    1.816    0.449
       237 -10.0332    189.2847     22.7874   4.2604686576e+01   3.5043215447e+01    0.5228126      0.35195 -74.25  0.001868187    1.570    0.363
       238  -9.4354    194.3343     22.6995   4.1976617625e+01   3.3823219866e+01     0.658968    0.3011184 -72.49   0.00235895    3.517    0.716
       239  -9.1856    133.9174     32.1388   5.4420205011e+01   4.7621895159e+01    0.2667711    0.2276835 -85.62 0.0004756623    1.344    0.256
       240  -8.5154    130.6598     27.8438   5.3605247869e+01   4.8926085349e+01    0.3779382    0.1744654 -37.68  0.001273537    2.273    0.560
       241  -9.6136     84.4027     29.4149   6.6220070315e+01   5.8944884080e+01    0.2947647    0.2305171  -9.17 0.0006650766    1.234    0.190
       242  -8.3879     89.2083     25.7543   6.3215677688e+01   5.8456727397e+01    0.3130855    0.1752508  28.27  0.001456142    1.970    0.492
       243  -8.2823     47.4325     30.4593   8.0376082449e+01   6.5015982890e+01    0.2080467    0.1017409 -28.72 0.0002736875    1.986    0.496
       244  -9.3758     51.1576     25.7878   7.6755351739e+01   6.5192618209e+01    0.4421296    0.2961242 -23.47  0.002597173    1.337    0.252
       245  -8.7262    224.4665     28.4386   4.0169565337e+01   2.6039406000e+01    0.4136689    0.1416297 -34.99  0.001697293    2.583    0.613
       246  -9.4760    171.7127    234.0782   9.5547202069e+01   1.3912206861e+00    0.3126447    0.2596389 -22.35  0.002024546    1.339    0.253
       247  -7.9808     97.0659     29.6327   6.2499608482e+01   5.6337741280e+01    0.1925083    0.1657019  34.16 0.0005713999    1.082    0.076
       248  -9.0763    175.4414     27.2277   4.5673848782e+01   3.7942595183e+01    0.6002961    0.2456655 -55.39  0.002093942    3.443    0.710
       249  -8.4061    168.4905     23.0397   4.5443298094e+01   4.0153276540e+01    0.3258416     0.179773  72.25 0.0006281043    1.773    0.436
       250  -9.3182    167.4875     28.5021   4.7222209468e+01   3.9771935930e+01    0.5558697     0.200803  56.16  0.002134426    2.460    0.594
       251  -8.4655    170.4554     26.5134   4.6185304320e+01   3.9266667882e+01    0.2610573    0.2019073  52.91 0.0004929329    1.278    0.217
       252  -9.0827    105.2251     26.7354   5.9132529429e+01   5.4936075641e+01    0.3494444     0.202631 -12.53 0.0003682565    2.039    0.509
       253  -8.6306    103.9505     21.0689   5.7232428591e+01   5.5874072328e+01    0.2682407    0.2172513 -25.83 0.0009363462    1.306    0.235
       254  -8.4775     61.8470     27.3932   7.3220937653e+01   6.3292886337e+01    0.2850139    0.1739869  -3.16  0.001421658    1.960    0.490
       255  -7.6157    229.3137     27.6499   3.9514019730e+01   2.5044207468e+01    0.1428375   0.08097328 -61.47 0.0007046423    1.725    0.420
       256  -7.7258    114.9887     27.2378   5.6887764974e+01   5.2678878805e+01     0.194017    0.1656374  42.35 0.0004447494    1.077    0.071
       257  -8.0188     41.6720     25.2874   8.0593238202e+01   6.6594212598e+01    0.2059514    0.1712065  10.31 0.0003330881    1.179    0.152
       258  -8.4976     38.3417     25.3435   8.2109237606e+01   6.7014740947e+01    0.2787272    0.1564249 -26.23  0.001524506    1.624    0.384
       259  -7.5237     31.0388     27.4561   8.6408094886e+01   6.7543465868e+01    0.1649695    0.1105347  22.38 0.0005854416    1.543    0.352
       260  -9.1204    231.9301     20.9545   3.7734942602e+01   2.5268736086e+01    0.3217743    0.2527325  29.50 0.0004580196    1.867    0.464
       261  -8.3735    234.5709     25.7156   3.8583251296e+01   2.4114946122e+01    0.2786755    0.1691052 -31.26  0.001174476    1.683    0.406
       262  -8.9388    238.8302     24.6085   3.7958385623e+01   2.3319426578e+01    0.2726668    0.1963451 -38.89 0.0003954327    1.326    0.246
       263  -8.2586    237.8357     20.4460   3.7115911856e+01   2.4033367186e+01      0.33868    0.1628011  57.00   0.00166272    2.320    0.569
       264  -7.9268    152.5101    234.9847   9.9446661908e+01   4.3208846132e+00    0.1696723    0.1044812 -21.66  0.000810587    2.626    0.619
       265  -8.0226    220.3367    228.3066   8.5419697719e+01  -5.3048512285e+00    0.1288344   0.08149838   6.34 0.0001638246    1.675    0.403
       266 -10.1768    137.1428     25.5218   5.1497274692e+01   4.7628508224e+01    0.3059035    0.2562986 -84.61  0.000408413    1.347    0.257
       267  -8.1978    239.6455    215.6967   7.9763041999e+01  -6.4068861276e+00    0.1305129    0.0804792   4.48 0.0005351408    1.710    0.415
       268  -7.8124    234.4734    209.4650   7.9541298613e+01  -4.7784223459e+00    0.1274998    0.1025079   1.51 0.0002588671    1.018    0.017
       269  -9.2377     29.3841    199.3733   1.2068125117e+02   2.8962716924e+01     0.219962    0.1914373  71.76  0.001038121    1.183    0.154
       270  -7.2208    220.3126    193.3080   7.9066450221e+01  -1.0920266700e-01    0.1373782   0.09338772   1.61 0.0007026108    1.624    0.384
       271  -7.7723    141.4807    189.5136   9.4621508039e+01   1.4637012546e+01    0.1412841    0.1322764  51.83 0.0001509819    1.041    0.040
       272  -9.4077    127.8639     18.8346   5.0989239124e+01   5.0596217664e+01    0.3717584    0.2380001  50.98  0.001120248    1.401    0.286
       273  -9.0023     78.7124     24.1576   6.5828096768e+01   6.0726610340e+01    0.4701665    0.3376134   8.46  0.002642607    1.405    0.288
       274  -8.1596     29.9443     24.7114   8.5729648909e+01   6.8109917245e+01    0.2968431    0.1600857  -0.71  0.001127454    2.461    0.594
       275  -8.8013    246.0661     23.2212   3.7047139869e+01   2.1937904610e+01     0.196196    0.1526453 -51.02  0.000310497    1.120    0.107
       276  -8.3211    178.8905     23.3839   4.4097326905e+01   3.7532796683e+01    0.2220048    0.1699301 -52.85 0.0007242214    1.309    0.236
       277  -8.7429    113.3044     22.6027   5.5538089952e+01   5.3599810716e+01    0.4404638    0.1974381  35.96  0.001472051    2.576    0.612
       278  -8.4831    157.2523     22.4880   4.6978119277e+01   4.3010993458e+01    0.2635885    0.1915943  73.63 0.0007356522    1.326    0.246
       279  -8.2223    161.5361     21.4957   4.6007959921e+01   4.2054800879e+01    0.2775488    0.2280061  38.20 0.0008360875    1.308    0.235
       280  -8.2029     95.9987     23.4985   6.0325900243e+01   5.7318365005e+01    0.1982295    0.1268526  55.28  0.001011991    1.579    0.367
       281  -7.2806     22.2954    158.6902   1.1861479692e+02   3.8947633908e+01    0.1291936   0.07952808  72.27 0.0002427427    1.592    0.372
       282  -7.6938    249.3258    151.3225   6.5349546484e+01   1.7775542175e+00    0.1385591   0.09552678  -2.58 0.0002949567    1.686    0.407
       283  -8.4496     58.0923     21.4556   7.1996964516e+01   6.4722910297e+01    0.2033026    0.1544147 -17.26 0.0004134221    1.189    0.159
       284  -8.4253     13.3340    133.0253   1.1812447834e+02   4.5836692927e+01    0.1865426    0.1706799  88.41 0.0005480737    1.178    0.151
       285  -9.7109     65.8857    131.5119   1.0315101683e+02   4.0741266438e+01    0.4968955    0.3149283  20.91  0.001178465    2.041    0.510
       286  -8.5090     25.0862    127.9180   1.1424248696e+02   4.6129816364e+01    0.2585976    0.1811745  76.88  0.001475498    1.502    0.334
       287  -7.7404     39.4995    126.5532   1.0990971868e+02   4.5107012860e+01    0.1349885    0.1144806 -72.36 8.078227e-05    1.015    0.014
       288  -9.6535     69.3156    122.8044   1.0043105472e+02   4.2419939459e+01     0.242811    0.2282895 -73.13 0.0003119573    1.054    0.052
       289  -7.8158      9.6191    122.1877   1.1786335734e+02   4.8705441982e+01    0.1875667    0.0850001 -62.40 0.0009398132    1.694    0.410
       290  -9.0547     12.0032    115.0025   1.1625326274e+02   5.0266883042e+01    0.2497631    0.1985135 -35.26  0.000455584    1.438    0.304
       291  -8.8897     15.3550    112.1445   1.1485282646e+02   5.0719024248e+01    0.1785912    0.1540521 -71.89  0.000775011    1.083    0.077
       292  -8.5985     22.3696    114.1155   1.1302649471e+02   4.9712402581e+01    0.2014904    0.1702402 -34.24 0.0008625687    1.337    0.252
       293  -8.8547      5.9327    113.2628   1.1781245424e+02   5.1076545118e+01    0.2864197    0.2003058  43.71  0.001792028    1.691    0.409
       294  -7.6809     44.3446    104.8197   1.0445247749e+02   4.9917207027e+01     0.197114    0.1032275 -53.47  0.000276768    1.595    0.373
       295  -8.3091     19.2402    105.1185   1.1257176132e+02   5.2122148734e+01    0.2328023   0.09064721 -40.45 0.0008342244    2.946    0.661
       296  -8.9147    246.0345    104.2692   5.5398608568e+01   1.0132343492e+01    0.1904866    0.1733589 -39.01 0.0005170696    1.059    0.056
       297  -8.4372     25.6653    103.0729   1.1016820767e+02   5.2108619232e+01    0.1888231    0.1379067 -61.50 0.0005123817    1.109    0.098
       298  -7.2389    217.6534    102.6970   5.9361134493e+01   1.6261676702e+01    0.1468457     0.113692   9.54 0.0007040036    1.690    0.408
       299  -9.5717      9.7324    100.9939   1.1494028270e+02   5.3755735543e+01    0.3074719    0.1627346  32.83  0.001666861    2.256    0.557
       300  -9.1377    119.5222    101.8701   8.0559479171e+01   3.8587194641e+01    0.4940136    0.2798967 -55.57  0.001007598    1.983    0.496
       301  -7.9062     73.2164     16.6063   6.4308160869e+01   6.2675304046e+01     0.223981    0.1520887  20.29 0.0009459042    1.415    0.293
       302  -7.8812      1.7253     20.0337   9.8215002549e+01   7.1340046803e+01    0.1603549    0.1149176 -29.93  0.000672171    1.028    0.027
       303  -8.3927     16.5831     99.1276   1.1243274264e+02   5.3743260160e+01    0.1814437     0.169807 -33.80 0.0001025683    1.232    0.188
       304  -8.4609    203.6345     97.5041   6.0442612222e+01   2.0299002649e+01    0.3161626    0.1792865 -41.28  0.001358699    1.631    0.387
       305  -9.2231    196.9898     18.2677   4.0508456401e+01   3.3681831649e+01    0.3448731    0.2171111 -70.79  0.001325159    1.662    0.398
       306  -8.0092    130.6059     97.6715   7.6379073595e+01   3.7131680947e+01    0.2087297    0.1458666 -50.95 0.0005839213    1.463    0.316
       307  -7.7181     56.1273    100.1561   9.9573242415e+01   4.9670184533e+01    0.1876972    0.1598561  87.12 0.0004537558    1.360    0.264
       308  -8.7925     72.2267     95.4731   9.3111759416e+01   4.8567982245e+01    0.3046774    0.2809679 -75.09  0.001374139    1.182    0.154
       309  -7.2442     77.2903     19.2833   6.4163778790e+01   6.1592914846e+01     0.131795   0.08754025  17.90 -0.0001541599    1.531    0.347
       310  -8.1706     38.6191     94.9167   1.0425426354e+02   5.2878611813e+01    0.3039738    0.1389447 -43.77  0.001344964    2.053    0.513
       311  -8.7819    249.9848     93.7074   5.2451812596e+01   1.1069283384e+01     0.301835    0.1333628 -53.23  0.001175886    2.719    0.632
       312  -8.9999    210.1865     91.3529   5.7756480823e+01   1.9901257270e+01     0.302447    0.2055957  74.43 0.0009782957    1.843    0.457
       313  -8.1520    165.4501     93.9612   6.6959352672e+01   2.9882692285e+01    0.2646032    0.2154139  67.48 0.0006360137    1.357    0.263
       314  -7.6806    145.6942     92.9486   7.1203378197e+01   3.4710015544e+01    0.2054163    0.1975586 -39.87 0.0004349277    1.018    0.018
       315  -7.6021    237.6374     92.2864   5.3802587943e+01   1.3789386713e+01    0.1430821    0.1005786 -66.81 0.0007022116    1.689    0.408
       316  -9.3957     19.6787     90.8183   1.0990410181e+02   5.5480421290e+01    0.3290615    0.2811731 -77.47   0.00169469    1.184    0.155
       317  -7.6763     99.6251     90.7869   8.3129908196e+01   4.4976801326e+01    0.2019034    0.1383493 -52.74 0.0003512358    1.479    0.324
       318  -8.9778     55.6086     90.0374   9.7270866165e+01   5.2112062643e+01    0.4025148    0.2303609  57.05  0.001697353    2.778    0.640
       319  -8.1114    137.0954     88.9470   7.2155354752e+01   3.7485920771e+01    0.4184537    0.1988045 -29.23   0.00140409    2.750    0.636
       320  -8.8190    109.8264     15.6079   5.3663755397e+01   5.5135202412e+01    0.2218304    0.2147634 -33.52 0.0006531841    1.184    0.155
       321  -8.6658     27.5180     88.6824   1.0675096057e+02   5.5363236331e+01    0.2477986    0.2029197 -87.54  0.001524759    1.369    0.269
       322  -9.4159      5.6062     87.7121   1.1418001200e+02   5.7105965424e+01    0.3546101    0.2442306 -17.53 0.0008252327    1.749    0.428
       323  -7.7937      1.3389     84.7802   1.1516135081e+02   5.8003975008e+01    0.1905378   0.09664393 -70.15  0.000494163    1.578    0.366
       324  -8.9792    189.0661     87.9280   6.0550964838e+01   2.5401782416e+01    0.2419386    0.2306686 -49.45  0.000296988    1.003    0.003
       325  -9.0729    242.5569     86.2410   5.1717266153e+01   1.3753791977e+01    0.3478056     0.126566 -32.50  0.001287858    2.670    0.625
       326  -7.5187    174.2977     93.3278   6.4912404375e+01   2.7908453420e+01    0.1562036    0.1231306   6.73 0.0005120821    1.634    0.388
       327  -7.6408    102.8607     86.3393   8.0825694884e+01   4.5313373214e+01     0.203237    0.1393007  30.46 0.0003774007    1.617    0.381
       328  -7.3271     97.2767     85.3009   8.2207743801e+01   4.6605033231e+01    0.1485692    0.1140653 -12.22 0.0002037599    1.539    0.350
       329  -7.9502    230.4126     84.5133   5.2969528855e+01   1.6584346754e+01    0.2786034    0.1401594  58.01  0.001218705    2.197    0.545
       330 -10.1521    195.6016     82.0742   5.7806874570e+01   2.4886471154e+01     0.383843    0.2674662  63.86 0.0005755849    1.547    0.354
       331 -10.5273    188.8259     82.1785   5.9037071608e+01   2.6478252273e+01    0.2790942    0.2598915  56.00 0.0003155328    1.121    0.108
       332  -8.9721     87.3606     83.0071   8.4632078588e+01   4.8901123717e+01    0.3501346    0.2770693 -66.90  0.001320062    1.523    0.343
       333  -9.3007     65.6465     83.4436   9.2020476179e+01   5.2265430986e+01     0.548753    0.2743492  30.68  0.002383053    2.256    0.557
       334  -8.2443    145.8949     82.7730   6.8153615515e+01   3.6660283343e+01    0.2255253     0.205745  -3.51 0.0005020054    1.170    0.145
       335  -8.0312    135.7160     82.9697   7.0705438536e+01   3.8985090427e+01    0.2170941    0.1924695 -40.86 0.0003363435    1.111    0.100
       336  -8.2855    125.8852     81.8206   7.2902381980e+01   4.1426899813e+01    0.2968513    0.1816564  38.76  0.001254022    1.737    0.424
       337  -7.9854     37.5869     82.2150   1.0167476166e+02   5.5935566768e+01    0.2008187     0.100924 -49.87 0.0005109714    1.623    0.384
       338  -9.2308    199.6014     76.7511   5.5711824301e+01   2.4846125064e+01    0.3405854    0.2554447 -48.27 0.0007569621    1.271    0.213
       339  -9.7079    152.7459     78.0375   6.5147439035e+01   3.5919824801e+01    0.3768762    0.2247133  54.50  0.001587307    1.717    0.417
       340  -8.8769     74.9214     77.7865   8.7154543578e+01   5.2101685651e+01    0.4620154    0.2581966  58.28  0.001760159    3.184    0.686
       341  -9.2720     69.7195     73.3631   8.7577056613e+01   5.3849661595e+01    0.5092255    0.3950536  63.05  0.002139034    1.814    0.449
       342  -8.2736     20.6700     68.9092   1.0476591730e+02   6.0392736539e+01    0.1758801    0.1302618 -54.13 0.0003134875    1.112    0.101
       343  -7.4984    195.5163     77.4830   5.6591913018e+01   2.5691612956e+01    0.1498959    0.1388316 -58.66 0.0003752571    1.032    0.031
       344  -8.6890    107.0603     75.6637   7.6231919673e+01   4.6665803745e+01    0.4091312    0.2563245 -49.25  0.001810464    1.677    0.404
       345  -9.1577     31.5766     77.1217   1.0262902926e+02   5.7660630046e+01    0.3653008    0.1910914   8.75  0.001718057    2.617    0.618
       346  -7.6051     86.5625     75.9376   8.2687826522e+01   5.0532266895e+01    0.2261073    0.1344356 -42.38  0.001016847    1.574    0.364
       347  -8.2316      9.6940     76.1622   1.1059105602e+02   5.9512322083e+01    0.1991854    0.1654067 -36.48  0.001359483    1.193    0.162
       348  -8.4184    219.8993     74.1452   5.1921016298e+01   2.0577192662e+01    0.3765677    0.1940003 -56.22  0.001534979    2.258    0.557
       349  -8.9016    249.4751     73.2624   4.7868757675e+01   1.4361265773e+01    0.2481712    0.2169507  -8.53  0.001368282    1.395    0.283
       350  -7.8615    189.0559     73.4861   5.6618643470e+01   2.7912573958e+01    0.2111727    0.1459699  56.31 0.0004258967    1.483    0.326
       351  -8.5977    147.5790     72.3737   6.4595760338e+01   3.8182445028e+01    0.2982384    0.2720623  15.27  0.001563928    1.170    0.145
