#   1 NUMBER                 Running object number                                     
#   2 MAG_AUTO               Kron-like elliptical aperture magnitude                    [mag]
#   3 X_IMAGE                Object position along x                                    [pixel]
#   4 Y_IMAGE                Object position along y                                    [pixel]
#   5 X_WORLD                Barycenter position along world x axis                     [deg]
#   6 Y_WORLD                Barycenter position along world y axis                     [deg]
#   7 A_WORLD                Profile RMS along major axis (world units)                 [deg]
#   8 B_WORLD                Profile RMS along minor axis (world units)                 [deg]
#   9 THETA_WORLD            Position angle (CCW/world-x)                               [deg]
#  10 FWHM_WORLD             FWHM assuming a gaussian core                              [deg]
#  11 ELONGATION             A_IMAGE/B_IMAGE                                           
#  12 ELLIPTICITY            1 - B_IMAGE/A_IMAGE                                       
         1 -14.8653    160.7029     51.5959   7.5850173640e+01   3.8551872226e+01     1.061025    0.9599381 -13.91  0.003551982    1.290    0.225
         2 -14.9025    173.5922     22.5399   6.5866189601e+01   3.9138334563e+01    0.9079085    0.7302606  84.84  0.003816709    1.124    0.110
         3 -12.2469    189.7007     14.9985   6.1899135483e+01   3.6131133458e+01    0.1786076    0.1559167 -81.48 0.0007386711    1.093    0.085
         4 -15.2643    188.3260    245.0890   1.1376941754e+02  -4.7177891771e+00     1.179349      1.02499  82.62  0.006573162    1.618    0.382
         5 -20.2462     74.5808    175.9761   1.2783460208e+02   2.9386673313e+01     16.85208     6.980484 -63.90   0.06731135    2.290    0.563
         6 -12.8728    133.5962    195.9989   1.1715783354e+02   1.4553926926e+01    0.4090624    0.2935707 -67.05  0.001996436    1.530    0.346
         7 -12.1333     14.4171    197.8856   1.4380004140e+02   3.1563999280e+01    0.2245685    0.1483522 -69.76 0.0009727909    1.361    0.265
         8 -10.9844    161.1937    236.7605   1.1790022265e+02   1.3153115126e+00    0.1991998    0.1662087  56.74 0.0005258355    1.223    0.183
         9 -11.0749     23.8204    191.1464   1.4128025222e+02   3.2138504923e+01    0.2265873    0.1519533 -57.89  0.001177982    1.575    0.365
        10 -13.2853    164.3763    186.1537   1.0834568524e+02   1.0708605906e+01    0.3807114    0.2717805 -65.22  0.001295694    1.680    0.405
        11 -14.0186    162.8653    181.2428   1.0770765949e+02   1.2066077368e+01    0.7086747    0.3962591  55.00  0.002513533    2.055    0.513
        12 -15.9093     41.8430    152.2380   1.3247551892e+02   3.9418905294e+01     1.476645    0.8381581 -62.36  0.005558061    1.488    0.328
        13 -10.4922     15.3910    187.7593   1.4273675834e+02   3.3747640197e+01    0.1585764   0.08920533 -66.19 0.0004067205    1.539    0.350
        14 -10.7031    157.8744    244.1933   1.1969611299e+02   5.7777467515e-01    0.1625409    0.1441103  -3.00 0.0003712724    1.313    0.238
        15 -12.2557    127.6697    228.9337   1.2368748777e+02   8.6750410241e+00     0.611348    0.4034306  24.50  0.002993878    1.948    0.487
        16 -10.5843     21.3234    181.1764   1.4085436218e+02   3.4681625647e+01    0.2948723    0.1503057  80.93 0.0007597295    2.075    0.518
        17 -13.8319    165.5957    175.4149   1.0590659070e+02   1.2774698937e+01    0.5080517    0.3368913  71.51  0.001214962    2.240    0.554
        18 -14.1982    196.9147    226.8815   1.0903022966e+02  -3.1729193581e+00    0.5978867    0.2404545 -32.62  0.002243438    3.399    0.706
        19 -13.1781    193.5962    170.8454   9.8865728084e+01   8.0093686554e+00    0.5108777    0.3202876 -58.58  0.001641706    1.955    0.488
        20 -10.6236     35.3739    244.2789   1.4346212362e+02   1.9392473066e+01    0.1423291   0.08674126  85.31  0.000601794    1.386    0.278
        21 -13.0355    207.6282    220.8100   1.0582953007e+02  -3.9759583104e+00    0.2605897     0.229206 -40.16 0.0009255049    1.277    0.217
        22 -12.6168    129.9342    239.9148   1.2475287518e+02   6.1505947655e+00    0.3178528    0.2029621 -47.27 0.0009831319    1.864    0.464
        23 -11.4802     15.1036    217.8085   1.4519892879e+02   2.7153557031e+01    0.2170338   0.08444618 -73.70 0.0009374407    2.128    0.530
        24 -10.9173    110.2143    240.8268   1.2886811195e+02   9.2796753810e+00    0.2358389    0.1431194  55.45  0.001238703    1.491    0.329
        25 -10.9047     27.3742    226.6886   1.4359030746e+02   2.3938579565e+01    0.1394595    0.0924949 -78.00 0.0003269061    1.330    0.248
        26 -12.8700    187.2521    154.2704   9.6580923266e+01   1.2772151038e+01     0.594399    0.3447618  35.66  0.002433906    1.960    0.490
        27 -11.9313    191.8254    151.7126   9.5045275381e+01   1.2331967193e+01    0.3674851    0.2335849 -58.47  0.001030854    1.835    0.455
        28 -13.9853    163.4788    152.4787   1.0143296330e+02   1.8280548919e+01    0.5279838    0.4281748 -13.01  0.001312032    1.548    0.354
        29 -11.0856      3.8833    153.2220   1.4198608125e+02   4.2658969296e+01    0.2431237    0.1369587 -70.22  0.001419937    1.364    0.267
        30 -13.2237    174.3291    148.8213   9.8150009442e+01   1.6730111287e+01    0.4096422    0.3228436 -59.13  0.001127493    1.334    0.251
        31 -11.2033    151.8462    228.8600   1.1860392184e+02   4.4202959084e+00    0.2027649    0.1761136  22.96 0.0004496849    1.216    0.178
        32 -10.1530      8.3382    149.2848   1.4049963556e+02   4.3236571932e+01    0.1196894   0.07738186 -47.97 0.0003865776    1.630    0.386
        33 -11.9585     10.9583    144.2913   1.3927908612e+02   4.4198102513e+01    0.2386603    0.1783074 -41.15 0.0005589885    1.535    0.348
        34 -10.1087     25.0028    213.5010   1.4299820555e+02   2.7024009432e+01    0.1392436     0.104574  56.42 0.0009246161    1.284    0.221
        35 -13.6733    160.4752    127.8304   9.6313036149e+01   2.4401200143e+01    0.5063977    0.3873349 -64.70  0.001518374    1.446    0.308
        36 -11.3174     40.2791    245.1956   1.4266154524e+02   1.8605076406e+01    0.1612199    0.1182255  84.15 0.0007663449    1.117    0.105
        37 -11.1792    231.2778    113.8739   7.9127242710e+01   1.1369583407e+01     0.249131    0.2123786  52.92 0.0007693301    1.296    0.228
        38 -11.4436    167.9772    112.9735   9.0889551095e+01   2.5842505676e+01     0.262872    0.1935018 -80.47  0.001137634    1.772    0.436
        39 -10.2818     16.4335    212.4137   1.4455162973e+02   2.8172747844e+01    0.1819862   0.08958475 -89.49  3.10363e-05    1.781    0.439
        40 -12.2095    211.5083    238.9835   1.0825762762e+02  -7.5313435981e+00    0.1814848    0.1221322 -37.29  0.001033764    1.598    0.374
        41 -11.0822    205.5210    110.2006   8.2666385746e+01   1.7698253429e+01    0.2678863    0.2115379  57.89  0.000659542    1.316    0.240
        42 -12.2193     30.1393    104.8405   1.2775017785e+02   5.1759793576e+01    0.3317866    0.2077349   3.41 0.0008662693    2.134    0.531
        43 -12.8864     41.1706     94.7943   1.2204214625e+02   5.2928499974e+01    0.4046513      0.32301   9.49  0.002361323    1.423    0.297
        44 -10.3225     11.1989    238.5916   1.4726466100e+02   2.3275599288e+01     0.189317   0.07111246 -82.12 0.0009637864    2.330    0.571
        45 -11.1096      9.6797    211.3403   1.4574389567e+02   2.9083764327e+01    0.1904986   0.08285485 -72.23 0.0004926795    1.884    0.469
        46 -13.7765    149.3500     65.2993   8.2043868967e+01   3.9176505391e+01    0.5300916    0.4641157  57.26 0.0009255387    1.084    0.077
        47 -11.6760    117.3944    244.9575   1.2794305371e+02   7.3028974340e+00    0.1647022    0.1495529 -55.49  0.001062527    1.332    0.249
        48 -13.5201    165.1538     42.7642   7.2598566457e+01   3.8701747389e+01    0.4589378    0.4324761  55.52 0.0008603218    1.116    0.104
        49 -11.0561     13.6545     59.9656   1.2321132526e+02   6.2394670515e+01    0.1653333    0.1192862 -45.31 0.0004384352    1.127    0.113
        50 -13.2722     11.4371    206.0703   1.4502560427e+02   3.0052037533e+01    0.4361635    0.3691846   1.78  0.003041788    1.987    0.497
