#   1 NUMBER                 Running object number                                     
#   2 MAG_AUTO               Kron-like elliptical aperture magnitude                    [mag]
#   3 X_IMAGE                Object position along x                                    [pixel]
#   4 Y_IMAGE                Object position along y                                    [pixel]
#   5 X_WORLD                Barycenter position along world x axis                     [deg]
#   6 Y_WORLD                Barycenter position along world y axis                     [deg]
#   7 A_WORLD                Profile RMS along major axis (world units)                 [deg]
#   8 B_WORLD                Profile RMS along minor axis (world units)                 [deg]
#   9 THETA_WORLD            Position angle (CCW/world-x)                               [deg]
#  10 FWHM_WORLD             FWHM assuming a gaussian core                              [deg]
#  11 ELONGATION             A_IMAGE/B_IMAGE                                           
#  12 ELLIPTICITY            1 - B_IMAGE/A_IMAGE                                       
         1 -11.2893     61.1583     35.9194   5.0264258629e+01   6.3758316267e+01    0.6135178    0.3468808 -21.61  0.002588019    2.405    0.584
         2 -12.4403    160.0248     29.7259   2.0865179629e+01   4.1549844298e+01    0.4631949    0.4194042 -18.39 0.0004962986    1.166    0.142
         3 -12.1610    104.8649     13.2036   2.4882490488e+01   5.7808261259e+01     0.636701    0.4490103  -9.02   0.00242356    1.528    0.346
         4 -11.9028    105.8702     20.8608   2.8140304259e+01   5.6655036972e+01    0.4216857    0.3635986 -40.62 0.0006993584    1.208    0.172
         5 -11.6700     26.4971     28.3450   6.3875414557e+01   7.0044017026e+01    0.5405903    0.3684852 -46.75  0.002211745    1.240    0.193
         6 -10.9255      6.0007     10.5930   6.8584230621e+01   7.5382450816e+01    0.4430719    0.3568548   2.64  0.003129584    1.344    0.256
         7 -10.1436     12.3714      8.1420   6.2684775683e+01   7.5320663973e+01    0.4385651    0.2806493 -70.99  0.002283888    2.682    0.627
         8 -11.9549     20.2002     22.0976   6.4731497382e+01   7.1930061274e+01    0.6600137    0.2965638 -40.66   0.00213413    1.917    0.478
         9 -12.1314     16.3864     13.7992   6.3039651316e+01   7.3898138970e+01    0.7437402    0.3584534 -28.77  0.003616306    2.280    0.561
        10 -11.7996     22.4759     11.3916   5.7741693598e+01   7.3703323524e+01    0.4724478    0.3092648  -1.90  0.002539867    1.754    0.430
        11  -9.6831    120.6337     11.7117   2.0825127445e+01   5.3996290017e+01    0.5184074     0.160804  66.66  0.001714791    3.179    0.685
        12 -10.1040    127.3389     11.6558   1.9547067990e+01   5.2265633253e+01    0.3467075     0.239114 -66.20  0.001294154    1.711    0.416
        13 -11.2450    134.9786     15.2351   1.9643934346e+01   4.9888066423e+01    0.6232632    0.3803909  57.54  0.002901887    1.547    0.354
        14 -10.3295    127.3031     16.3598   2.1489615002e+01   5.1772411344e+01    0.4224847    0.2185868  46.23  0.001233286    1.952    0.488
        15 -10.9985    179.0725     20.7490   1.5249689851e+01   3.7611134807e+01    0.5598314    0.2854537  38.41  0.002186354    2.672    0.626
        16 -11.6992     35.5267     18.1482   5.3794589021e+01   7.0894633087e+01    0.6241152    0.2513492 -35.42   0.00218088    2.420    0.587
        17 -12.9727    164.3228     18.4255   1.6352366884e+01   4.1755898122e+01    0.6059572    0.3361642  40.20  0.001863754    2.172    0.540
        18 -11.4511     68.0763     18.8597   3.9008036346e+01   6.5327220016e+01    0.4246545    0.3695994  -8.51  0.000934371    1.057    0.054
        19 -11.3749     85.8858     13.9697   3.0344622823e+01   6.2202780292e+01    0.5378897    0.3380378  -9.35  0.001992623    1.782    0.439
        20  -9.9667     87.6017      7.7565   2.6650299851e+01   6.2517031876e+01    0.5363958    0.2787108  60.28   0.00243942    1.919    0.479
        21 -10.5198    148.0744     16.1346   1.7859939405e+01   4.6325205266e+01    0.5232311    0.2248186  44.57  0.001827999    2.634    0.620
        22 -11.6193    228.5246     15.9602   9.1541216024e+00   2.5918613378e+01    0.3715695    0.2924764  78.51 0.0004272595    1.339    0.253
        23 -11.0948    225.6514     14.2829   8.9345295452e+00   2.6763432229e+01    0.3137428    0.1941907 -42.05 0.0005971717    1.368    0.269
        24 -10.4820    186.9671     15.1358   1.2605070661e+01   3.6182353825e+01    0.3380563     0.243761  12.98 0.0005512085    1.834    0.455
        25 -10.3997    191.0000     12.9934   1.1544608074e+01   3.5374755054e+01    0.3268742    0.1771928 -33.34  0.001240927    1.699    0.411
        26 -11.4481    192.4414      8.7892   1.0146427408e+01   3.5438811295e+01     0.579281    0.3761787   5.58  0.002431461    2.138    0.532
        27  -9.9731    218.8012     12.8827   9.0876178694e+00   2.8520959434e+01    0.2727436    0.1885817  -9.35  0.001428701    1.754    0.430
        28 -12.0835     47.9275     12.5740   4.4183069467e+01   6.9924213918e+01    0.5863127    0.3657213  48.02  0.003130352    1.851    0.460
        29 -11.1219    223.7707      2.7325   6.0612201873e+00   2.8387485868e+01    0.2763427     0.236344 -59.92 0.0002698217    1.024    0.024
        30 -11.5939    212.3625      8.9265   8.5149122141e+00   3.0476418616e+01    0.6651365    0.3809859  -1.72  0.002945974    2.589    0.614
        31 -10.8019    218.5864      4.0884   6.7589794355e+00   2.9472097737e+01    0.3338642    0.2660186  62.17 0.0009000764    1.404    0.288
        32 -11.3639    169.8501      9.2521   1.2580729326e+01   4.1255636370e+01    0.7290602    0.2212456  65.01  0.002576435    2.866    0.651
        33 -10.0314    163.7205      5.6926   1.2074921179e+01   4.3217387461e+01    0.4554529    0.2358009  28.55  0.001773215    2.863    0.651
        34  -9.8622    145.1332      9.5890   1.5856581314e+01   4.7782312299e+01    0.2522013    0.1925238  14.21 0.0005579229    1.537    0.349
        35  -9.9480      1.2637      7.5245   7.0572098901e+01   7.6298332649e+01    0.3456952     0.069052 -54.98  0.001350701    3.336    0.700
        36 -10.9320      2.6404      1.9567   6.6452306012e+01   7.7253424007e+01     0.331455    0.1887918  -3.06  0.001936877    2.025    0.506
        37 -10.5282    232.3956      7.2311   6.6567150670e+00   2.5955727987e+01    0.2628354    0.1874485 -57.31  0.001196655    1.205    0.170
        38 -12.0189    233.4173      2.8343   5.4917485392e+00   2.6167061295e+01    0.4712311    0.2332568 -59.13 0.0007563831    1.856    0.461
        39 -11.1384    184.4895      5.9931   1.0031828445e+01   3.7751749312e+01    0.4697282    0.2605537 -50.52   0.00179266    1.721    0.419
        40  -9.8723    157.4611      7.5490   1.3461377176e+01   4.4702164438e+01     0.318068    0.1892231  -6.02   0.00141539    2.074    0.518
        41  -9.8868    153.1439      7.1851   1.3877099597e+01   4.5884273187e+01    0.4541415    0.1736645  53.64  0.001719616    2.486    0.598
        42 -10.9043    122.1250      5.4294   1.7862971532e+01   5.4224997489e+01    0.3319427    0.1932675 -25.57   0.00119822    1.747    0.427
        43  -9.6882     62.1119      7.3379   3.4865860127e+01   6.8045253245e+01     0.231535    0.1666517  -6.24 0.0008177763    1.381    0.276
        44  -9.3761     77.6785      7.4284   2.9424753641e+01   6.4787801132e+01    0.2645368    0.1714832  87.17  0.001182249    2.604    0.616
        45  -9.6370     76.6610      3.6629   2.7655527477e+01   6.5413040286e+01    0.2818327    0.1798105  31.84  0.001270965    1.569    0.362
        46  -9.7679     73.0193      3.0053   2.8435035651e+01   6.6275383302e+01    0.2847596    0.2024352  28.78 0.0009127232    1.364    0.267
        47 -11.0674    247.1268      5.8986   5.4419149275e+00   2.2845663675e+01    0.2930196    0.1862368 -68.43  0.001342583    1.469    0.319
        48 -10.3695    245.5365      1.4382   4.4702489188e+00   2.3634706075e+01     0.187842    0.1442612  52.34 0.0004567947    1.653    0.395
        49 -10.3385    176.8247      5.8438   1.0727788228e+01   3.9755866803e+01    0.3799565    0.1879175  79.31  0.001115083    2.014    0.503
        50  -8.8791     18.6748      6.2798   5.7180625173e+01   7.5013383355e+01    0.1019436   0.09639212 -83.39 0.0006995529    1.593    0.372
        51  -9.3994    147.9490      5.4716   1.3929780928e+01   4.7424815034e+01    0.2126379    0.1084868 -74.82  0.000809534    2.587    0.613
        52 -10.3222    141.5487      3.1551   1.3920023611e+01   4.9330783770e+01    0.3653856    0.2472384  76.86  0.001456473    1.430    0.301
        53 -11.5237    133.7937      2.6461   1.4825551857e+01   5.1423585062e+01    0.4459868    0.3295359  73.22  0.002335616    1.293    0.226
        54  -9.1791    128.5308      1.4215   1.5124196444e+01   5.2909455654e+01    0.2363135    0.1313631  72.05 0.0006470206    1.727    0.421
        55 -10.0803     41.4167      4.1117   4.2151330273e+01   7.2207093893e+01    0.2963348    0.1862495  -3.00  0.001560554    1.832    0.454
        56 -11.0552    206.4283      2.9097   7.3005685696e+00   3.2519244215e+01    0.4404767    0.3008477  85.73  0.002397345    1.427    0.299
        57 -10.5990    105.1774      2.1740   1.9636995609e+01   5.8825499236e+01    0.3293346    0.2603399 -69.07  0.001246754    1.489    0.328
        58 -11.2117     22.1340      3.2517   5.2898751780e+01   7.5109522739e+01    0.2297127    0.1611186 -27.00 0.0004413099    1.197    0.164
        59 -10.7090    113.6814      2.1503   1.7955959871e+01   5.6685282367e+01    0.3481503    0.2346999  69.90   0.00083433    1.447    0.309
        60  -9.7298     13.0958      2.1569   5.8494931186e+01   7.6302813168e+01    0.1833387    0.1318551 -21.01 0.0004414982    1.199    0.166
        61 -10.5850    153.3868      1.8022   1.1910030294e+01   4.6307839033e+01    0.6379049    0.2461981 -88.54  0.002035286    3.798    0.737
        62  -8.7611     33.5289      1.4805   4.4650654784e+01   7.3809875666e+01    0.1243945    0.1027404  -8.23 0.0008096586    1.003    0.003
        63  -9.2330     64.2802      2.0597   3.0876826008e+01   6.8214883842e+01    0.1743349    0.1461382  -6.27 0.0002800403    1.111    0.100
        64 -10.0649     32.9036    125.7807   8.4077892207e+01   4.6146018891e+01    0.2681828    0.1398337  75.62  0.001224044    2.133    0.531
        65 -10.8839     50.2320    249.5176   9.0048393449e+01   1.8500655648e+01    0.2729393    0.1133613  50.85  0.001665525    1.703    0.413
        66 -10.4932    104.1310    131.0913   6.4587339946e+01   3.4757335207e+01    0.2270357    0.2052739  51.54 0.0004530963    1.109    0.098
        67 -11.9423    103.9282    122.4376   6.2800012542e+01   3.6809593334e+01    0.3633647    0.3313841  66.51  0.001989156    1.082    0.076
        68 -10.3360     49.6077    123.2552   7.8757457370e+01   4.4939214999e+01    0.2420058    0.2259829 -20.70  0.000987704    1.362    0.266
        69  -9.3105     56.5196    122.4730   7.6558503913e+01   4.4273591465e+01    0.1409404     0.121161  88.80 0.0002618948    1.044    0.042
        70 -10.4733     44.6229    119.8373   7.9749856488e+01   4.6372407263e+01    0.2779882     0.203292  89.39 0.0007283001    1.272    0.214
        71 -10.3114     43.5267    116.4938   7.9580142416e+01   4.7330890561e+01     0.368444    0.2317509  27.11  0.001890753    1.874    0.466
        72 -10.3080      7.2231    114.8248   9.0611429880e+01   5.0984001277e+01    0.3989926    0.1973464 -63.95  0.002091356    1.734    0.423
        73 -12.0668      2.4468    111.9318   9.1817747776e+01   5.1995310263e+01    0.4249701     0.270921 -81.71  0.001570748    1.237    0.192
        74 -11.2511      5.1999    105.6171   9.0388627696e+01   5.3367869085e+01    0.4041083      0.35535  78.44  0.002804914    1.155    0.134
        75  -9.7901     37.5286    115.9350   8.1367329552e+01   4.8120255936e+01     0.243887    0.1607927 -45.07  0.001275541    1.733    0.423
        76  -9.9508     78.9911    114.7171   6.8318615113e+01   4.2956862991e+01    0.2738893    0.2036154 -55.24 0.0007672139    1.289    0.224
        77  -9.1399     67.5240    114.8796   7.1846483378e+01   4.4657019716e+01    0.2658147    0.1478545  58.76  0.001128938    2.157    0.536
        78  -9.5185     57.8506    114.7380   7.4817977614e+01   4.6025557495e+01    0.2800813     0.158547 -79.16  0.001244768    1.892    0.471
        79 -10.5559     35.8155    102.8906   7.9914609794e+01   5.1566177855e+01    0.5280041    0.3221389   8.91  0.001762863    2.414    0.586
        80 -11.3913     25.2475    107.2811   8.4079221249e+01   5.1462007860e+01    0.6956596    0.4040612 -41.08   0.00349271    2.096    0.523
        81 -11.1148     21.5434    114.5089   8.6170284359e+01   4.9980094218e+01    0.4406982    0.2794843   1.33  0.002290479    2.404    0.584
        82 -11.2715     28.3503    113.2687   8.3881554479e+01   4.9688665161e+01    0.3085922    0.2891349   9.16 0.0007220814    1.364    0.267
        83  -9.1216     86.3407    113.6957   6.5897440975e+01   4.2000594115e+01    0.1540852    0.1103956  76.14 0.0007040304    1.679    0.404
        84  -9.9799     49.1086    112.2249   7.7129946716e+01   4.7752006698e+01    0.2673849    0.2113114  49.31 0.0008202532    1.324    0.245
        85  -9.3778     93.7953    111.6648   6.3235142935e+01   4.1195063846e+01    0.2188533    0.1916532 -55.29  0.001163053    1.116    0.104
        86  -9.6510     67.4671    110.6598   7.1024675444e+01   4.5711110040e+01    0.2788242    0.1839079  31.27   0.00135265    1.726    0.421
        87  -9.5861    121.1449    109.0482   5.4925280641e+01   3.6508105131e+01    0.3428059    0.2427844  -2.14  0.001167445    2.431    0.589
        88 -11.2117     79.5659    108.4124   6.6774070348e+01   4.4406042885e+01    0.5790323    0.3245879  35.04   0.00163101    1.962    0.490
        89  -9.5736    101.9894    109.4802   6.0335983354e+01   4.0207737347e+01    0.2276249      0.14982  41.26 0.0006248103    1.581    0.367
        90  -9.7595     16.0268    109.0448   8.7279627692e+01   5.1775839541e+01    0.1985923    0.1605783 -83.33 0.0006812603    1.012    0.012
        91  -8.9306    143.6435    106.3058   4.8511871640e+01   3.2253051053e+01    0.1600459    0.1229419 -87.44 0.0007040885    1.721    0.419
        92  -8.5567    182.5112    104.4574   3.9623387029e+01   2.3820854114e+01    0.1494851    0.1427168 -38.03 9.842381e-05    1.034    0.033
        93 -10.0867     85.8331    103.8440   6.3774333174e+01   4.4468364721e+01    0.2216772    0.1983419 -39.26  0.000592395    1.205    0.170
        94 -10.4730     29.6883     97.8464   8.1187785979e+01   5.3425497696e+01    0.6416574    0.2163252 -51.17  0.002491335    2.824    0.646
        95 -10.7768     35.1784     92.9901   7.8413425365e+01   5.4113882545e+01    0.5360285    0.2770973 -65.68  0.002559134    1.626    0.385
        96 -11.4812     27.4189     84.9862   7.9786621597e+01   5.6843984867e+01    0.6206933    0.5380078  23.76  0.003022543    1.387    0.279
        97 -12.0951     42.9799     85.1098   7.3965621354e+01   5.5246694398e+01    0.8782226    0.4239554  18.09   0.00305905    2.988    0.665
        98 -11.6308      9.6119     97.3921   8.8055172038e+01   5.5113666533e+01    0.4971953    0.4091347  67.85  0.000812233    1.230    0.187
        99 -13.0411     17.5199    100.4347   8.5740895530e+01   5.3801217339e+01    0.3545144    0.2986153  81.10 0.0004884318    1.126    0.112
       100 -11.2554     23.1034     94.6343   8.2989362991e+01   5.4805773643e+01    0.3423874    0.3133388  -9.85   0.00162207    1.372    0.271
       101 -11.0856     18.0488     90.3376   8.4148337191e+01   5.6275498831e+01    0.5576578     0.269117 -72.49  0.001971639    1.700    0.412
       102  -9.3232     64.6843    101.7063   7.0029831291e+01   4.8333183971e+01    0.2627703    0.1728746 -52.39 0.0005626822    1.432    0.302
       103 -11.6715     68.6053     95.8044   6.7376126936e+01   4.9212455393e+01    0.4196408    0.3510763   6.82 0.0006544627    1.524    0.344
       104  -9.6626     50.6875    102.3153   7.4808170942e+01   5.0044482170e+01    0.2809755    0.1814537 -81.27 0.0009127716    1.579    0.367
       105 -10.4879     52.6156     98.6222   7.3417604205e+01   5.0728440354e+01    0.5082465    0.2023383 -57.81  0.001307561    2.144    0.534
       106  -8.8106    120.4877    101.4734   5.3103480720e+01   3.8332121631e+01    0.1533379    0.1491999 -57.80 3.169066e-05    1.027    0.026
       107 -11.6747     79.7021     93.8238   6.3211554718e+01   4.7924984890e+01    0.7803727    0.6930982 -71.39  0.004282997    1.075    0.070
       108 -11.7463     77.6970     81.2745   6.0432383121e+01   5.1245737855e+01    0.9270844    0.6305693 -86.07  0.002190756    2.148    0.535
       109 -10.2413     72.8221     77.8503   6.1126678248e+01   5.2863876618e+01    0.3130319    0.2720396 -59.92  0.001713917    1.079    0.073
       110 -10.9663     42.8276     94.0807   7.5899838402e+01   5.3029518076e+01    0.3892834    0.3292522  82.65  0.002290027    1.182    0.154
       111 -10.1338    120.4943     90.4713   4.9998463194e+01   4.0742562883e+01    0.3206556    0.2853806   4.40   0.00106387    1.319    0.242
       112 -11.0923    125.9893     94.6322   4.9729299021e+01   3.8640633250e+01    0.2815906    0.2676407 -71.10 0.0001852947    1.047    0.045
       113 -10.7606    121.8836     93.8741   5.0608141831e+01   3.9702243641e+01    0.7241158    0.2593574  49.64  0.002327209    2.980    0.664
       114  -9.9482    104.6626     92.6611   5.5125769200e+01   4.3579832556e+01    0.3551397    0.3257263 -63.14  0.001883536    1.053    0.051
       115 -10.9240     98.6061     91.1605   5.6515828635e+01   4.5120673773e+01     0.304094    0.2559362  55.91 0.0006520004    1.250    0.200
       116 -11.4040     89.9155     88.5240   5.8475818374e+01   4.7379558926e+01    0.7276812    0.3370725 -45.55  0.002219638    2.100    0.524
       117 -10.3016     49.6069     91.3262   7.2918428607e+01   5.2921825567e+01    0.3269726    0.2608001  31.24  0.001833891    1.434    0.303
       118 -11.4925      7.1407     88.9085   8.7900072439e+01   5.7362592712e+01    0.4693996    0.3768796  13.86  0.001859374    1.590    0.371
       119 -10.0717     66.3474     88.7085   6.6393442699e+01   5.1286057594e+01    0.3483981    0.2560898  -4.96  0.001503842    2.006    0.502
       120 -10.0170    104.2105     87.4224   5.3744980962e+01   4.4853953647e+01     0.295246    0.2418312 -17.91 0.0009077126    1.484    0.326
       121 -10.4256    143.2497     84.5357   4.2419961070e+01   3.6774294081e+01    0.2733902    0.2558174 -41.35 0.0003393562    1.043    0.042
       122  -9.5270    133.0696     84.7831   4.4989729937e+01   3.9109325441e+01    0.2325692    0.2020557 -83.49 0.0004208148    1.287    0.223
       123  -9.8622    120.3837     83.9798   4.8081205271e+01   4.2156631742e+01    0.5713618    0.3255691 -40.72  0.002337252    1.729    0.422
       124 -10.0274    113.2373     82.8006   4.9713084105e+01   4.3975366031e+01    0.3160101     0.283292 -64.66 0.0007670302    1.130    0.115
       125 -10.0458     67.0770     81.7672   6.4293788730e+01   5.2850692094e+01    0.3537993    0.2883784  -7.41  0.001848746    1.567    0.362
       126  -9.2128     46.8153     76.1176   7.0353327644e+01   5.7003390795e+01    0.2511976    0.1913445  -1.00  0.001337275    1.716    0.417
       127 -11.4114     53.4014     75.9932   6.7773430190e+01   5.6196058398e+01    0.7572622    0.4796928 -77.62  0.003509055    1.897    0.473
       128 -11.2806     59.2447     77.5598   6.5991064441e+01   5.5016410350e+01    0.5587044    0.3769587 -17.26  0.002545101    2.205    0.546
       129  -9.9658      1.3357     80.8537   8.9050186745e+01   5.9657166174e+01    0.2130242   0.09429987 -77.12 0.0004674667    1.796    0.443
       130  -9.1884    103.3524     80.1694   5.1798229117e+01   4.6638467543e+01    0.2202988    0.1376074 -54.65 0.0003578745    1.643    0.391
       131  -9.6275     88.6602     73.7857   5.4420008138e+01   5.0972699936e+01    0.3261555    0.2176579 -55.06 0.0006955317    1.489    0.329
       132  -9.8418     92.1409     72.1073   5.2727093640e+01   5.0666689885e+01    0.3327933    0.2711716 -83.78  0.001171638    1.498    0.333
       133 -10.5542     88.4428     77.9380   5.5809068302e+01   5.0084451645e+01    0.6116326    0.3525496  54.54  0.002547535    2.074    0.518
       134 -10.4595     94.1871     76.5990   5.3522602124e+01   4.9276626328e+01    0.4816372    0.2692432  48.31  0.001872252    1.920    0.479
       135 -11.4086     13.3234     73.8427   8.3304722524e+01   6.0684159202e+01    0.5777972    0.3763185 -79.45  0.003288317    1.345    0.256
       136  -9.8203     14.9724     67.4865   8.1440704286e+01   6.2123406988e+01    0.3706773    0.1783004  14.59  0.001792141    2.662    0.624
       137  -9.1237    112.4670     75.5118   4.7622537829e+01   4.5690900947e+01    0.1553424    0.1473383 -62.26  0.000140675    1.048    0.045
       138 -10.0784    103.6336     74.6781   4.9957323069e+01   4.7768667967e+01    0.3571363    0.2687401  69.28  0.001657152    1.627    0.385
       139 -11.8777     40.5985     69.9951   7.1242883721e+01   5.9208728591e+01    0.5088972    0.3010482 -65.24  0.001669367    1.546    0.353
       140 -11.1197     35.2029     71.8292   7.3918309221e+01   5.9344258036e+01     1.127543    0.4054656  19.27  0.004017925    4.200    0.762
       141 -10.4166    186.8447     72.0127   2.9854331506e+01   2.8412081000e+01    0.4570222    0.3085759 -27.69  0.002104132    1.477    0.323
       142 -12.3516     74.1537     50.8606   5.1378515940e+01   5.8560425295e+01    0.7963785     0.404905 -55.12  0.002157696    2.328    0.571
       143 -10.7474     72.5183     47.4877   5.0651812212e+01   5.9532618882e+01     0.245479     0.228511 -21.26  0.000506991    1.030    0.029
       144  -9.4218     65.9922     74.5201   6.2609081763e+01   5.4734565743e+01    0.2035495    0.1444778  37.97 0.0004367525    1.544    0.352
       145 -10.9561      1.9909     71.7484   8.7588116832e+01   6.1842684399e+01    0.3476913    0.1605465 -69.44  0.001270558    1.646    0.393
       146  -9.7394    153.6638     72.7669   3.6429246580e+01   3.6482081566e+01    0.3634076    0.1887381  41.33  0.001358132    2.245    0.555
       147  -9.0157     19.4777     71.9840   8.0434806942e+01   6.0703767073e+01    0.1838408   0.07490751 -48.89 0.0005709436    2.204    0.546
       148 -11.1851    122.9072     68.7635   4.2491623151e+01   4.4686052888e+01    0.5261055    0.3037215  46.34  0.001948831    1.794    0.442
       149 -10.3688    219.8099     66.9060   2.3524814384e+01   2.1417281019e+01    0.4694977    0.2134616  66.35  0.001894659    2.616    0.618
       150  -9.4187     52.2110     65.7668   6.5297591910e+01   5.8777718678e+01    0.2195004     0.172911  34.05  0.000759347    1.424    0.298
       151 -12.6173      6.2001     61.6333   8.4153633064e+01   6.4070696718e+01    0.6696422    0.4676041 -42.89  0.002316444    1.398    0.285
       152  -9.6763     13.8084     56.3367   7.9584145963e+01   6.4877035882e+01    0.2832536    0.1329927 -55.07 0.0003858975    1.669    0.401
       153 -11.2563     78.7269     67.7617   5.5843649136e+01   5.4147966134e+01     1.519981    0.5915974 -59.95  0.004340557    4.367    0.771
       154  -9.4682     96.4255     64.8112   4.8852929988e+01   5.1352445519e+01    0.2236409    0.1928585 -38.10 0.0005035406    1.115    0.103
       155 -11.1981     91.9342     62.4212   4.9459631439e+01   5.2767502332e+01    0.3910091    0.3185635  69.72 0.0005994351    1.470    0.320
       156 -10.0537     91.6715     57.1602   4.7616767494e+01   5.3890804376e+01    0.3234091     0.247053  53.99 0.0007357496    1.429    0.300
       157 -10.0808     87.7454     56.1826   4.8565113771e+01   5.4883732285e+01    0.4638897    0.2146399 -35.36  0.001509119    2.318    0.569
       158  -8.9919     25.5457     65.5180   7.6461347149e+01   6.1782772586e+01    0.1327133    0.1106872 -62.24 0.0001303045    1.009    0.009
       159 -10.2838     58.4367     63.1420   6.1960481633e+01   5.8504728972e+01     0.393292    0.3008927  77.14  0.001134491    1.769    0.435
       160  -9.8008     64.4249     61.4577   5.9029897160e+01   5.7967293359e+01    0.3909234    0.2831191  32.54  0.002012511    1.534    0.348
       161  -8.7740     51.3321     56.4498   6.2648075682e+01   6.1026597637e+01    0.3376852    0.2144472  35.26  0.001323718    1.755    0.430
       162 -10.1893     51.8678     48.1648   5.9419136351e+01   6.2762517812e+01    0.2882349    0.2273545  44.82 0.0006178094    1.468    0.319
       163 -10.9782     40.5101     56.8728   6.7490027783e+01   6.2307166494e+01    0.3840153    0.2459376  38.70 0.0008897963    1.788    0.441
       164 -11.3807     45.1874     49.4708   6.2884593665e+01   6.3393176738e+01    0.7369922    0.3451073 -52.66  0.003283386    1.879    0.468
       165 -10.4013     50.5307     61.4931   6.4652949799e+01   5.9991505014e+01    0.3296972    0.2389368  41.33  0.001330561    1.561    0.359
       166 -11.0250     44.0429     43.9442   6.1337495222e+01   6.4734510343e+01    0.2645113    0.2322072 -25.09 0.0003004471    1.099    0.090
       167 -11.1825     39.7884     44.0993   6.3407206451e+01   6.5239740823e+01    0.5177363    0.3329082   0.14  0.001901885    2.173    0.540
       168 -11.1848     43.1691     62.3031   6.8005205060e+01   6.0735236564e+01    0.3019368    0.2289875 -49.70 0.0005344068    1.151    0.131
       169 -10.7370     46.1699     59.1528   6.5747717213e+01   6.1095504268e+01    0.3391882    0.2282381 -62.31  0.001002095    1.428    0.300
       170 -10.2445    158.3107     63.1787   3.2411427839e+01   3.7002470120e+01    0.4929224    0.2160098  51.93  0.001397673    2.295    0.564
       171  -9.9249    154.9671     60.7631   3.2302409807e+01   3.8258343168e+01    0.2155622    0.2051328   9.92  0.001135294    1.131    0.115
       172  -9.5509    106.4628     63.4863   4.5288356862e+01   4.9472157766e+01    0.3131353    0.1516591  48.01 0.0007258882    2.138    0.532
       173  -9.8332    106.4767     58.7020   4.3555817289e+01   5.0406385003e+01     0.464387    0.2840277 -70.35  0.001668181    2.948    0.661
       174 -11.0392    234.6018     60.9583   2.0180666069e+01   1.8977496414e+01    0.3699616     0.303015  71.89  0.002155454    1.389    0.280
       175  -9.7208     84.6907     61.4589   5.1559983898e+01   5.4399337105e+01    0.2682677    0.2165434  67.53  0.001353383    1.502    0.334
       176 -10.5284    109.7938     39.8511   3.5277234321e+01   5.2978933082e+01    0.6294943    0.3938724 -19.44   0.00176298    1.853    0.460
       177 -11.3619    117.2472     54.5533   3.8977891296e+01   4.8695189762e+01     1.188247    0.6215682 -62.07  0.003784887    3.568    0.720
       178 -10.2216    122.9472     44.5011   3.3707232022e+01   4.9032571362e+01    0.4038761    0.2491829  49.68  0.001404148    1.625    0.385
       179 -10.3294    112.2043     50.6826   3.8899757645e+01   5.0577346036e+01    0.3388624    0.2720913 -48.15 0.0009705221    1.263    0.208
       180 -10.8400    116.0259     48.9886   3.7209148356e+01   4.9967916284e+01    0.3477214    0.3211881 -10.82 0.0006900645    1.114    0.102
       181 -10.9819    117.6124     44.4696   3.5043904298e+01   5.0346296566e+01    0.6463668    0.4267397 -76.41  0.002145478    2.390    0.582
       182 -12.6128    120.0141     37.8335   3.1818832816e+01   5.0805640934e+01    0.7642291    0.4502346 -40.03  0.002181203    1.683    0.406
       183  -9.4033    113.8104     61.3746   4.2409514546e+01   4.8228706838e+01    0.2191218    0.1943353 -54.35  0.001123931    1.141    0.123
       184 -10.6513     32.2577     52.8776   6.9989591548e+01   6.4129024194e+01    0.4440959     0.253989  15.05  0.002188257    2.246    0.555
       185  -9.8631     29.4366     59.7411   7.3277614474e+01   6.2808843898e+01    0.3036951    0.1741006 -62.64  0.001545454    1.497    0.332
       186 -11.5030     24.3070     57.2763   7.4944530824e+01   6.3853677804e+01    0.5898578    0.4892794  41.24  0.003150823    1.427    0.299
       187 -10.2845    158.1592     55.5678   2.9959832109e+01   3.8300139830e+01    0.4899972    0.3784221 -77.02  0.002313508    1.508    0.337
       188  -9.9838    154.1846     51.4602   2.9359626923e+01   3.9978234279e+01     0.316041    0.2207232 -21.07  0.000595253    1.570    0.363
       189  -9.5604    125.3411     56.8367   3.7694606569e+01   4.6341504152e+01    0.2598184    0.2174464  75.23 0.0008738906    1.326    0.246
       190  -8.9299    135.3060     59.3516   3.6141766419e+01   4.3447668924e+01     0.160485    0.1225365  12.57 -9.727023e-06    1.709    0.415
       191  -9.1881     66.7212     55.0567   5.5846240868e+01   5.8987323235e+01    0.2041805    0.1670708 -46.49  0.001107464    1.127    0.112
       192 -10.3510    246.8272     54.1623   1.7189250344e+01   1.7284957769e+01    0.1759264    0.1542826   0.21 0.0008923816    1.329    0.247
       193 -11.3932     60.7867     47.8915   5.5499288600e+01   6.1462485792e+01    0.8661268    0.3271761 -43.82  0.002905996    2.420    0.587
       194  -9.5637     55.5656     50.5423   5.8721740814e+01   6.1713730961e+01    0.1711306    0.1353224  11.85 9.196157e-05    1.468    0.319
       195  -9.2229    201.7681     53.4061   2.2209552056e+01   2.7610627529e+01    0.2050051     0.130871  51.62 0.0009503686    1.704    0.413
       196 -10.1572    145.8977     48.9281   3.0151186751e+01   4.2513947143e+01    0.6229658     0.274518 -17.19  0.001789334    4.136    0.758
       197 -10.3279    240.0934     50.8142   1.7030894655e+01   1.9143747739e+01    0.2338506    0.1883367 -14.86 0.0008240669    1.331    0.249
       198  -9.6069     81.5529     50.4983   4.8521718489e+01   5.7236873110e+01    0.2733157    0.2070811 -81.58 0.0009343677    1.949    0.487
       199 -10.6755     83.0418     46.8145   4.6508652852e+01   5.7653964334e+01    0.3003666    0.2792899   4.37 0.0005601679    1.094    0.086
       200  -9.4322    174.4318     48.9911   2.4937366049e+01   3.5124328558e+01    0.4166133    0.2057785  87.65  0.001287075    3.850    0.740
       201  -9.3545     80.1558     58.2534   5.1988779582e+01   5.5932023739e+01    0.2476797    0.1590682  -8.26 0.0009486385    2.794    0.642
       202  -9.8429      1.8411     49.1604   8.3766128685e+01   6.7242262917e+01    0.1779205    0.1470819 -82.92 0.0006187733    1.193    0.162
       203 -10.8527     20.9201     45.7025   7.3277109306e+01   6.6818445327e+01    0.4480086    0.2062816 -43.76 0.0009852101    1.934    0.483
       204 -10.4940     26.3483     43.1396   6.9693717874e+01   6.6910790723e+01    0.4488601    0.2557884  44.94  0.002184611    2.272    0.560
       205  -9.3891     22.8305     37.5204   6.9555174505e+01   6.8472668356e+01    0.6906078    0.4155873  71.19  0.002961132    3.554    0.719
       206  -9.7270     13.4986     46.6138   7.7302355428e+01   6.7170204753e+01    0.2680128    0.1113955 -45.09  0.001249522    2.091    0.522
       207 -10.7806    137.6311     44.7366   3.0398637382e+01   4.5293626229e+01      0.72077    0.2862175  43.39   0.00233065    3.029    0.670
       208 -10.1329    199.8262     45.0529   2.0058953298e+01   2.9254310860e+01    0.3886743    0.2120336  85.78  0.001571563    2.414    0.586
       209 -10.0161    160.1955     43.3861   2.5510975835e+01   3.9641680773e+01    0.3332514    0.1866816  74.50 0.0002549344    2.080    0.519
       210 -10.2823    155.9931     42.2206   2.5863785184e+01   4.0909331972e+01    0.3235577    0.2814422  24.19 0.0009855506    1.296    0.228
       211  -9.7816     91.8560     42.1688   4.1590718450e+01   5.6670540579e+01    0.4093895    0.2718108  87.35   0.00160182    2.900    0.655
       212  -9.4503     17.2046     42.0190   7.4052954544e+01   6.7948057671e+01    0.2251984    0.1010999 -41.92  0.000905212    2.032    0.508
       213 -11.5513     79.5782     35.3145   4.2787152904e+01   6.0425071833e+01    0.8186356    0.5541016 -32.68  0.004076194    1.415    0.293
       214  -9.6627    231.5193     38.4849   1.4731157724e+01   2.2602639302e+01     0.295837    0.1210967 -28.22  0.001219871    2.202    0.546
       215  -9.3346    194.0323     38.9289   1.9000763993e+01   3.1523412606e+01    0.2158224    0.1698519  23.37 0.0005138194    1.594    0.373
       216 -11.2100      4.6423     36.1710   7.9139580563e+01   7.0081414521e+01    0.3983035    0.3142335 -26.55  0.002012345    1.311    0.237
       217 -10.3349     10.1554     29.9565   7.3993400848e+01   7.1117510158e+01    0.4894725     0.329695 -10.13  0.002971106    1.690    0.408
       218  -9.3151    183.6785     38.0766   2.0117051552e+01   3.4273781994e+01     0.202097    0.1754939 -41.94 0.0005002443    1.091    0.083
       219  -9.5138    153.5777     37.6802   2.4720574162e+01   4.2189310477e+01    0.2709025    0.2190302   2.32 0.0006886201    1.461    0.316
       220 -10.2579     59.7666     23.6236   4.4898513569e+01   6.6153405894e+01    0.4456469    0.1581742 -37.32   0.00171023    2.633    0.620
       221  -9.5442     70.7880     34.2451   4.5581980866e+01   6.2330528429e+01    0.2133702    0.1988426  56.24 0.0007028853    1.245    0.197
       222  -9.0399    113.3404    249.3113   7.8823828291e+01   1.0604558311e+01    0.1032604   0.07843047  15.74 0.0007045619    1.695    0.410
       223  -9.8649     67.5199     32.1185   4.5879314289e+01   6.3313038151e+01    0.3611549    0.2572919  12.83  0.001348014    1.713    0.416
       224 -10.8609     56.9655     30.9548   4.9767677322e+01   6.5376011561e+01    0.4183899    0.2887043 -29.16  0.001152843    1.379    0.275
       225 -11.5546     48.9682     30.4427   5.3184179171e+01   6.6742489741e+01    0.5922022    0.2813689  33.75  0.001982525    2.355    0.575
       226 -10.1593     43.1129     28.1289   5.4927642305e+01   6.8033066748e+01    0.1938205    0.1667589 -26.60 0.0002567116    1.002    0.002
       227  -9.4904    206.1658     37.5019   1.7116435564e+01   2.8693366367e+01    0.1936168    0.1394456  74.55 0.0004572825    1.460    0.315
       228 -11.0651    175.7031     34.0631   1.9966002180e+01   3.6868728577e+01     0.693481     0.353695 -46.99  0.002202341    1.948    0.487
       229  -9.5337    132.5818     36.9807   2.8593492234e+01   4.7755617552e+01    0.3813409    0.2116022  86.69  0.001326731    3.048    0.672
       230  -9.1865     12.9832     36.7414   7.4657436866e+01   6.9437729749e+01    0.2504555    0.1360005 -54.98 0.0008778784    1.444    0.308
       231  -9.4833     94.1089     35.8465   3.8159247613e+01   5.7244467820e+01    0.2130774       0.1925 -64.11 0.0005177413    1.258    0.205
       232  -9.1290    213.5163    248.5172   6.1431676058e+01  -2.9450834217e+00     0.108036   0.07770248  19.58 0.0004128044    1.024    0.023
       233 -11.8877    164.3714     27.6734   1.9498015259e+01   4.0657744853e+01    0.3057068    0.2981102 -77.39  0.000450768    1.036    0.034
       234  -9.7111    174.9802    246.2779   6.7586714888e+01   2.4754371834e+00    0.1646458    0.1152517  32.12 0.0009212709    1.086    0.079
       235 -11.7257    126.3358    241.9070   7.5755518441e+01   9.8886045048e+00    0.3312607    0.2167893  55.06  0.001778232    1.469    0.319
       236 -11.6913    106.7149     32.3726   3.2984186861e+01   5.4869566208e+01      0.70505    0.4350841  12.35  0.002483847    2.522    0.603
       237 -12.0808    113.5434     24.9463   2.8052398544e+01   5.4240677784e+01     0.688736    0.3284083  54.70  0.001948546    1.989    0.497
       238  -9.9678    240.1777     32.6449   1.2466586651e+01   2.1393515029e+01    0.3209885    0.1950601  47.81  0.001227185    2.074    0.518
       239 -10.5123    198.2028     29.0424   1.5571211074e+01   3.1727312137e+01    0.4481787    0.3268972 -34.74  0.002336932    1.280    0.219
       240  -8.8610    148.6994     31.9883   2.3564059832e+01   4.4248199075e+01    0.1796328    0.1343961 -28.32 0.0004057095    1.347    0.257
       241 -11.0449     32.4039     30.9125   6.1767088995e+01   6.8871099872e+01    0.2978058     0.202622 -54.92 0.0003617397    1.431    0.301
       242 -10.7950    130.9088    240.8436   7.4809297595e+01   9.3990014509e+00    0.2469464    0.1323304  32.20  0.001304679    1.661    0.398
       243  -8.4230      5.8201     21.9646   7.3727974620e+01   7.3099449070e+01    0.3892583    0.1900991 -19.69  0.001934872    2.541    0.606
       244 -11.6529     67.8116    240.6653   8.6384343708e+01   1.7857193403e+01    0.4058473    0.1960125  37.98  0.002437483    1.703    0.413
       245 -10.0184    167.3278    238.0405   6.7905293738e+01   4.5822869046e+00    0.1502897    0.1307019  22.98 0.0009393572    1.135    0.119
       246 -11.2217    147.1572    238.0898   7.1539987131e+01   7.4721653391e+00    0.4043633    0.2459721  44.98  0.001839023    1.380    0.275
       247  -9.8998    199.8057    234.6255   6.1802126996e+01   4.0736921426e-01    0.1529518    0.0859211  40.58 0.0004975148    1.597    0.374
       248  -8.9866    205.6873    233.6859   6.0677378455e+01  -2.9784911406e-01    0.1139653   0.07079771  11.27 0.0002715104    1.637    0.389
       249 -11.0891    189.1070     28.1978   1.6371550210e+01   3.4137671740e+01    0.4811377    0.3553196  -7.99  0.001888236    1.608    0.378
       250 -11.0128    183.1779     25.5977   1.6285161176e+01   3.5978656903e+01    0.5486324    0.3534068  20.62  0.002396366    2.255    0.557
       251  -9.4923    187.4718     23.0420   1.4982529337e+01   3.5170251141e+01    0.2513778     0.207489   6.21 0.0007078237    1.467    0.319
       252 -12.0884    126.1496     28.5213   2.6669735865e+01   5.0584385604e+01    0.5423157    0.4432509  77.43  0.002798387    1.302    0.232
       253 -10.0246     88.2809     29.3948   3.7105175298e+01   5.9549402550e+01    0.4480888    0.2120171  42.11  0.001818493    2.223    0.550
       254  -9.1657     97.1885     27.1676   3.3354682899e+01   5.7871004961e+01    0.3235001    0.1173561 -23.91  0.001029989    3.485    0.713
       255 -10.6626    155.2436     24.4708   1.9773211276e+01   4.3466991252e+01    0.3863739     0.237781  86.45   0.00118673    1.872    0.466
       256 -11.6075    145.2223     24.2004   2.1315169624e+01   4.6155694767e+01    0.7329494    0.2885418  52.11  0.002692155    2.450    0.592
       257  -9.0352     75.4958    224.5053   8.3737356480e+01   1.9633247026e+01    0.1164914   0.09008431  55.83 0.0005133312    1.010    0.010
       258 -10.8929    135.5984     22.7061   2.2466304807e+01   4.8871276624e+01    0.6540322    0.3466238  60.62  0.002790981    1.793    0.442
       259  -9.3732    234.4183    223.4945   5.4459966190e+01  -3.0586563299e+00    0.1105951   0.08297449  10.79 0.0001529626    1.014    0.014
       260  -9.7291     49.6584    222.6821   8.8592434459e+01   2.3147205550e+01   0.09475227   0.08804129 -18.99 0.0007049154    1.714    0.417
       261  -9.0069    153.2933    219.3308   6.8064743494e+01   9.2669129609e+00    0.1164234   0.08624132   7.97 0.0003625844    1.632    0.387
       262  -9.2210    213.7291     24.7456   1.2749993778e+01   2.8415404043e+01    0.2161775    0.1095468 -88.22 0.0009000863    2.410    0.585
       263  -9.9190     91.0940     22.7732   3.3111853785e+01   5.9884818443e+01    0.3388284    0.2614909 -11.55  0.001783964    1.337    0.252
       264  -8.8396     44.7133    215.3342   8.9084406439e+01   2.5075106546e+01    0.1215372   0.06330779  63.05 0.0007015535    1.625    0.385
       265 -11.1866     38.9226     22.2362   5.4135305616e+01   6.9703082896e+01     0.232199    0.1885147 -26.59 0.0004009044    1.061    0.058
       266  -9.2591    164.6524    211.9858   6.4889385489e+01   8.6048752012e+00    0.1583502    0.1442429  25.97 0.0004648681    1.107    0.097
       267  -9.5179    223.4179     22.2515   1.1209177792e+01   2.6402426031e+01    0.2034506    0.1517507 -84.89  0.000647303    1.362    0.266
       268  -9.6743    152.8530    207.2711   6.6483873908e+01   1.1193100418e+01    0.1984414    0.1746713 -73.40   0.00132186    1.448    0.310
       269  -9.4425    127.0475     21.5199   2.3648973572e+01   5.1241289299e+01    0.2167161    0.1417837  65.52 0.0005557056    1.515    0.340
       270  -9.0419     61.5110    206.5267   8.5066891297e+01   2.4740830187e+01    0.1199162   0.09456377  61.80 0.0001912362    1.011    0.010
       271 -10.2499    246.4882     19.9718   8.8595319494e+00   2.1485423958e+01    0.2038958    0.1097007 -30.09   0.00104076    1.614    0.380
       272  -9.4729    216.5475     20.5261   1.1337726998e+01   2.8222000875e+01    0.1362302    0.1204055 -53.84 9.257589e-05    1.024    0.023
       273  -9.9407     74.6402     19.5614   3.6932954773e+01   6.3902629734e+01       0.2529    0.2007314  19.64 0.0006056722    1.280    0.219
       274  -9.7545     46.9821     19.4841   4.8564727957e+01   6.8986003432e+01    0.2628285    0.1654077 -22.64  0.001360472    1.627    0.385
       275  -8.7497      1.4612     20.5238   7.6036786250e+01   7.3654909898e+01    0.1228119   0.09027831 -45.21 0.0003150441    1.073    0.068
       276  -9.2340     81.2217     19.3951   3.4577872576e+01   6.2534593095e+01    0.2624488     0.126633  49.86  0.001131174    2.030    0.507
       277  -9.4118     89.4934     16.5061   3.0543693290e+01   6.1071710750e+01    0.2091251    0.1213146  45.26   0.00092204    1.672    0.402
       278 -10.1953      4.0581    205.3313   9.6500650876e+01   3.1128083715e+01    0.1561646    0.1086373  61.88 0.0009425648    1.067    0.063
       279  -9.1121     78.4968    203.5485   8.1264851405e+01   2.3093448623e+01    0.1240384    0.0987613  59.47  0.000145274    1.021    0.020
       280 -11.2069      5.8225    198.9702   9.5921829380e+01   3.2216935532e+01    0.3468237    0.1206802 -77.42  0.001809437    2.563    0.610
       281  -9.0633    233.7709    197.0141   5.0221704311e+01   3.7794675916e-02    0.1468168   0.08726119 -27.32 0.0006046643    1.633    0.388
       282  -9.5556     16.1529    190.7084   9.3455124969e+01   3.2939394786e+01    0.2440315    0.1076899  71.15  0.001306782    1.978    0.495
       283  -8.9273     53.2981    190.3335   8.5461716162e+01   2.9003843674e+01    0.1086015   0.09303952 -43.39 0.0005137952    1.648    0.393
       284 -12.4380      4.4936    184.1354   9.5592494684e+01   3.5347489781e+01    0.5887862    0.3476606  84.99  0.002680536    1.358    0.264
       285  -9.6631     28.0196    175.9517   8.9987581743e+01   3.4903187496e+01    0.1880676    0.1484453  76.11 0.0007401733    1.034    0.033
       286  -9.5917    119.9481     15.8617   2.2734745295e+01   5.3725305337e+01    0.2246072     0.181864  30.43 0.0005142513    1.287    0.223
       287 -10.2975     15.9835    174.4389   9.2610844843e+01   3.6395966517e+01    0.2412887    0.1283991  77.40  0.001378829    1.593    0.372
       288  -9.3222     39.5398    173.5249   8.7150136202e+01   3.4210821377e+01    0.1250228   0.09978051  73.49 0.0001335543    1.003    0.003
       289  -9.4853     26.9451     14.3304   5.6636795937e+01   7.2663276428e+01    0.1734313    0.1484448  -2.71 0.0007558837    1.147    0.128
       290  -9.6025     74.3687     13.5467   3.3853464936e+01   6.4769415565e+01    0.2178377    0.1340213  57.90 0.0006993412    1.783    0.439
       291 -10.5989     14.1650    159.1692   9.2100513880e+01   3.9948007734e+01    0.3257805    0.1872571 -86.00  0.001575751    1.450    0.310
       292 -12.1827      8.9633    166.8868   9.3781352403e+01   3.8667882665e+01    0.5839971    0.3126799  40.95  0.002845399    1.725    0.420
       293 -11.7180     11.3220    162.8224   9.3002870834e+01   3.9370473397e+01     0.437347    0.1916349  77.31  0.002048425    2.074    0.518
       294 -10.4471     18.8249    164.8282   9.1359632291e+01   3.8255075190e+01    0.2408821    0.2375859  58.59  0.001634185    1.397    0.284
       295  -9.7090    204.8631    163.3233   4.8906291129e+01   9.2951491446e+00    0.2110598    0.1721185 -34.49 0.0005491265    1.283    0.221
       296 -10.7681     27.8231    161.9630   8.8996822822e+01   3.8039139721e+01    0.3101342    0.2665188 -69.26  0.001574111    1.327    0.247
       297  -9.2872     66.4171     10.4163   3.4998796487e+01   6.6804803384e+01    0.2557112    0.1159341  46.65  0.001129366    2.137    0.532
       298  -9.4574     38.0500    160.3040   8.6347383105e+01   3.7352446529e+01    0.1785396    0.1452965  62.01 0.0006448813    1.118    0.106
       299 -10.8559      9.3137    155.5331   9.3046695070e+01   4.1183090217e+01    0.2425026    0.1772532  84.91  0.001022768    1.079    0.073
       300  -9.2331    104.4956    155.5101   6.9043659836e+01   2.9151284829e+01    0.1400306    0.1290456  69.21 -1.205686e-05    1.009    0.009
       301 -12.4821     22.3557    149.5969   8.9368883305e+01   4.1419136702e+01    0.6482012    0.3494666 -45.67  0.002839735    2.579    0.612
       302 -10.8758     16.5283    147.8430   9.0724808124e+01   4.2350250494e+01    0.2772823    0.1827714 -88.30 0.0003645419    1.244    0.196
       303 -10.5384     30.6824    152.7408   8.7509589811e+01   3.9878614652e+01    0.3216153    0.2259613  73.42  0.001947316    1.217    0.179
       304 -10.6931      4.0606    153.4164   9.4200680936e+01   4.2080493050e+01    0.2804074    0.1459776  52.70  0.001084233    1.665    0.399
       305 -11.2558     47.2607    147.1314   8.2611960730e+01   3.9395391707e+01     0.626354    0.3772536 -50.66   0.00321656    1.920    0.479
       306  -9.7060     62.1849    151.6049   7.9236716217e+01   3.6470651503e+01    0.2426387    0.2048113 -29.41  0.001145124    1.632    0.387
       307 -11.3025      3.0484    147.9233   9.4140468119e+01   4.3412005053e+01    0.5883449    0.2519279 -80.67  0.003039914    1.898    0.473
       308 -11.8346     12.8899    137.0475   9.0852729791e+01   4.5200209024e+01     1.155831    0.4520746 -63.37  0.005471741    2.269    0.559
       309 -11.1999      5.8474    142.1799   9.3079984786e+01   4.4534518145e+01     0.265782     0.176941  84.42 0.0003382114    1.187    0.158
       310 -10.7143      2.1569    140.1552   9.3909690157e+01   4.5275461427e+01    0.3261946    0.1767801 -79.39  0.001443948    1.499    0.333
       311  -8.8425     74.2669    146.2928   7.5309286043e+01   3.6043500030e+01    0.1264764    0.1053979 -38.35 0.0002852014    1.508    0.337
       312 -11.0607     33.2066    144.1835   8.6035808524e+01   4.1643279018e+01    0.2898451    0.2259948  79.66  0.000823681    1.076    0.070
       313 -10.6840     40.0629    138.0269   8.3497861219e+01   4.2400285627e+01    0.3936288    0.2596211  79.06  0.001424034    1.431    0.301
       314  -9.7429     39.5174    133.4898   8.3106891985e+01   4.3564461328e+01    0.2006506    0.1333224  25.33  0.000497165    1.821    0.451
       315  -8.9836    217.5932    138.8127   4.1516560526e+01   1.0764648674e+01    0.1788096      0.11905 -40.31 0.0003225569    1.512    0.339
       316 -10.1153     79.9961    138.3100   7.2487239432e+01   3.7082600438e+01      0.30548    0.2158629  42.15  0.000920995    1.421    0.296
       317 -11.4766     22.8841    136.6382   8.8096069923e+01   4.4447747764e+01    0.5857473    0.3707233  50.24  0.002236119    1.513    0.339
       318  -9.8575     31.8354    137.4695   8.5712780389e+01   4.3395695491e+01    0.2902851    0.2088521  37.40  0.001016521    1.497    0.332
       319 -10.8052     30.0036    133.0614   8.5751705133e+01   4.4646442291e+01    0.3764687    0.2923687 -43.61 0.0009211889    1.600    0.375
       320  -9.5015     47.4589    135.0454   8.1056657472e+01   4.2288623152e+01    0.2045883    0.1179984 -72.64 0.0007122026    1.556    0.357
       321  -9.9771     71.8084    134.1050   7.4046800444e+01   3.9317428518e+01     0.348584    0.2657541  -2.67  0.001742334    2.039    0.510
       322 -11.1466     10.7602    127.3482   9.0656846369e+01   4.7690982798e+01    0.5874385    0.2457425 -68.06  0.001948886    1.972    0.493
       323  -9.0733     26.5535    127.4770   8.6131581237e+01   4.6338644757e+01    0.1308751    0.1064334  89.43 7.654622e-05    1.006    0.006
       324  -9.6325     22.8194    126.9489   8.7158457348e+01   4.6805177810e+01    0.1832115    0.1456365 -74.52 0.0004035478    1.147    0.128
       325 -10.2333      2.2089    125.9472   9.2965123402e+01   4.8629377084e+01    0.2957517    0.1545903  71.27  0.001467515    1.723    0.420
