#   1 NUMBER                 Running object number                                     
#   2 MAG_AUTO               Kron-like elliptical aperture magnitude                    [mag]
#   3 X_IMAGE                Object position along x                                    [pixel]
#   4 Y_IMAGE                Object position along y                                    [pixel]
#   5 X_WORLD                Barycenter position along world x axis                     [deg]
#   6 Y_WORLD                Barycenter position along world y axis                     [deg]
#   7 A_WORLD                Profile RMS along major axis (world units)                 [deg]
#   8 B_WORLD                Profile RMS along minor axis (world units)                 [deg]
#   9 THETA_WORLD            Position angle (CCW/world-x)                               [deg]
#  10 FWHM_WORLD             FWHM assuming a gaussian core                              [deg]
#  11 ELONGATION             A_IMAGE/B_IMAGE                                           
#  12 ELLIPTICITY            1 - B_IMAGE/A_IMAGE                                       
         1 -10.7368     75.6356     21.6924   7.4247132557e+01   6.1620562754e+01    0.4416583    0.2390933 -14.86  0.002063154    2.021    0.505
         2 -10.3532     58.6500     24.3687   8.1667962494e+01   6.4035442016e+01    0.2709933    0.1931664   0.71  0.001581757    1.364    0.267
         3 -11.4118     30.6511     21.2049   9.2109784650e+01   6.8102673513e+01    0.2539184    0.1683985 -31.90 0.0005997642    1.183    0.154
         4 -11.1965     42.6522     18.3691   8.5456369300e+01   6.7160214629e+01    0.5573854    0.2610603 -25.93  0.002722017    2.073    0.518
         5 -11.8100     34.7421     12.8773   8.6335945162e+01   6.8951382398e+01    0.3813947    0.2283669 -44.76  0.001064443    1.901    0.474
         6 -11.6623     29.9737      7.2993   8.5753454506e+01   7.0311311025e+01    0.3301275    0.2538906   3.72  0.001501182    1.195    0.163
         7 -11.6444    234.7767     15.0140   4.2367830927e+01   2.4251917606e+01    0.2829688    0.2248697  86.09 0.0002470815    1.217    0.178
         8 -10.4099     93.0648      8.3962   6.2791971464e+01   5.9778679777e+01    0.4108264    0.2132705  -8.69  0.001224032    2.117    0.528
         9 -10.1421     88.6436      7.5237   6.3633863226e+01   6.0779473062e+01    0.3193888    0.1858315 -26.90  0.001275574    1.719    0.418
        10 -10.5817    154.7084     14.8779   5.2142078620e+01   4.4538322244e+01    0.3166723    0.2064903  52.56 0.0007806047    1.402    0.287
        11 -11.1888     89.4190     13.9787   6.6354852124e+01   5.9939356006e+01     0.400897    0.2764579 -40.90  0.001409309    1.753    0.430
        12 -10.1930    203.1344     11.9467   4.4696591020e+01   3.2350971268e+01    0.2100926    0.1682609 -63.16 0.0003629486    1.228    0.186
        13 -11.1848     40.2834      7.7410   8.1230971680e+01   6.8979650304e+01    0.3877328    0.2318783 -14.21  0.001401968    1.520    0.342
        14 -10.7002     22.5030      9.5607   9.0548171557e+01   7.0777556384e+01    0.3032878    0.1907967 -10.03  0.001394336    1.485    0.327
        15 -10.8456     23.9637      4.9842   8.7484317920e+01   7.1301696892e+01    0.2980227    0.1283773 -33.66   0.00118417    1.874    0.466
        16 -11.8267     16.9808      3.7149   9.0393978367e+01   7.2184233453e+01    0.2497581    0.1664301 -29.96  0.000302125    1.180    0.152
        17 -10.6355     20.4695      2.4661   8.7919681896e+01   7.2021339888e+01    0.2183674    0.1630974  -7.03 0.0007383851    1.115    0.103
        18  -9.6955      4.0599     10.1951   1.0039300055e+02   7.2195296391e+01    0.1514391    0.1077807 -31.81 0.0003994367    1.015    0.015
        19 -11.3286    152.2983      8.9602   5.0493308897e+01   4.5723725411e+01    0.3997834    0.2550499 -47.26  0.001936049    1.789    0.441
        20 -10.0580    156.2859      7.6980   4.9438045105e+01   4.4818891523e+01    0.1992118    0.1095288  64.80  0.000225329    1.658    0.397
        21 -10.1582     15.0744      8.7954   9.3944753507e+01   7.1585215293e+01    0.1751154    0.1106356 -19.95 0.0004241896    1.307    0.235
        22 -10.4957    210.4165      7.7496   4.2791580787e+01   3.0944711826e+01    0.1751777    0.1320664  -6.83 0.0009452715    1.610    0.379
        23 -10.8995     70.9194      6.0225   6.8415604031e+01   6.4356754600e+01     0.330064     0.251465 -17.89   0.00204547    1.256    0.204
        24  -9.9841     64.8810      6.8675   7.0932434713e+01   6.5332949791e+01    0.1963977    0.1421521   7.69 0.0004253342    1.206    0.171
        25 -11.7270     57.3068      3.0775   7.1772399411e+01   6.7023893921e+01    0.4168411    0.2646906  -3.80  0.002426745    1.447    0.309
        26 -10.5569      9.8606      6.2119   9.5436708371e+01   7.2422770831e+01    0.3173153    0.1835461  41.26  0.001841675    3.010    0.668
        27 -10.7439      2.1910      5.7220   9.9381880537e+01   7.3057012212e+01     0.293759    0.1758234 -46.98   0.00154497    1.463    0.316
        28 -10.1496    235.6783      4.3229   3.9679342785e+01   2.5171149798e+01    0.1413833    0.0813731 -60.17 0.0007046149    1.677    0.404
        29 -10.2505    194.0000      4.0217   4.3451896101e+01   3.5448000632e+01    0.2165467   0.07760902 -22.25 0.0008096739    2.993    0.666
        30 -11.1160    130.3336      3.4251   5.2253502847e+01   5.1703674776e+01    0.2579544    0.2319771 -88.30 0.0006602464    1.275    0.215
        31  -9.8376    120.8371      4.1384   5.4372798983e+01   5.3933459872e+01    0.1927488    0.1395734  31.52  0.000413402    1.289    0.224
        32  -9.4704    104.4517      4.4887   5.8135491070e+01   5.7681677690e+01    0.1350421    0.1160279  25.80 5.021365e-05    1.005    0.005
        33 -11.4137     79.9592      1.9162   6.3523795558e+01   6.3056676515e+01    0.3576784     0.194579  36.80  0.001801337    1.642    0.391
        34 -10.7546    174.0629      2.6666   4.5352188715e+01   4.0687223846e+01    0.4551871     0.163014  61.50  0.001473848    2.329    0.571
        35 -10.1741     90.8520      2.9576   6.0912501841e+01   6.0755845308e+01     0.272144    0.1873984  70.48  0.001443453    1.934    0.483
        36 -10.3421     10.3153      1.8216   9.2975928177e+01   7.3058696979e+01    0.1908241    0.1308534  -4.17 0.0007061008    1.317    0.241
        37  -9.8449    203.5581      1.4768   4.1766610458e+01   3.3264372853e+01     0.131927    0.1215656  80.73 -2.535687e-05    1.059    0.056
        38  -9.8847    187.1551      1.3024   4.3410536806e+01   3.7442191671e+01    0.1885356    0.1147812  84.29 0.0002570669    1.644    0.392
        39  -9.3966    153.9099      1.1730   4.7574492816e+01   4.5985767268e+01    0.1859901   0.09600216  69.50 0.0004535359    1.808    0.447
        40  -9.5601     67.2227      1.4275   6.7353107827e+01   6.5495164367e+01    0.1479225     0.116688  47.38 0.0004305375    1.461    0.316
        41 -10.2894     15.7963    150.3589   1.2497193461e+02   4.1506300513e+01    0.1323614    0.1135412  12.72 0.0009528958    1.705    0.413
        42 -10.3062     12.0024    250.0130   1.3181872062e+02   2.2612158258e+01     0.126463    0.1040177 -75.15   0.00112476    1.685    0.406
        43 -11.0813      1.8627    248.3492   1.3320867901e+02   2.3863417115e+01     0.266955    0.1078362 -81.17    0.0018118    2.132    0.531
        44 -11.9471     11.1275    244.6441   1.3172100855e+02   2.3578395036e+01    0.2225258    0.1709908  34.59  0.001709282    1.910    0.477
        45 -11.9033      6.1075    241.4328   1.3232638895e+02   2.4599782902e+01    0.2228806    0.1641156  84.87  0.001499289    1.251    0.200
        46 -10.3654      2.4046    148.2546   1.2771564358e+02   4.3006942821e+01     0.167267   0.08205876 -88.61 0.0009528214    1.670    0.401
        47 -10.5415     22.6982    143.0047   1.2268252996e+02   4.2555066594e+01    0.1768051    0.1229255 -77.78 0.0006253989    1.134    0.118
        48  -9.3888    236.3423    139.3268   7.3412729683e+01   5.7863015320e+00    0.1512522    0.1028064   8.30 0.0007051144    1.738    0.425
        49  -9.3937     41.9597    138.9480   1.1758433673e+02   4.1628675503e+01    0.1526503    0.1238552 -79.54 0.0005624362    1.011    0.011
        50 -10.3259     11.8415    141.2119   1.2500911467e+02   4.3850633724e+01     0.159329    0.1096797 -63.83 0.0005561786    1.332    0.249
        51 -10.6765    213.6690    134.4103   7.6330754173e+01   1.1279114209e+01    0.4580089    0.2816494  68.54  0.001804034    2.735    0.634
        52 -10.3175      9.0060    135.5209   1.2512151155e+02   4.5332620164e+01    0.1399013    0.1121601  41.72 0.0004408149    1.511    0.338
        53 -11.1735      2.8634    133.1745   1.2633727476e+02   4.6286255666e+01    0.3134674    0.1686549  52.57  0.001902463    1.967    0.492
        54  -9.7379     35.2147    130.8412   1.1818052573e+02   4.4181242490e+01    0.1694006    0.1232127 -55.58 0.0005041729    1.334    0.250
        55 -11.8554     11.0098    129.4511   1.2403301806e+02   4.6547698194e+01    0.4380929    0.2153711  47.74  0.002469922    2.214    0.548
        56  -9.4256     20.4668    125.4245   1.2122719589e+02   4.6735956489e+01    0.1214581   0.09467668 -83.06 -8.949712e-05    1.056    0.053
        57 -12.3577     22.9648    120.6440   1.1997784611e+02   4.7629937939e+01     0.585713    0.2846585  70.42  0.002301643    2.847    0.649
        58  -9.7603     40.0049    115.7628   1.1467118309e+02   4.7220111290e+01     0.143618    0.1094971  32.31  0.000406757    1.584    0.369
        59 -10.7885     17.9830    121.9876   1.2144156010e+02   4.7718571829e+01    0.1772431    0.1382055 -74.61  0.001201679    1.032    0.031
        60 -10.3427     72.2107    112.9754   1.0509984393e+02   4.4041794975e+01    0.2026132    0.1963797  84.46 0.0003193311    1.122    0.108
        61 -10.4272      7.9039    121.1307   1.2391119237e+02   4.8643825482e+01    0.1751274    0.1266136  85.44 0.0003753675    1.235    0.190
        62 -10.9267     65.5603    110.8717   1.0655268137e+02   4.5432572847e+01    0.2980535    0.2234183 -81.80 0.0008050869    1.429    0.300
        63 -11.8498      4.3738    108.9212   1.2343951266e+02   5.1628955411e+01    0.4099692    0.2448471   9.63  0.002498527    2.459    0.593
        64  -9.7111     78.4038    107.1775   1.0204640846e+02   4.4503663961e+01    0.2488463    0.1114559  32.73 0.0009949657    2.644    0.622
        65  -9.5534     34.4419    107.4430   1.1485616524e+02   4.9693017493e+01    0.1273861    0.1032767 -72.53 -1.411983e-05    1.050    0.048
        66  -9.7553     40.2352    106.6284   1.1304343389e+02   4.9330271736e+01    0.1489577    0.1243044  -0.89 0.0002908511    1.566    0.362
        67 -10.1448     89.6564    105.3179   9.8365868221e+01   4.3179436834e+01    0.1471495    0.1121923  84.56  0.000704903    1.719    0.418
        68 -10.3691     52.4232    105.1989   1.0920972125e+02   4.8368405385e+01    0.1884874    0.1142712 -72.53 0.0006991432    1.649    0.394
        69  -9.5642    187.0367    103.2829   7.3578844880e+01   2.2914704451e+01    0.2153766    0.1987082  50.72 0.0005267796    1.130    0.115
        70  -9.6524    113.6635    102.6773   9.0952795093e+01   3.9471296028e+01    0.1556955    0.1192308  -8.55 0.0007050688    1.713    0.416
        71 -11.6333     56.4967    108.1632   1.0861357270e+02   4.7200217859e+01    0.3929629    0.2285448  22.45  0.001920719    2.278    0.561
        72 -10.7484     61.7218     98.2537   1.0493997538e+02   4.8865569309e+01    0.2935139    0.1239124 -42.77  0.001169245    2.471    0.595
        73 -10.1054    100.3805     96.3054   9.2941479245e+01   4.3369598174e+01    0.3349513    0.2408648  72.04  0.001517411    2.002    0.500
        74 -11.6397     78.8214     94.9828   9.8954326911e+01   4.7241996106e+01    0.2586519    0.2107639 -46.27            0    1.103    0.093
        75 -10.4079      3.4161     95.5015   1.2200609599e+02   5.4711628185e+01    0.2002063    0.1485851 -67.18 0.0002562134    1.042    0.040
        76 -11.2868     17.6532     94.8877   1.1770553764e+02   5.3952609720e+01    0.1989678    0.1733962  49.95 0.0007388001    1.405    0.288
        77 -11.6625     10.9732     91.6073   1.1919838088e+02   5.5143373574e+01    0.4770159    0.1820291 -70.25   0.00128864    2.071    0.517
        78 -10.3422     43.7558     91.3958   1.0897893187e+02   5.2505655205e+01    0.4442725    0.2031824 -64.17  0.002023261    1.968    0.492
        79 -11.2333     57.4553     91.9031   1.0478257001e+02   5.0855837309e+01    0.2832066    0.2103975  -5.83    0.0010748    1.783    0.439
        80 -10.5286     26.7046     90.5751   1.1417439884e+02   5.4253636799e+01    0.5059363     0.226292  49.65  0.002289983    3.184    0.686
        81 -10.8622     76.6163     89.2608   9.8128990442e+01   4.8863408361e+01    0.2739672      0.24576   3.27  0.001595143    1.250    0.200
        82  -9.2200    150.0000     88.2250   7.7432368095e+01   3.4621800707e+01    0.1994348     0.130759  49.19  0.000373138    1.560    0.359
        83  -9.8058     64.7864     88.2408   1.0157017755e+02   5.0759084304e+01    0.1923446     0.143695 -36.00 0.0005137167    1.317    0.241
        84 -10.9928    124.4900     82.8033   8.2243950442e+01   4.1457595017e+01    0.6537307    0.2892669 -40.06   0.00145296    2.174    0.540
        85 -10.8671     54.8305     84.5011   1.0382104804e+02   5.2852122144e+01     0.295217    0.1846698 -59.95 0.0009971913    1.444    0.308
        86  -9.9964     38.8845     85.7884   1.0931369205e+02   5.4270372206e+01    0.2455959    0.1534695 -87.61  0.001208948    2.204    0.546
        87 -10.7049     18.4045     87.6634   1.1624666718e+02   5.5542892089e+01    0.3307809    0.1979245 -46.72   0.00166361    1.501    0.334
        88 -10.0131    100.4975     83.4862   8.9226158029e+01   4.6129402554e+01    0.2607754    0.1401855  53.36  0.001035182    2.387    0.581
        89 -10.7506      4.0400     82.4200   1.1989561129e+02   5.7608821222e+01     0.289468    0.1328411 -67.60  0.001581648    1.605    0.377
        90 -11.3584     64.4814     79.7238   9.9404489943e+01   5.2700364077e+01    0.4428668    0.2696848 -58.84  0.001753462    1.602    0.376
        91 -10.1787     89.4088     80.6141   9.1708850177e+01   4.8712551697e+01    0.2723123    0.2076203 -70.61  0.000575626    1.669    0.401
        92  -9.9059     10.0310     79.2010   1.1742572687e+02   5.7988663356e+01    0.2350169    0.1049555 -56.18 0.0007773588    1.629    0.386
        93  -9.7189     24.6611     78.7061   1.1247942330e+02   5.7101315031e+01    0.2121624    0.1389613 -13.75  0.001016246    2.010    0.503
        94 -10.6258     28.0936     77.0637   1.1096704893e+02   5.7195506211e+01    0.1835496     0.146282 -55.25 0.0003671672    1.011    0.011
        95 -10.4836    176.9537     76.9904   6.8114269129e+01   3.0112962421e+01    0.2470617    0.2415616 -11.66  0.001308903    1.005    0.005
        96  -9.6604    170.1725     76.1640   6.9258568386e+01   3.1950648068e+01     0.224674    0.1860995 -60.54  0.001072605    1.358    0.264
        97  -9.9399     73.9480     75.2182   9.4999258361e+01   5.2339299151e+01    0.2560498    0.1542269  46.70  0.001209526    2.020    0.505
        98 -10.9973     55.6616     75.1114   1.0107352625e+02   5.4838048731e+01    0.3320744    0.2963953 -34.16  0.001400258    1.087    0.080
        99 -10.4875     18.3813     75.2981   1.1389103678e+02   5.8321250799e+01    0.2535423    0.1459549 -43.30 0.0006339381    1.550    0.355
       100 -10.1449     15.3231     75.6642   1.1500132559e+02   5.8445640288e+01    0.1867789    0.1473166 -73.52  0.001259178    1.194    0.162
       101 -10.4974      6.2201     75.6749   1.1805446664e+02   5.8988762791e+01    0.3317037   0.08146507 -45.94   0.00133271    3.407    0.706
       102  -9.9596    160.6955     75.0164   7.0942229159e+01   3.4503841569e+01    0.2211279    0.1921011 -29.93 0.0002000274    1.131    0.116
       103 -10.2269     36.9950     75.0000   1.0744062339e+02   5.6872289667e+01    0.2185941    0.1752099   8.92 0.0008054781    1.512    0.339
       104 -10.5697     36.0475     71.9976   1.0702585828e+02   5.7623447125e+01    0.4308556    0.2452521 -17.83  0.002087796    2.536    0.606
       105  -9.3220    136.5383     74.4684   7.6471446575e+01   4.0390091441e+01    0.1554389    0.1478333  -8.80 6.019972e-05    1.015    0.014
       106 -10.0658     92.5544     72.7367   8.8288368805e+01   4.9810546088e+01    0.2454814    0.1744941 -58.14 0.0005446729    1.619    0.382
       107  -9.8440     81.4355     73.1907   9.1947103520e+01   5.1604763762e+01    0.2029515    0.1277841 -55.66 0.0009431096    1.687    0.407
       108 -10.5313    106.2938     72.0172   8.3911491759e+01   4.7372210474e+01    0.2983332    0.2123886  45.02  0.001126766    1.503    0.335
       109  -9.7103     76.2567     71.6516   9.3151343420e+01   5.2743782819e+01    0.1346699     0.107509 -71.70 0.0003089523    1.597    0.374
       110  -9.3217    216.7538     72.3353   5.9695651820e+01   2.0987703012e+01    0.1524449     0.106937 -55.22 0.0002841578    1.554    0.357
       111  -9.8088     57.3465     68.1981   9.8504714839e+01   5.6119917063e+01    0.2730855     0.133585 -39.25  0.001233678    1.906    0.475
       112 -10.1893     46.3356     69.3184   1.0269539514e+02   5.7170586532e+01    0.2265651    0.1692256  33.26 0.0009817942    1.597    0.374
       113 -10.2973     10.5780     67.6650   1.1502255183e+02   6.0501754785e+01    0.2943776    0.1535963 -68.05  0.001257675    1.597    0.374
       114 -10.9829      8.8394     61.5710   1.1435099159e+02   6.1921890178e+01    0.5603539    0.1253249 -48.31  0.002171793    2.977    0.664
       115 -11.3363     14.1382     63.8705   1.1292280370e+02   6.1107799389e+01     0.377851    0.2322155 -77.96 0.0005653766    1.782    0.439
       116 -13.8318     19.9882     57.6742   1.0923684229e+02   6.2038028706e+01    0.4236845    0.2586497 -58.75  0.001106253    1.329    0.248
       117 -10.4622     34.5157     64.7889   1.0569843783e+02   5.9331466614e+01    0.2719207    0.1579171 -45.78 0.0007729016    1.385    0.278
       118 -10.6464     39.9347     61.7622   1.0286110871e+02   5.9454462003e+01     0.495962    0.1746597 -35.63  0.001759027    3.763    0.734
       119  -9.3941      1.4941     66.5165   1.1799490957e+02   6.1237520332e+01    0.1180982   0.08684576 -60.43 0.0008104237    1.008    0.008
       120 -10.4273    133.2209     65.6074   7.4403401490e+01   4.2777733945e+01    0.2224755    0.1389852  39.12  0.000603826    1.675    0.403
       121  -9.9904     75.9197     64.7886   9.1060191723e+01   5.4208580462e+01    0.2013651    0.1675782 -17.58  0.000290995    1.174    0.148
       122 -10.7471     63.6172     61.5218   9.4212475081e+01   5.6680723518e+01    0.4331357    0.2904294  -1.98  0.002165622    1.965    0.491
       123  -9.3733    193.2526     61.9951   6.0609860101e+01   2.8445136457e+01    0.2099923    0.1467666 -15.88  0.000268465    1.615    0.381
       124  -9.6205    192.5384     58.5563   5.9716704872e+01   2.9152450780e+01     0.227412    0.1774529 -64.97 9.507884e-05    1.450    0.310
       125 -10.5757    100.8251     61.1668   8.1862119762e+01   5.0531881777e+01    0.2935369    0.1942778 -48.89  0.001119084    1.626    0.385
       126  -9.6659     53.5063     62.0275   9.7980772850e+01   5.7890179965e+01    0.1971558    0.1146446 -51.25 0.0005350335    1.513    0.339
       127  -9.3058    177.9379     58.9889   6.2445813658e+01   3.2824877084e+01    0.1785751    0.1733946  50.37 0.0003535738    1.036    0.035
       128  -9.4979    130.2182     57.7887   7.2498343124e+01   4.4831982685e+01    0.2536209    0.1669411 -72.02 0.0009545573    2.787    0.641
       129 -10.5451     91.6800     55.2827   8.2593855883e+01   5.3353343478e+01    0.2729105     0.218579  53.72 0.0002449579    1.520    0.342
       130 -11.1062     83.6143     56.8713   8.5775270773e+01   5.4495322783e+01    0.2538724    0.2162872 -47.35 0.0004372537    1.260    0.207
       131 -11.7715     87.6920     53.5142   8.3226689938e+01   5.4401368146e+01    0.4973117    0.3388674  -9.66  0.001975036    1.749    0.428
       132  -9.6438     71.6264     56.8081   8.9811126990e+01   5.6452804251e+01    0.1929275    0.1190649 -50.04 0.0008676851    1.637    0.389
       133  -9.7912     33.0885     55.2104   1.0351703803e+02   6.1482615021e+01    0.2806851    0.1035512 -37.91  0.001150701    2.729    0.634
       134 -12.1520    114.6159     53.7858   7.5223476252e+01   4.9008630355e+01    0.3516655    0.3078637  24.76 0.0007337518    1.128    0.113
       135  -9.7489    164.3876     54.3506   6.3601085197e+01   3.7007760859e+01     0.299538     0.133752  52.79 0.0005442144    2.152    0.535
       136 -12.1839     66.1064     52.5863   9.0262768891e+01   5.8090050777e+01     0.524052    0.2516351  32.53  0.002363309    2.355    0.575
       137 -11.3244     17.3013     33.4234   1.0303424956e+02   6.7116188135e+01    0.7470519    0.3039252 -18.56  0.002764434    4.911    0.796
       138 -10.4837     13.0005     41.0815   1.0740443734e+02   6.5926668698e+01    0.2170794     0.170879 -36.66  0.000415591    1.098    0.089
       139 -10.7827     18.4378     44.8845   1.0627031801e+02   6.4791516682e+01    0.4082852    0.3182565  30.55  0.001818661    1.659    0.397
       140 -13.2207      5.6465     50.7816   1.1307140821e+02   6.4380561945e+01    0.3199258    0.2089726 -42.41 0.0005651877    1.247    0.198
       141 -11.5144     12.0330     48.0503   1.0980709949e+02   6.4578238786e+01    0.4718308    0.2352983  42.89  0.002459834    3.065    0.674
       142  -9.9212    105.9374     53.1585   7.7469182195e+01   5.0946971488e+01    0.2133672    0.2045164  83.46   0.00087267    1.284    0.221
       143 -10.3170    122.1034     51.2634   7.2285026975e+01   4.7772479118e+01    0.2557409    0.2085166  70.32 0.0008568174    1.519    0.342
       144  -9.2912     48.4597     58.4027   9.8685633904e+01   5.9235462770e+01    0.1300861    0.1082363 -36.53 0.0001108039    1.018    0.018
       145 -11.3178     77.2519     47.5221   8.4470189485e+01   5.7285252043e+01    0.5291806    0.3207448  -9.56  0.002332784    2.287    0.563
       146 -10.6698     57.5820     47.2053   9.1436955984e+01   6.0304583763e+01    0.3397494    0.2051859 -54.72  0.001012507    1.929    0.482
       147  -9.5664    154.5818     47.5403   6.3352300510e+01   4.0521913642e+01    0.1491032     0.145007   9.86 6.755563e-05    1.013    0.013
       148  -9.4655    135.5288     46.4494   6.7198515703e+01   4.5392837423e+01     0.148753    0.1423854  11.45  7.84584e-05    1.023    0.023
       149 -11.7270     26.8011     43.5288   1.0237143109e+02   6.4400573562e+01    0.3768554    0.3649871  23.23  0.002788344    1.379    0.275
       150 -10.0891     25.7970     29.7199   9.7857542174e+01   6.7101106831e+01    0.1943573    0.1290659 -46.29 0.0005664849    1.318    0.241
       151 -10.5684     22.7024     38.5497   1.0243585222e+02   6.5714156523e+01    0.1768563    0.1448134  30.95 0.0006062491    1.592    0.372
       152 -11.5886     26.7592     35.1124   9.9468042293e+01   6.6022218354e+01     0.387666    0.1971517 -32.44 0.0008135514    1.760    0.432
       153  -9.9728     69.8363     42.4582   8.5114831356e+01   5.9377086703e+01    0.2415978    0.2101089 -59.32 0.0009538305    1.535    0.349
       154  -9.6618    159.5747     41.7957   6.0420206054e+01   4.0070969795e+01    0.2089798     0.136346 -39.78  0.000434153    1.573    0.364
       155 -10.5819      3.6755     41.9160   1.1159721045e+02   6.6302648705e+01    0.2816947    0.1626158 -11.54  0.001733344    2.059    0.514
       156 -11.2756    139.8628     40.4014   6.4042999645e+01   4.5220089113e+01    0.3720641     0.310342 -55.80  0.001365607    1.390    0.280
       157 -10.0588     35.4043     41.4955   9.8111798464e+01   6.3993949271e+01    0.2275587     0.120215  26.97   0.00121622    2.193    0.544
       158 -12.1192    121.5584     37.1762   6.7197285315e+01   5.0038258410e+01    0.4818111     0.442691  54.01  0.001607671    1.181    0.153
       159 -10.0746    127.9679     38.5325   6.6124527842e+01   4.8350980109e+01    0.2123448    0.2049749 -68.61 0.0003931284    1.200    0.167
       160  -9.9328    114.9553     39.0130   6.9613088117e+01   5.1271580051e+01    0.1756325    0.1602695   5.29 0.0005157572    1.007    0.007
       161  -9.5322     99.8304     39.1577   7.3934544474e+01   5.4480175916e+01    0.1972374    0.1549778  10.47 0.0004980827    1.279    0.218
       162 -10.8327      3.2033     35.0346   1.0984850327e+02   6.7697892964e+01    0.3922887    0.1699508 -38.83  0.002190236    1.846    0.458
       163  -9.8744     42.8262     40.8438   9.4838999776e+01   6.3323631313e+01    0.1500681    0.1395591 -32.72  0.000514412    1.264    0.209
       164 -10.7599     38.9102     35.5323   9.4432331841e+01   6.4736969551e+01      0.26683     0.184657  -4.42  0.001223834    1.537    0.349
       165 -12.0219     40.2204     30.5866   9.1899066385e+01   6.5467542606e+01    0.7185539    0.3895605   3.59  0.001210436    2.713    0.631
       166  -9.9988    131.4584     38.5454   6.5296434829e+01   4.7518907415e+01    0.2352048     0.212562  34.42 6.732769e-05    1.061    0.057
       167 -10.8427     96.6446     33.0618   7.2426987014e+01   5.6032690024e+01    0.3690262    0.2085853 -32.66  0.001733689    1.704    0.413
       168  -9.5204    134.2279     34.2375   6.3071939653e+01   4.7437093049e+01    0.2074528    0.1705763  25.45 0.0003321676    1.204    0.170
       169  -9.3067     82.3681     34.2674   7.7440828621e+01   5.8597307911e+01    0.1421232   0.09608413  10.88 0.0006992139    1.660    0.398
       170  -9.8213     50.5053     33.6684   8.8918869555e+01   6.3676323386e+01    0.1596743    0.1100074 -44.00 0.0009115278    1.442    0.307
       171  -9.0115    145.2854     33.2821   6.0343426733e+01   4.4830919371e+01    0.1493825    0.1065925  26.97  0.000212035    1.521    0.342
       172 -10.1380    166.2734     30.9081   5.5579340827e+01   3.9763490169e+01    0.2179774    0.1929056 -54.83 0.0005423885    1.201    0.168
       173 -10.2028    128.6903     31.0739   6.3158536858e+01   4.9184146615e+01    0.3923936    0.1775576  52.70  0.001499064    2.063    0.515
       174 -10.9577      8.0462     28.5570   1.0556580169e+02   6.8667947084e+01    0.2420854    0.2156694 -87.61  0.001801172    1.658    0.397
       175  -9.6501    140.3076     26.8198   5.9044014362e+01   4.6874608784e+01    0.2019207    0.1755921  62.97 0.0005402094    1.177    0.150
       176 -10.6075     77.3518     26.4221   7.5771944393e+01   6.0660121419e+01    0.3777131    0.2020081 -17.94  0.001618775    2.028    0.507
       177 -11.1391     78.3383     21.7056   7.3339331647e+01   6.1130450420e+01    0.4723318    0.3669015 -75.43   0.00240931    2.529    0.605
       178 -11.3470     17.9641    248.9524   1.3090255588e+02   2.2183814362e+01    0.2036539    0.1607085  12.54  0.001523574    2.808    0.644
       179  -9.6330    146.9330     26.4757   5.7597429188e+01   4.5254549323e+01    0.2109748    0.1369285  58.45 0.0003797546    1.467    0.318
       180 -10.5509    114.4934     24.8384   6.4156142396e+01   5.3278075383e+01    0.3753462    0.2326891  38.94  0.001808087    1.541    0.351
       181  -9.3783     18.3177     26.3165   9.9952791394e+01   6.8353389375e+01    0.1249193   0.06809779 -27.89 0.0007039187    1.653    0.395
       182  -9.5500    153.4972     25.5168   5.6025034278e+01   4.3698135231e+01    0.1434386    0.1382362  52.01 0.0001647686    1.035    0.034
       183  -9.8900    120.6203     24.6499   6.2581329338e+01   5.1889100001e+01    0.3085096    0.1394991  43.70 -5.119154e-05    2.103    0.524
       184 -10.5946      1.9742    239.3289   1.3285010164e+02   2.5342618063e+01    0.1777205    0.1061752  86.81  0.001418682    1.295    0.228
       185 -10.4624      1.9477     21.9136   1.0614411997e+02   7.0260337233e+01     0.224004     0.127051 -54.04 0.0006923732    1.447    0.309
       186  -9.9304    229.6629    248.0015   9.5449062546e+01  -7.6149910395e+00    0.1517862      0.11975  11.15 0.0006028971    1.136    0.120
       187  -9.5460     84.7352     21.3870   7.1112504667e+01   5.9973099612e+01    0.1885547    0.1123489  35.48 0.0007021364    1.622    0.384
       188  -9.7111    101.0218     19.7735   6.5597518123e+01   5.6859224554e+01    0.1923278    0.1449144 -43.34 0.0006830735    1.598    0.374
       189  -9.7877     57.5770    248.1797   1.2477695689e+02   1.7857996038e+01    0.2021473   0.05711402  43.03  0.001008874    2.696    0.629
       190  -9.8006     69.0590     24.0235   7.7612316934e+01   6.2434805625e+01    0.1832506    0.1535307 -48.24  0.000407222    1.604    0.377
       191  -9.5557     36.4942     18.4958   8.8228898252e+01   6.7892221138e+01    0.1237323   0.09472984 -18.39  0.000810653    1.003    0.003
       192 -10.0082    224.9940    246.7219   9.6036085670e+01  -6.7896264661e+00    0.1668255    0.1147146  26.69  0.001136629    1.099    0.090
       193  -9.3280     45.0659    244.9791   1.2655820508e+02   1.9879781284e+01    0.1255448    0.0874586  64.62 0.0003516781    1.040    0.038
       194 -10.0389    224.2955     17.6859   4.4034152534e+01   2.6471128085e+01    0.1436353   0.09041986 -59.92 0.0002036983    1.601    0.375
       195  -9.6810    199.5471     17.4864   4.6667186394e+01   3.2680455054e+01    0.1379897    0.1300554 -87.03 0.0001022375    1.009    0.009
       196 -10.4267    108.3279     16.4982   6.2291766183e+01   5.5631411278e+01    0.2184523    0.1696376 -11.51   0.00121149    1.263    0.208
       197  -9.3223     82.4650     17.5023   7.0086477122e+01   6.0895023117e+01    0.1366522    0.1119209   8.01 -2.387799e-05    1.052    0.049
       198  -9.6882     26.5645     16.7425   9.2000821929e+01   6.9248655625e+01      0.14931   0.09670675 -43.46 0.0003702416    1.489    0.329
       199  -9.9038     20.1768     16.8776   9.5135600327e+01   6.9832667877e+01    0.1856686    0.1517183  18.66 0.0008955098    1.489    0.328
       200 -10.9644     13.7611     16.1053   9.7965113344e+01   7.0500127530e+01    0.2922917    0.1692668  20.02  0.001119181    1.958    0.489
       201  -8.9603     86.3404    244.7191   1.1979243417e+02   1.4684462203e+01    0.1163754   0.06428307  63.12 0.0007009502    1.627    0.385
       202  -9.7272    202.4029    240.6920   9.8997049309e+01  -2.6346646894e+00     0.143389    0.1049433 -11.75 0.0007015382    1.564    0.361
       203  -9.8904     60.4463    240.9274   1.2381074057e+02   1.8705360175e+01    0.2307382    0.1112578  40.64   0.00139403    1.921    0.480
       204 -11.1165     14.4443     21.4654   9.9871363323e+01   6.9520982141e+01    0.2569728    0.1972333  30.08  0.001809681    1.744    0.427
       205 -10.1450    175.6075     15.2035   4.9067413082e+01   3.9102434800e+01    0.1875647    0.1362379  -1.35  0.000311882    1.628    0.386
       206 -10.0861     49.8603    241.0024   1.2554185082e+02   1.9982246021e+01    0.1794774   0.08777501  73.55  0.001084554    1.943    0.485
       207  -9.4969     35.6754    240.6931   1.2778514733e+02   2.1667602242e+01   0.08346957   0.07762393 -77.49 0.0007035397    1.647    0.393
       208 -10.1795    190.9610     13.6897   4.6601131955e+01   3.5283455738e+01    0.2049103    0.1705356  71.58  0.001064413    1.133    0.117
       209 -10.0710    162.2300     13.5412   5.0490432271e+01   4.2736114187e+01    0.2045544    0.1179416  53.62 0.0005281568    1.580    0.367
       210  -9.3154     95.2300     13.6144   6.4525495332e+01   5.8782750764e+01    0.1280505   0.09734432 -43.07 0.0006896629    1.628    0.386
       211 -11.0379     14.1701    238.8317   1.3101045581e+02   2.4250542676e+01    0.1576841   0.09038282  69.07 0.0004524103    1.241    0.194
       212 -11.7780     26.5772    235.8295   1.2894676210e+02   2.3487832305e+01    0.2783849    0.1858997 -88.35   0.00156468    1.304    0.233
       213  -9.1285    210.3615    236.3074   9.6950386729e+01  -3.3633818259e+00    0.1256148    0.0763707  17.14 0.0001398913    1.738    0.425
       214  -9.4651     42.6307    236.2696   1.2640815113e+02   2.1636363075e+01    0.1137477   0.05537172  63.03 0.0006996076    1.667    0.400
       215 -12.0992      4.2506    232.5893   1.3223719188e+02   2.6276426598e+01    0.2500694    0.1340914  63.43   0.00187022    1.335    0.251
       216 -12.6392      9.8242    228.4314   1.3119764225e+02   2.6471099038e+01    0.4316853    0.2395891  69.58  0.001212701    1.311    0.237
       217  -9.2539    209.5250    229.5086   9.6034687296e+01  -2.3981638174e+00    0.1217435   0.09726968  26.45 0.0001251795    1.035    0.034
       218 -10.8170    140.2871    228.4408   1.0848249933e+02   9.1833279883e+00    0.2780462    0.1871569 -57.24  0.001215358    1.803    0.445
       219 -10.0878     57.4990    229.4740   1.2346322780e+02   2.1048808816e+01    0.1117654    0.0822851  68.52  0.000286013    1.018    0.018
       220  -9.9667    249.2015    234.0762   9.0000180350e+01  -9.0117619241e+00    0.1736638    0.1187645  13.19  0.000428406    1.173    0.147
       221  -9.5872     34.3401    225.7029   1.2710545643e+02   2.4431179633e+01    0.1146662   0.05691743  65.53 0.0006274148    1.661    0.398
       222 -11.7234      8.6408    218.3329   1.3090253809e+02   2.8388976519e+01    0.2196616    0.1839761  22.16  0.001784642    2.005    0.501
       223  -9.4048    209.6473    211.3063   9.2992328815e+01  -4.0811051993e-02    0.1175378    0.0988375  64.60 0.0007042072    1.712    0.416
       224  -9.7882      3.5195    211.5239   1.3140290515e+02   3.0109720726e+01    0.1044179   0.07148935  76.47 0.0002031199    1.008    0.008
       225 -10.3783     20.1554    209.6881   1.2851744834e+02   2.8877111440e+01    0.1716191   0.09439636  60.36   0.00100005    1.454    0.312
       226 -11.2836      9.3796    203.5317   1.3000976987e+02   3.1080751604e+01    0.2134743   0.09952371  32.75  0.001164344    2.569    0.611
       227 -10.1018     23.1205    197.1946   1.2719668161e+02   3.0996208560e+01    0.1561108    0.1269954 -87.36 0.0005601763    1.229    0.186
       228 -11.1835     13.7926    192.6674   1.2859155340e+02   3.2790323557e+01    0.1998767    0.1306885  73.68 0.0005541291    1.179    0.152
       229  -9.3186     19.3351    192.6632   1.2758094601e+02   3.2267457294e+01    0.1207414   0.06048293  68.70 -0.0004522538    1.746    0.427
       230 -11.0275      6.4962    191.5604   1.2983718274e+02   3.3666563701e+01    0.1976385    0.1405308  80.24  0.001503599    1.010    0.009
       231 -10.5544     15.3689    186.0045   1.2786597922e+02   3.3981572401e+01    0.3771875   0.08901919 -77.78  0.001516348    3.808    0.737
       232  -9.5561     22.7500    179.6353   1.2599203620e+02   3.4594244815e+01    0.1456617   0.08730397  52.00  0.000487717    1.552    0.356
       233 -11.4725      5.5437    167.6288   1.2849754259e+02   3.8627179249e+01    0.2830999    0.1429468  84.60  0.001382158    1.661    0.398
       234  -9.5895    226.5201    163.9905   8.0677446788e+01   3.8394179091e+00    0.2026748    0.1289546 -29.65 0.0006427101    1.526    0.345
       235  -9.1929     41.2828    157.6655   1.2003700378e+02   3.7452593558e+01    0.1275557    0.0783215  76.19 0.0004466963    1.618    0.382
       236  -9.5622    247.4871    155.4858   7.5157136068e+01   1.2015304686e+00    0.1386022    0.1161192  -2.53 0.0002078774    1.025    0.024
       237 -11.0360      2.7133    153.7679   1.2807386348e+02   4.1793024945e+01     0.211605    0.1318502  50.95  0.001430499    1.628    0.386
       238 -10.8138     23.8735    150.8120   1.2321740344e+02   4.0703728498e+01    0.1770193    0.1401428 -65.96 0.0007655462    1.267    0.211
