#   1 NUMBER                 Running object number                                     
#   2 MAG_AUTO               Kron-like elliptical aperture magnitude                    [mag]
#   3 X_IMAGE                Object position along x                                    [pixel]
#   4 Y_IMAGE                Object position along y                                    [pixel]
#   5 X_WORLD                Barycenter position along world x axis                     [deg]
#   6 Y_WORLD                Barycenter position along world y axis                     [deg]
#   7 A_WORLD                Profile RMS along major axis (world units)                 [deg]
#   8 B_WORLD                Profile RMS along minor axis (world units)                 [deg]
#   9 THETA_WORLD            Position angle (CCW/world-x)                               [deg]
#  10 FWHM_WORLD             FWHM assuming a gaussian core                              [deg]
#  11 ELONGATION             A_IMAGE/B_IMAGE                                           
#  12 ELLIPTICITY            1 - B_IMAGE/A_IMAGE                                       
         1 -14.0449    167.0345     34.2306   2.9016238355e+02   6.3403110979e+00   0.04088956   0.03711746  88.61  0.002765946    1.197    0.165
         2 -13.1841    170.7494     26.5542   2.9007050491e+02   6.4042125497e+00   0.02556936   0.01873926 -44.68   0.00144775    1.394    0.282
         3 -13.3572    181.7694      3.1775   2.8979406117e+02   6.6004930885e+00   0.04141415   0.02128241  26.25  0.003758045    1.950    0.487
         4 -10.9735    116.5350    231.8799   2.9199439073e+02   4.4088748344e+00   0.01853161   0.01199872 -79.53  0.001794648    1.937    0.484
         5 -18.6495     74.8991    242.1127   2.9254493354e+02   4.5508450084e+00    0.4678995     0.295369  25.57   0.04724666    1.578    0.366
         6 -10.5821    106.7938    220.5946   2.9203764686e+02   4.5976872199e+00   0.01015699  0.009528674  41.90 0.0005571168    1.070    0.065
         7  -9.7037     33.1423    211.3543   2.9284113357e+02   5.1593819600e+00  0.009364075  0.005840941  36.94 0.0009260603    1.559    0.358
         8 -12.6959    165.4770    207.8596   2.9127213531e+02   4.3777212277e+00   0.02156445   0.01512114 -78.61  0.000638037    1.692    0.409
         9 -10.7854    130.4612    205.8953   2.9166899725e+02   4.6178076638e+00  0.009978353  0.008755202  52.66 0.0006122425    1.189    0.159
        10  -9.7304    120.2461    205.6082   2.9178660481e+02   4.6845501533e+00  0.006812553  0.005081861  73.66 0.0003687372    1.669    0.401
        11 -11.1603    211.1475    202.8503   2.9070737642e+02   4.1502794934e+00   0.01010192  0.008951974  63.52 0.0003934979    1.217    0.178
        12 -10.9746    139.6654    217.4523   2.9163380948e+02   4.4292030256e+00   0.01801251   0.01050832  83.32   0.00116328    3.030    0.670
        13 -12.2454     42.2614    198.1985   2.9265229220e+02   5.2525853654e+00   0.02478625   0.01416516  15.20  0.001341191    2.048    0.512
        14 -11.6395     46.5327    192.8864   2.9256912276e+02   5.2865578377e+00   0.01493669   0.01187589 -84.75 0.0009177756    1.449    0.310
        15 -10.3041      5.0291    199.2269   2.9309434370e+02   5.4712313743e+00  0.007770875  0.005448061  25.92 0.0008057646    1.411    0.291
        16 -10.5900    141.1838    197.7576   2.9149268716e+02   4.6436666725e+00   0.01009396  0.008704992  60.99  0.000870517    1.256    0.204
        17 -13.3139    180.4688    194.1783   2.9101120900e+02   4.4399004629e+00   0.03384868   0.02023194  85.87   0.00276908    2.764    0.638
        18 -11.5329    177.6978    197.3368   2.9106339149e+02   4.4212572940e+00  0.009293173  0.008579763 -79.26 0.0005389913    1.148    0.129
        19 -11.8866    176.2919    194.6600   2.9106302424e+02   4.4604322889e+00   0.01077568   0.00947721  65.64 0.0006327396    1.238    0.192
        20 -19.1638     59.9321    100.8507   2.9183583747e+02   6.2500912051e+00     0.856054   0.05743445 -61.30    0.0276562   15.857    0.937
        21 -10.4165    134.9872    195.4854   2.9155087811e+02   4.7080278763e+00   0.01426353  0.008764269  83.54  0.001227378    2.588    0.614
        22 -10.8069    159.4163    195.2478   2.9126387818e+02   4.5587851749e+00  0.009219543  0.006568795 -78.20   0.00070217    1.645    0.392
        23 -13.6627     95.3765    188.8181   2.9197227824e+02   5.0299335380e+00   0.04969973   0.03425363  43.41  0.005234218    1.473    0.321
        24 -11.1295     99.1243    180.7490   2.9187791187e+02   5.0984242282e+00    0.0137769   0.01116638 -20.57 0.0008191879    1.361    0.265
        25 -13.2333    100.3454    172.3782   2.9181118865e+02   5.1860270447e+00   0.03810786   0.01729305 -48.51  0.002540717    2.219    0.549
        26 -11.2502    203.4964    188.4565   2.9070635610e+02   4.3614854189e+00   0.01087181  0.008813713 -47.02 0.0005515881    1.245    0.197
        27 -12.8306    207.5980    185.3928   2.9063922871e+02   4.3707334686e+00   0.02019211   0.01653477 -34.37  0.001095815    1.280    0.219
        28 -12.6819    212.0656    181.6928   2.9056382895e+02   4.3849229242e+00      0.01851   0.01466509 -42.18  0.001046294    1.293    0.226
        29  99.0000      4.5533    223.8363   2.9325337861e+02   5.1941870080e+00   0.01865947  0.007501231 -40.69  0.001361974    3.169    0.684
        30  -9.7853    127.6026    188.2405   2.9159180847e+02   4.8363053714e+00  0.007065199   0.00473025  52.31 0.0005443847    1.671    0.401
        31 -11.5101    158.1398    185.9245   2.9122032753e+02   4.6727026378e+00   0.01585388  0.009906725 -77.62  0.001269742    2.004    0.501
        32 -12.2466    100.0485    213.9837   2.9207514251e+02   4.7147414543e+00   0.01684825   0.01163908  58.37  0.001126587    1.711    0.416
        33  -9.7872     38.6742    185.8169   2.9261689006e+02   5.4156438522e+00  0.006319434   0.00485485  -1.23 0.0001890337    1.483    0.326
        34 -10.9319    223.8777    184.1213   2.9044118498e+02   4.2836999754e+00  0.009087826  0.007676237 -22.39   0.00103773    1.270    0.212
        35 -10.4945    108.4507    182.5231   2.9177993965e+02   5.0203250270e+00    0.0117378  0.008366063  61.12 0.0006796948    1.674    0.403
        36 -12.1579    198.9529    178.6186   2.9069764890e+02   4.5015725374e+00   0.01743406   0.01474295  86.95 0.0008322193    1.345    0.256
        37 -12.2592    179.2079    175.4196   2.9090822018e+02   4.6609317953e+00   0.01559685   0.01094332 -50.11  0.001655682    1.428    0.300
        38 -11.6470    145.7495    169.4281   2.9126168056e+02   4.9373140585e+00   0.01861572   0.01461093 -88.34  0.001886671    1.504    0.335
        39 -11.1836    137.3008    170.9508   2.9137001718e+02   4.9725643332e+00  0.009537589  0.009058465 -56.11 0.0008983169    1.072    0.067
        40 -11.0600    113.0406    168.9608   2.9164126421e+02   5.1460166513e+00   0.01241303  0.009232845  38.70 0.0004520119    1.326    0.246
        41 -11.2060    225.5431    166.7775   2.9031277311e+02   4.4703150692e+00   0.00903701  0.006610419 -79.61 0.0006248173    1.602    0.376
        42 -12.0532     97.3946    209.1157   2.9207571641e+02   4.7865757855e+00   0.01679071   0.01062394  43.22 0.0006379765    1.608    0.378
        43 -10.8880     25.2835    165.6901   2.9264780579e+02   5.7274795702e+00   0.01854163  0.009234922  16.25  0.001311427    2.490    0.598
        44 -11.6856    105.4628    161.3972   2.9168249844e+02   5.2790988184e+00   0.01212145   0.01111525 -21.92 0.0003342474    1.120    0.107
        45 -10.4849    198.4444    161.2361   2.9059441006e+02   4.7022332592e+00  0.009068731  0.006589542 -79.97 0.0009380712    1.623    0.384
        46 -12.5468     36.8740    156.2717   2.9245319319e+02   5.7628529403e+00   0.03583068   0.02468423 -34.48  0.003706179    1.614    0.380
        47 -12.1599     27.3285    158.0368   2.9257600270e+02   5.8018742846e+00   0.03883225    0.0233595 -32.87  0.003638631    2.015    0.504
        48 -11.6415     23.4892    156.0227   2.9260835971e+02   5.8485436614e+00    0.0157555    0.0154603 -77.18 0.0005891967    1.055    0.052
        49  -9.9563    124.2015    159.3878   2.9145068571e+02   5.1854763810e+00  0.009692941  0.005762833  39.62 0.0009330909    1.658    0.397
        50 -13.4663    108.5173    153.5873   2.9159779085e+02   5.3489146190e+00   0.03632197    0.0287674  -8.57  0.004033157    1.430    0.301
        51 -12.4479    133.7626    144.7384   2.9124692267e+02   5.2925368581e+00   0.04750745   0.01421131 -67.68  0.002712128    5.306    0.812
        52 -10.9432     14.7662    150.9695   2.9267890801e+02   5.9599870833e+00   0.01439948  0.008404034  -7.00   0.00118425    2.744    0.636
        53 -10.6525    174.5218    148.9749   2.9079691830e+02   4.9906273677e+00   0.01096332  0.008854101  28.49 0.0006626998    1.212    0.175
        54 -11.9224    143.4854    145.1493   2.9113577757e+02   5.2273653924e+00   0.01605459   0.01031985 -83.14  0.001519971    2.057    0.514
        55 -11.4693    153.2490    145.1095   2.9102134546e+02   5.1670424336e+00   0.01391822  0.007858095  52.08  0.001251181    2.113    0.527
        56 -10.0861    177.6469    144.3062   2.9073105788e+02   5.0242026513e+00  0.007129096  0.004953641  59.25 0.0007041977    1.713    0.416
        57 -12.9684     29.6482    142.9881   2.9245467831e+02   5.9586696068e+00   0.02578378   0.01546445   1.93  0.002284784    2.338    0.572
        58 -12.7949    116.1448    139.2460   2.9141857137e+02   5.4645392340e+00    0.0229304   0.01379634 -48.31  0.002259054    1.675    0.403
        59 -12.9889    106.1680    139.6437   2.9153781890e+02   5.5220336761e+00   0.01666642    0.0133414  29.03 0.0006609252    1.222    0.181
        60 -11.0347     20.1908    141.2094   2.9255431743e+02   6.0374323403e+00  0.009194686  0.007690205  60.81 0.0003971141    1.311    0.237
        61 -12.7057      4.7193    140.3001   2.9272985865e+02   6.1434635096e+00    0.0224355   0.01632933  19.17  0.001764745    1.413    0.292
        62 -11.8033    139.8632    248.7905   2.9182763374e+02   4.0717041975e+00   0.02753827   0.01655577 -62.55  0.002705096    1.719    0.418
        63 -12.9120    106.0671    130.7650   2.9148328612e+02   5.6235912196e+00   0.02107136   0.01831335  63.25  0.001739281    1.251    0.201
        64 -12.1029    109.0292    126.1345   2.9141955073e+02   5.6578129847e+00   0.01446139   0.01349613 -62.78 0.0007318557    1.100    0.091
        65 -12.5843    119.8204    129.8235   2.9131641381e+02   5.5487862569e+00   0.01932071   0.01554682  62.02  0.001484932    1.397    0.284
        66 -12.2464      3.3446    130.4502   2.9268434835e+02   6.2639823987e+00   0.01742371   0.01124554  76.48   0.00159947    2.276    0.561
        67 -11.6125    160.1165    128.3774   2.9083592005e+02   5.3144100376e+00   0.01323227   0.01218549 -51.35  0.001606354    1.097    0.089
        68 -12.6261    135.4281    124.9247   2.9110301740e+02   5.5073615391e+00   0.03950766  0.008034984 -63.87  0.001947743    6.865    0.854
        69 -12.6951    124.9863    126.7380   2.9123658685e+02   5.5517237096e+00    0.0270422    0.0149992  60.20   0.00226609    2.632    0.620
        70 -11.7415    125.7547    121.5130   2.9119477951e+02   5.6063256860e+00   0.01628137  0.008464268  38.95 0.0007579231    1.878    0.468
        71 -11.3216     92.4704    208.5383   2.9212967874e+02   4.8237050344e+00   0.01366358   0.01073747 -19.90 0.0007433169    1.434    0.303
        72 -12.3609      2.2517    123.1919   2.9265173628e+02   6.3532781888e+00    0.0211023  0.007985475 -62.06  0.001632205    2.742    0.635
        73 -11.7037    114.0190    118.9950   2.9131631830e+02   5.7079361254e+00   0.01003013  0.009801196  18.48 0.0003372067    1.007    0.007
        74  99.0000     13.6208    248.5263   2.9330119720e+02   4.8572499718e+00   0.02042363    0.0151533  75.72  0.002144155    1.691    0.408
        75 -12.1210     27.3124    118.7625   2.9233034747e+02   6.2486098954e+00   0.01134561  0.009591596  22.04 0.0004373325    1.173    0.148
        76 -12.2804     98.1485    111.0218   2.9145205084e+02   5.8972104281e+00   0.01521372  0.009633928 -60.39 0.0008247182    1.603    0.376
        77 -11.4512     94.9071    204.5554   2.9207626815e+02   4.8538770811e+00   0.02217833   0.01544654 -18.41  0.002235464    1.785    0.440
        78 -12.0029     10.6751    110.9779   2.9247655364e+02   6.4400717140e+00   0.02249056    0.0103812  14.29  0.001573196    3.079    0.675
        79 -10.9200    205.6070    110.1027   2.9018918870e+02   5.2383552523e+00   0.01273374  0.009834717  16.20 0.0007031261    1.342    0.255
        80 -10.0695    155.0063    104.7450   2.9074712537e+02   5.6147362343e+00  0.008957918  0.008332908  23.63 0.0002088555    1.055    0.052
        81 -12.8993     21.4409    127.6896   2.9245504861e+02   6.1834449781e+00   0.02123277    0.0162081 -31.21  0.001813064    1.428    0.300
        82 -10.4350    100.3321     97.6666   2.9134259953e+02   6.0354125292e+00  0.007122933   0.00500578  62.04 0.0007052216    1.729    0.422
        83 -10.3879     98.7670     80.6320   2.9125388423e+02   6.2386884597e+00   0.00944224  0.005859728  37.58 0.0004981505    1.571    0.363
        84 -10.2118    145.3159     78.3404   2.9069441372e+02   5.9750195196e+00    0.0071368  0.004972201 -25.94 0.0007048265    1.706    0.414
        85 -10.3132     13.5121     59.8718   2.9212288257e+02   7.0033584129e+00  0.009639186  0.006619471 -61.90 0.0004877705    1.493    0.330
        86 -14.0028    156.2699     50.4835   2.9039080264e+02   6.2230197435e+00   0.04292458   0.02754385  55.18  0.001843599    1.843    0.457
        87 -13.5431    162.9778     41.5068   2.9025572751e+02   6.2830597758e+00   0.03808992   0.02717746  59.43  0.002922566    1.647    0.393
        88 -10.7177    110.0249    222.9396   2.9201455050e+02   4.5509596388e+00   0.01002351  0.008891211  62.38 0.0004793461    1.211    0.174
        89 -11.4459     19.3159    239.5482   2.9317868293e+02   4.9241763449e+00  0.008471951  0.007299827  22.80 0.0006863247    1.147    0.128
        90 -10.5395    141.3131     32.8269   2.9045467169e+02   6.5166484654e+00   0.01192874  0.008355311  38.59 0.0005581446    1.404    0.288
        91 -10.5569    250.2340     31.7310   2.8917388765e+02   5.8486549051e+00   0.01098618  0.004548368 -49.74 0.0008870268    2.391    0.582
        92 -10.6853    189.5023     14.5445   2.8977531028e+02   6.4233081412e+00  0.006607782  0.006443609  17.68 0.0001870212    1.006    0.006
