#   1 NUMBER                 Running object number                                     
#   2 MAG_AUTO               Kron-like elliptical aperture magnitude                    [mag]
#   3 X_IMAGE                Object position along x                                    [pixel]
#   4 Y_IMAGE                Object position along y                                    [pixel]
#   5 X_WORLD                Barycenter position along world x axis                     [deg]
#   6 Y_WORLD                Barycenter position along world y axis                     [deg]
#   7 A_WORLD                Profile RMS along major axis (world units)                 [deg]
#   8 B_WORLD                Profile RMS along minor axis (world units)                 [deg]
#   9 THETA_WORLD            Position angle (CCW/world-x)                               [deg]
#  10 FWHM_WORLD             FWHM assuming a gaussian core                              [deg]
#  11 ELONGATION             A_IMAGE/B_IMAGE                                           
#  12 ELLIPTICITY            1 - B_IMAGE/A_IMAGE                                       
         1 -14.1576    166.5714     44.7674   7.3769330136e+01   3.8119153598e+01      1.16746     1.053892  -4.56  0.003933603    1.325    0.245
         2 -14.3671    184.2980     11.6004   6.2437403955e+01   3.7814076835e+01     2.046965      1.11286  67.36  0.007491009    1.563    0.360
         3 -10.3162    125.1001    244.7451   1.2722238898e+02   6.0876423129e+00    0.1305119   0.07690092 -62.57 0.0002693648    1.967    0.492
         4 -19.8897     65.8083    167.3075   1.2943099614e+02   3.2544817480e+01     19.90546     5.403687 -63.70   0.06515564    3.462    0.711
         5  -8.8590    148.4540    220.4655   1.1894389350e+02   6.6677596205e+00    0.1381358    0.1249941  50.60 3.435126e-05    1.011    0.011
         6 -10.7893     23.7167    215.2327   1.4392018692e+02   2.6628628295e+01    0.1442077    0.1098588 -79.73 0.0003459751    1.218    0.179
         7  -9.9434     25.3495    210.6612   1.4324287869e+02   2.7436901135e+01    0.1105585   0.09084817 -79.13 0.0001396144    1.249    0.200
         8 -10.5690    106.2334    206.2253   1.2586770860e+02   1.7116208860e+01    0.3183011    0.2693877 -71.26  0.001652393    1.186    0.157
         9 -11.2598    103.7987    202.2121   1.2581327346e+02   1.8421897872e+01    0.3599518     0.263711  40.90 0.0007195209    1.377    0.274
        10 -11.8651     11.5958    205.9273   1.4548598423e+02   2.9883797632e+01    0.2726358    0.2160587  54.61  0.001134394    1.354    0.262
        11 -10.0698    121.0721    197.5201   1.2119810278e+02   1.6458347315e+01    0.1922567    0.1774196 -85.78  0.001094728    1.067    0.062
        12  -9.9581    112.6305    196.2476   1.2290429945e+02   1.8246388718e+01    0.4215187    0.2881864  -3.06  0.001669247    3.191    0.687
        13 -11.4768    169.6440    194.9001   1.0991644243e+02   7.8307524845e+00    0.2974449    0.2512847 -63.19  0.001055162    1.318    0.241
        14  -9.5458    151.4689    196.0121   1.1411026065e+02   1.1107727688e+01    0.2608167    0.1899063  33.93 0.0006790725    1.408    0.290
        15 -10.8090    150.8595    182.5841   1.1171761380e+02   1.4132302165e+01    0.3179236    0.2484349 -89.10 0.0005766914    1.592    0.372
        16 -11.0453    155.0663    187.2353   1.1166503370e+02   1.2288809993e+01     0.319306    0.3001544 -51.85  0.000475328    1.098    0.089
        17 -10.9211    153.1122    191.9072   1.1298680577e+02   1.1666036583e+01    0.3713078     0.272035 -69.27  0.001021718    1.622    0.384
        18  -9.5234    149.6834    188.4107   1.1310015834e+02   1.3087649687e+01    0.3448629    0.2394152  46.41  0.001646446    1.392    0.282
        19 -10.1805    103.3477    195.2330   1.2485514005e+02   2.0080589548e+01    0.3559953    0.2631731  57.88  0.001866861    1.297    0.229
        20 -11.0613    159.2168    194.9484   1.1220160184e+02   9.8393889883e+00    0.2568493    0.2125551  41.19 0.0008814536    1.160    0.138
        21 -11.5674    175.6723    186.6651   1.0701090099e+02   8.3407641480e+00    0.3947161    0.2691025 -69.26  0.001738214    2.052    0.513
        22 -11.0703    164.5004    187.0424   1.0952686342e+02   1.0470014655e+01    0.2862592      0.20552  59.44 0.0009885806    1.563    0.360
        23  -9.2332    138.7476    242.9167   1.2426969322e+02   4.1282557745e+00    0.1594415    0.1111056 -69.54  0.000871067    1.757    0.431
        24 -10.2440    125.2868    238.9780   1.2643277600e+02   7.1359063858e+00    0.3081143    0.1114479 -52.47  0.001255969    3.092    0.677
        25 -10.3110    185.2198    169.9201   1.0150527721e+02   9.8887408982e+00    0.4936086    0.2879282 -65.00  0.001565926    2.695    0.629
        26 -10.9047    189.3378    178.6819   1.0247396379e+02   7.2589284533e+00    0.4890185    0.3147707  69.12  0.001917273    2.526    0.604
        27 -10.2463    188.5301    175.4917   1.0197995475e+02   8.0688247935e+00    0.3060517    0.2634625 -74.76 0.0009634568    1.385    0.278
        28 -10.8232    170.3064    178.5634   1.0655096899e+02   1.1107537229e+01    0.4881639      0.27714  65.50  0.001734925    2.986    0.665
        29 -12.8828    144.9596    175.2882   1.1164041319e+02   1.6931207008e+01      1.10794    0.6688771 -62.02  0.004660079    1.906    0.475
        30 -12.2840    138.1447    172.0312   1.1259144921e+02   1.9025983594e+01    0.5154167    0.3618295 -55.12  0.001652763    1.438    0.304
        31 -11.1041    204.4622    174.8592   9.8563646629e+01   5.0306430885e+00    0.4377454    0.3358415 -49.01   0.00168498    1.347    0.258
        32 -10.9086    196.3503    175.1611   1.0027925889e+02   6.5716626833e+00    0.3785816    0.3142999  52.86  0.001533535    1.295    0.228
        33 -11.6038    125.0955    172.0648   1.1571498310e+02   2.1552310462e+01    0.3970132    0.3106382  59.81 0.0008742836    1.307    0.235
        34  -8.9686     11.3898    174.2234   1.4288179934e+02   3.6974552762e+01    0.1064172   0.08318317 -45.37 0.0006874414    1.627    0.385
        35 -10.3333    161.1181    239.3282   1.1927153190e+02   9.3307100446e-01     0.381919    0.2112938  34.50  0.001176123    1.709    0.415
        36 -11.1749    230.3001    166.9252   9.1925871723e+01   1.6002072170e+00    0.4472534    0.1811971 -50.94  0.001566877    3.139    0.681
        37 -10.9646     13.5728    239.7163   1.4741359766e+02   2.2682557793e+01    0.1309915   0.08453722 -85.90 0.0003984868    1.263    0.208
        38 -10.3201    107.8251    250.6273   1.3129798941e+02   7.8108096614e+00    0.1060986   0.08954039 -46.21 0.0006631831    1.561    0.359
        39 -11.3746    192.0205    163.8788   9.8766567225e+01   9.7408969326e+00    0.5721202    0.3488857 -60.83  0.001036104    2.151    0.535
        40 -11.4315    189.3068    155.2947   9.7441963637e+01   1.2090990435e+01    0.4950342    0.4804313   9.34  0.001658184    1.056    0.053
        41  -9.1965      4.2476    163.2215   1.4340521576e+02   4.0081423660e+01    0.1024159   0.07468322 -58.66 0.0006243328    1.375    0.273
        42 -11.2345      4.7280    178.1298   1.4463524927e+02   3.6657625409e+01    0.2536114    0.2061076  79.69 0.0009554705    1.147    0.129
        43  -9.8376     28.2409    236.9044   1.4472232603e+02   2.1614174712e+01    0.1278077   0.09616032 -85.52 0.0002541258    1.213    0.176
        44  -9.1380     15.4488    156.4439   1.4015448928e+02   4.0736804405e+01    0.1241283   0.09693082 -75.04 0.0003212001    1.051    0.049
        45 -10.5034    165.8282    154.1289   1.0232166769e+02   1.7355373851e+01      0.41045    0.2816243  78.21  0.001522072    2.210    0.548
        46 -10.5201     21.7463    235.3834   1.4574637541e+02   2.2656387799e+01    0.1292603   0.09325025  89.30 0.0003212349    1.135    0.119
        47  -9.5948    174.8686    149.0970   9.9154132871e+01   1.6509265842e+01    0.2398754    0.2100149 -83.73 0.0005326854    1.283    0.221
        48  -9.1638    141.3681    229.3209   1.2179178923e+02   6.2119969875e+00    0.1682404    0.1278956 -69.95 0.0005341347    1.529    0.346
        49 -12.3739      6.3403    138.1361   1.4026095402e+02   4.5698437606e+01    0.4688325    0.4008323 -77.00  0.001801242    1.116    0.104
        50 -10.7030     13.8077    137.3784   1.3827795668e+02   4.5322001772e+01    0.2079814    0.1544091 -33.19 0.0006675725    1.648    0.393
        51 -11.7897      2.3953    126.1917   1.3981522524e+02   4.8699781043e+01    0.3899842    0.2013187 -60.14  0.002232336    1.479    0.324
        52  -9.2627    134.7687    242.8311   1.2505137203e+02   4.8179283126e+00    0.3122098    0.1489336 -46.68  0.001018156    2.538    0.606
        53 -10.7814    160.3354    127.4609   9.7303442791e+01   2.4453244264e+01    0.4427557    0.2825624 -56.67  0.001270571    1.703    0.413
        54 -12.4826      6.5483    120.5479   1.3795878649e+02   4.9718856501e+01    0.3815246    0.3431746 -10.99  0.002026778    1.415    0.293
        55  -9.1199    127.6695    224.0482   1.2386861756e+02   9.6471276804e+00    0.1729412    0.1212685 -44.09 0.0005441932    1.702    0.413
        56 -11.2404      2.8224    112.7025   1.3789161085e+02   5.1723844591e+01    0.2843743    0.1664943 -52.44  0.001554656    1.404    0.288
        57 -11.4540      7.5958    111.1951   1.3631085643e+02   5.1768568542e+01    0.3154276     0.171968 -47.17  0.001426226    1.615    0.381
        58  -9.6698    167.7231    112.7121   9.1914380432e+01   2.5913758102e+01    0.3279032    0.2278908 -83.15  0.001324604    2.120    0.528
        59 -10.1448    205.0475    110.3525   8.3784443082e+01   1.7758883059e+01    0.3642597    0.2231219  45.51  0.001202936    1.781    0.439
        60 -10.6411    218.2854    220.4077   1.0476478994e+02  -5.6397768086e+00    0.3579129    0.1493601 -48.82   0.00143186    3.154    0.683
        61 -10.5341      8.1364    102.2560   1.3473283680e+02   5.3729471986e+01     0.229381    0.2152365 -24.30  0.001721325    1.271    0.213
        62 -12.6269     22.5649    220.5231   1.4454031703e+02   2.5629701932e+01    0.2629095    0.1525932 -68.66  0.001303802    1.603    0.376
        63  -9.8195    146.0231     81.5292   8.8432633439e+01   3.7124865983e+01     0.225829    0.1460023  51.70 0.0004249191    1.523    0.343
        64 -13.5653    154.6674     59.3485   8.0159809164e+01   3.8854324028e+01     1.340726     1.022371  44.21  0.002734516    1.317    0.241
        65  -9.9256    160.3649    247.5059   1.2063161091e+02  -3.4110573824e-01    0.3287105    0.1922206  21.71   0.00149512    2.318    0.569
        66 -12.4565    170.8707     37.0019   7.0916932129e+01   3.8109198107e+01    0.4181423    0.3706977  62.71 0.0008828499    1.081    0.075
        67 -10.9000    100.3844     60.5489   9.3925303617e+01   5.0610683631e+01    0.5227955    0.2807981  55.91  0.002242247    2.333    0.571
        68 -10.0752     13.5239     59.9786   1.2399522482e+02   6.2175574131e+01    0.1697278    0.1584196  23.33 0.0004130314    1.403    0.287
