#   1 NUMBER                 Running object number                                     
#   2 MAG_AUTO               Kron-like elliptical aperture magnitude                    [mag]
#   3 X_IMAGE                Object position along x                                    [pixel]
#   4 Y_IMAGE                Object position along y                                    [pixel]
#   5 X_WORLD                Barycenter position along world x axis                     [deg]
#   6 Y_WORLD                Barycenter position along world y axis                     [deg]
#   7 A_WORLD                Profile RMS along major axis (world units)                 [deg]
#   8 B_WORLD                Profile RMS along minor axis (world units)                 [deg]
#   9 THETA_WORLD            Position angle (CCW/world-x)                               [deg]
#  10 FWHM_WORLD             FWHM assuming a gaussian core                              [deg]
#  11 ELONGATION             A_IMAGE/B_IMAGE                                           
#  12 ELLIPTICITY            1 - B_IMAGE/A_IMAGE                                       
         1 -13.4838     66.0079     49.0562   7.3282623022e+01   5.9434323565e+01     1.405555    0.6983202 -27.02  0.006036602    2.376    0.579
         2 -15.4913      6.7606     67.9354   1.0456438337e+02   6.2284365770e+01     2.194031    0.7391823 -55.20  0.007614795    2.127    0.530
         3 -13.2536      2.8216     10.5624   8.7530172384e+01   7.3337911162e+01    0.5974905    0.3602773 -46.23  0.003878896    1.744    0.426
         4 -13.0735      8.0725      2.6043   8.0258768424e+01   7.3999492706e+01    0.4065064    0.3252584  21.99  0.003076326    1.510    0.338
         5 -16.0658     14.0715     21.1678   8.5777253918e+01   7.0743838324e+01     2.082109     1.059874 -14.62   0.01094529    2.204    0.546
         6 -13.5455    187.9979     24.2808   3.7510233824e+01   3.5558879915e+01     1.287629    0.7524902 -60.81  0.006584326    1.728    0.421
         7 -13.1855    187.2480     11.7309   3.4515634201e+01   3.7107067510e+01    0.6795692    0.4146695 -33.22  0.003844999    1.772    0.436
         8 -14.3962    166.1571     28.7727   4.1486895530e+01   4.0180972336e+01     1.045641    0.8099681  76.84  0.003986823    1.172    0.147
         9 -14.7418    147.0396     29.5291   4.4697066895e+01   4.4678595301e+01     1.401075     0.885836  56.47  0.005462308    1.436    0.304
        10 -13.1533    138.1059     21.9851   4.3932207893e+01   4.7660533904e+01    0.8333283     0.314758  65.65  0.002560118    2.435    0.589
        11 -13.9390    122.1180     37.1725   5.2044314132e+01   4.9654091315e+01    0.9750071    0.4605502  39.40  0.002642523    2.410    0.585
        12 -13.2640    132.1922     33.0236   4.8533306169e+01   4.7807670180e+01    0.6405197    0.5130131 -32.81  0.002400731    1.362    0.266
        13 -13.2268    119.8183     26.5059   4.8948377583e+01   5.1475955264e+01     1.014676    0.6117897  16.89  0.004612188    2.470    0.595
        14 -12.9308     44.2869     32.2059   7.5487342442e+01   6.5491044170e+01    0.6198118    0.5246127  15.15  0.003773187    1.156    0.135
        15 -13.0196     55.3236     27.2150   6.8638743286e+01   6.4527186565e+01    0.5768832    0.3587874  39.98  0.003235272    1.559    0.358
        16 -12.1675     46.6882     20.6389   6.9313431080e+01   6.6771747455e+01    0.3898653    0.2657485  20.55  0.002345654    1.318    0.241
        17 -15.2734     99.0700     11.5597   4.8246536749e+01   5.7698802805e+01     1.416849    0.7506768  58.01  0.004853549    1.636    0.389
        18 -12.3648     70.1853     16.4450   5.8412791961e+01   6.3195421880e+01    0.3497654    0.3135549  88.91  0.001637732    1.617    0.382
        19 -11.4170     60.1710     16.6888   6.2066782565e+01   6.5013216338e+01    0.2871985    0.2161124 -47.53   0.00152589    1.891    0.471
        20 -13.3188    218.7076     15.8749   3.2566873989e+01   2.9667366909e+01    0.3456134     0.250332  61.07   0.00196176    1.549    0.355
        21 -13.2857    214.6979     10.2863   3.1697854279e+01   3.1143325136e+01    0.4287583    0.2938913 -62.03  0.001331779    1.244    0.196
        22 -11.5954     46.6259     13.0523   6.5769966353e+01   6.7712121874e+01    0.2413458    0.2340214  -1.06  0.001754106    1.453    0.312
        23 -13.9215     41.8309      4.4320   6.3553870400e+01   6.9413095588e+01    0.6509956    0.4556506  13.78  0.003657387    1.224    0.183
        24 -11.1361     75.5853     10.8563   5.4265793548e+01   6.2708684938e+01    0.2531891    0.1902251  82.47  0.001439424    2.022    0.505
        25 -11.7865    153.0547      8.7447   3.7704578321e+01   4.5411706943e+01    0.1977186      0.18725 -56.68 0.0008007706    1.187    0.157
        26 -11.9827    120.2377      3.5842   4.1091552772e+01   5.3577567795e+01    0.3193916    0.2054085  78.75  0.001486979    1.557    0.358
        27 -11.1922    117.4957      1.4820   4.0858786872e+01   5.4374870544e+01    0.2320023    0.1434344  74.39 0.0006960829    1.534    0.348
        28 -10.6630     67.4966      4.4286   5.3950318687e+01   6.4881821304e+01    0.1225709   0.09909136  31.93  0.000178023    1.011    0.011
        29 -11.5301     61.3948      1.6449   5.4663950310e+01   6.6280412879e+01    0.3034856    0.1373701  54.73  0.001458296    2.113    0.527
        30 -12.6995     85.2872     14.6056   5.2996570225e+01   6.0367340931e+01    0.3907377    0.3396121  -9.44  0.001750899    1.233    0.189
        31 -11.7445     81.6976      1.4175   4.8518032771e+01   6.2277174917e+01    0.4037698    0.0957448  58.14  0.001492596    3.396    0.706
        32 -12.4398    224.5190      4.4970   2.9746859752e+01   2.9677348418e+01    0.2646748    0.2095076  43.90  0.001369719    1.848    0.459
        33 -13.1579     84.0808    115.2849   8.7185997679e+01   4.2440157567e+01     1.178914    0.7621571  49.54  0.005067533    1.755    0.430
        34 -12.4385     51.6929    248.6749   1.1493145983e+02   1.5131022667e+01    0.3833892    0.3050489 -72.75  0.002621108    1.386    0.279
        35 -12.7669      2.8780    248.6459   1.2411011117e+02   2.0475791955e+01     0.479132    0.2643991  81.84  0.003099966    1.502    0.334
        36 -13.8504      9.4096    245.7719   1.2280235082e+02   2.0403669609e+01    0.7857407    0.3563863  62.29  0.003523905    1.807    0.446
        37 -13.8326    108.1463    122.7677   8.1704730735e+01   3.6299035717e+01     1.055103     1.000901  85.49  0.005562341    1.118    0.106
        38 -14.6822    106.4745    105.9376   7.7825083682e+01   4.0569801344e+01      2.31675     1.385878 -36.46  0.009600923    1.794    0.443
        39 -10.1234     58.7250    125.3326   9.7603589460e+01   4.3689929226e+01    0.1454058    0.1099547  79.87 0.0004816371    1.598    0.374
        40 -13.1312     28.8346    122.1051   1.0672019139e+02   4.7784497397e+01     0.619462    0.3462451 -59.16  0.003052935    1.491    0.329
        41 -11.9859      4.0769    119.9374   1.1433810381e+02   5.0141631210e+01    0.4541525      0.19439  14.75  0.002037993    2.929    0.659
        42 -11.8995     34.5619     86.9197   9.7668047924e+01   5.5857017146e+01    0.2561691    0.2240721 -28.82 0.0009221815    1.088    0.081
        43 -12.9865     49.4419     96.5821   9.4418821688e+01   5.1960506255e+01    0.7967992    0.6617599 -54.29  0.003500886    1.116    0.104
        44 -12.1057     42.7163     91.0255   9.5551976267e+01   5.4048697686e+01    0.4414817    0.3006217 -71.90 0.0007834181    1.688    0.407
        45 -15.0411     26.0380     93.2217   1.0235271760e+02   5.5148251202e+01     1.609321     1.178453   7.60  0.009226225    1.564    0.361
        46 -14.3396     10.7725    103.5263   1.0980797723e+02   5.3772412682e+01    0.9068261    0.7223929 -47.40  0.005056321    1.142    0.124
        47 -13.7847      2.2610     97.0871   1.1180519958e+02   5.5806415770e+01     1.085922    0.2929888 -71.34  0.004001182    3.199    0.687
        48 -12.2067    121.0798    112.4552   7.5373354879e+01   3.6130264302e+01     0.382351    0.2550197  58.93  0.001227716    1.799    0.444
        49 -11.6818     63.0880    111.3749   9.3146439520e+01   4.6608106352e+01    0.3581947    0.2125911  50.84  0.001552453    2.090    0.522
        50 -10.5740     46.3175    110.3354   9.8652201804e+01   4.8977829805e+01    0.1515535    0.0964049 -34.04 0.0007048403    1.697    0.411
        51 -14.4937     18.1415    110.6165   1.0840897776e+02   5.1530716332e+01     1.077616    0.7382541 -16.34  0.005263499    1.763    0.433
        52 -11.8477    136.5891    103.2986   6.8761997881e+01   3.4818254883e+01     0.491752    0.2900646  51.31  0.001489808    1.772    0.436
        53 -12.0460    128.8080    102.3371   7.0525809636e+01   3.6728542841e+01    0.5996283      0.27735  57.56   0.00196657    3.009    0.668
        54 -12.7014    119.9095    102.3812   7.2965227696e+01   3.8623483563e+01    0.5127146    0.3084283  38.34  0.001708527    1.745    0.427
        55 -12.2617     61.0878     97.5371   9.0459521714e+01   5.0226953776e+01    0.4486545    0.3267751 -84.04  0.001413741    1.900    0.474
        56 -11.2013    163.8058     98.2291   6.1005300687e+01   2.9704561160e+01    0.2274653    0.2034292 -67.21 0.0006918848    1.139    0.122
        57 -12.3657    136.0976     95.2017   6.6638553031e+01   3.6616700208e+01    0.3914978     0.280479  51.11  0.001381859    1.421    0.296
        58 -13.5111     95.4974    110.6198   8.2413290653e+01   4.1566135090e+01    0.9907594    0.7956914  59.13  0.004758663    1.432    0.302
        59 -12.3895    187.9973     84.4519   5.2736928721e+01   2.6731519423e+01    0.5068856    0.2312559  44.05  0.001924896    2.679    0.627
        60 -13.6895    163.7906     71.6559   5.3794867056e+01   3.4581913175e+01     1.364639    0.8413638  57.39  0.006278214    1.608    0.378
        61 -13.0578    161.6796     80.0499   5.6534784599e+01   3.3617056092e+01    0.7804543    0.5066416  22.90  0.003007768    2.520    0.603
        62 -14.2123    169.3967     77.1880   5.4226979330e+01   3.2308929127e+01      1.26929    0.5071614  53.11  0.004115999    2.478    0.596
        63 -12.3543     31.3864     63.2316   9.2565836602e+01   6.1390806782e+01    0.5699387    0.3119649 -60.52  0.002782811    2.005    0.501
        64 -12.5911     40.0328     68.3436   9.0427997740e+01   5.9404494273e+01    0.8588603    0.2497124  31.05  0.003179079    3.500    0.714
        65 -13.6170     28.5849    246.2928   1.1925442925e+02   1.8295359437e+01    0.4820116    0.3053855  58.89   0.00311891    1.254    0.203
        66 -12.2375     47.2747     81.7633   9.1387558944e+01   5.5645065755e+01    0.7095502    0.2708315 -49.25  0.002849703    2.250    0.556
        67 -11.8875     42.1877     78.1010   9.2375123001e+01   5.7054160147e+01    0.6411037    0.3562327 -57.34  0.002936445    1.748    0.428
        68 -13.2165     91.5518     58.0710   6.7645850183e+01   5.3208633702e+01    0.5257556    0.4777091 -13.69  0.002270577    1.080    0.074
        69 -13.5507     87.2206     65.4424   7.1595254834e+01   5.2742180562e+01     1.047282    0.6271728  12.67  0.004123043    2.730    0.634
        70 -13.1091     51.8927     69.4348   8.5923085344e+01   5.7717780069e+01    0.7615819    0.6041924 -50.59  0.004342863    1.291    0.226
        71 -12.9782     54.3077     82.0551   8.8762926093e+01   5.4690917143e+01     0.603007    0.3827811 -45.66  0.002201721    1.421    0.296
        72 -14.1410     60.9853     75.7516   8.4353524411e+01   5.5128256652e+01      1.30235    0.6018639 -53.03  0.005385539    2.224    0.550
        73 -12.7869     70.8315     75.5059   8.0621418098e+01   5.3663985283e+01    0.5969035    0.4410123  -8.51  0.002431845    1.555    0.357
        74 -12.1845     77.1190     73.3931   7.7695441530e+01   5.3043395113e+01    0.5765721    0.3161083 -27.65   0.00236707    2.266    0.559
        75 -12.7449    135.6113     80.0440   6.2382785979e+01   3.9700704122e+01    0.6833213    0.3872435  51.89  0.002133519    1.761    0.432
        76 -12.7931    213.2527     78.8831   4.7408878727e+01   2.2089498793e+01    0.6102289    0.3522869  85.21  0.002627692    2.522    0.604
        77 -11.8631    114.2258     80.1605   6.8064658891e+01   4.4447689400e+01    0.3983582    0.3172716 -65.26   0.00123837    1.507    0.337
        78 -12.1654    107.9150    243.8515   1.0287354557e+02   8.4307463638e+00    0.1920359     0.168745  15.98 0.0005539111    1.274    0.215
        79 -13.6760     96.3657    238.8344   1.0475977327e+02   1.1092264305e+01    0.5995501    0.3302608  46.33   0.00280268    1.588    0.370
        80 -13.2814      6.4381     43.3826   9.8154398337e+01   6.7395348838e+01     1.083002    0.4267028  10.48  0.005158287    2.890    0.654
        81 -12.0033     17.6393     40.6636   9.1600083540e+01   6.7084462738e+01    0.2017702    0.1649232 -27.37 0.0002236625    1.072    0.068
        82 -12.3241     24.5037    217.4198   1.1817180968e+02   2.4812399579e+01     0.465343    0.3281206  75.93  0.002938849    1.186    0.157
        83 -12.6630     14.0922    222.0208   1.2061675173e+02   2.4859599647e+01    0.3944772    0.2857046  85.23  0.001757412    1.142    0.124
        84 -13.5509     16.4474     30.9797   8.8583339167e+01   6.8912975087e+01    0.5099736    0.2841386  23.82  0.001128011    1.840    0.456
        85 -11.7098     27.0011     74.9338   9.7702683948e+01   5.9283445125e+01    0.6332319    0.3009387 -66.94  0.002758522    2.436    0.590
        86 -13.0955    133.3194     66.6175   5.8891060884e+01   4.2631627606e+01    0.8453727    0.6818196   9.26  0.003431833    1.536    0.349
        87 -13.2922    199.4845     69.8942   4.7260874079e+01   2.6578523238e+01    0.6481329    0.3548755  54.20  0.002431673    1.921    0.479
        88 -10.8598     99.8732     65.2997   6.7519199552e+01   5.0256269619e+01    0.2283196    0.1873052  64.72 0.0009407277    1.446    0.309
        89 -11.5243    199.8750     62.7325   4.5454239081e+01   2.7616496171e+01     0.286249    0.1519418 -59.08   0.00124446    2.106    0.525
        90 -13.0565     78.4862     60.6617   7.2932694487e+01   5.5236450670e+01    0.6175309    0.5793525 -27.37  0.003697278    1.131    0.116
        91 -12.9500     82.0851     54.5652   6.9523989778e+01   5.5640918965e+01     0.602411    0.4572002  21.97  0.003207763    1.329    0.247
        92 -13.6096    177.6521     57.2814   4.7429246148e+01   3.3595694465e+01    0.9051222     0.547103 -51.19  0.003117382    1.662    0.398
        93 -14.5882    119.9237     54.6639   5.8385359143e+01   4.7668788766e+01    0.8368201    0.6514469  35.21  0.003692606    1.306    0.234
        94 -10.8598     38.8196     60.2912   8.8422031495e+01   6.1197007061e+01    0.2383149    0.1808948 -75.71  0.001286293    1.992    0.498
        95 -12.2521     24.6046     59.5558   9.4456834061e+01   6.2788849178e+01    0.4709985    0.2358603 -45.09  0.001501166    1.648    0.393
        96 -14.0297    101.4981     50.4579   6.1942938903e+01   5.2393824005e+01    0.8165659    0.6315901  63.32  0.001600964    1.473    0.321
        97 -10.0607     47.3030     56.5996   8.3561099469e+01   6.0878075090e+01    0.1248129    0.1070218  89.57 0.0001612033    1.834    0.455
        98 -12.2483     99.6942     44.1132   6.0205417966e+01   5.3729180833e+01    0.4207129     0.288687  59.44  0.001051677    1.579    0.367
        99 -11.7566     37.2107     52.8426   8.6628634662e+01   6.2838763463e+01    0.3329514    0.1843944 -21.43   0.00159008    2.085    0.520
       100 -12.2144    135.8263     50.1454   5.3205008101e+01   4.4649734990e+01    0.4811681    0.2812531  34.14  0.001760139    2.161    0.537
       101 -10.4867     23.4878     50.4177   9.2095872441e+01   6.4719721375e+01    0.1274835    0.1004327 -24.92 0.0001380605    1.050    0.048
       102 -11.9551    154.2395     46.6199   4.8478575761e+01   4.0748366017e+01      0.40826    0.1890827  53.75  0.001725545    2.017    0.504
       103 -12.9830    159.0155     43.6819   4.6788076916e+01   4.0004238841e+01    0.5279326    0.3498322  58.94  0.001999607    1.413    0.292
       104 -13.9207    212.5754     41.4189   3.8814121088e+01   2.7849180582e+01     1.954002    0.6035272  74.78  0.006329898    4.678    0.786
       105 -13.7511     25.9774    227.0840   1.1853496547e+02   2.2551673665e+01    0.7571689    0.3327595 -59.79  0.003802533    2.456    0.593
       106 -13.5016     20.3551    224.8281   1.1952689044e+02   2.3625121494e+01    0.4774344    0.4375357 -69.34  0.002803101    1.381    0.276
       107 -10.6417     50.5226     44.0025   7.7565177591e+01   6.2702889123e+01    0.1770639    0.1179357 -36.07 0.0001242923    1.428    0.300
       108 -13.6767     65.7305    223.0530   1.0974129894e+02   1.8666328778e+01    0.8625924    0.6355979  42.76  0.005107779    1.256    0.204
       109 -12.5418    109.9742     42.3576   5.6771030752e+01   5.1730671354e+01    0.5986049     0.198534  52.49  0.001853278    2.728    0.633
       110 -13.9835     64.2278    214.9195   1.0923680853e+02   2.0668653847e+01    0.7716624    0.4262211  42.31  0.003908928    1.633    0.388
       111 -12.1373     94.4149    218.3333   1.0273495015e+02   1.5640901753e+01    0.2778739    0.1544735  39.40  0.001286125    1.624    0.384
       112 -11.9014     72.5813    207.3870   1.0646118668e+02   2.1252396793e+01    0.3669474    0.2877304  88.77  0.002095478    1.252    0.201
       113 -12.6423    113.7738     38.1500   5.4346517587e+01   5.1444146843e+01    0.3592798    0.3257584   0.53  0.001150637    1.171    0.146
       114 -11.4326     41.3065    206.8207   1.1364374052e+02   2.5365930646e+01    0.2122493    0.1417548  79.54  0.001147989    1.400    0.286
       115 -12.3076     57.4408    202.8393   1.0951218206e+02   2.4331038058e+01    0.4419059    0.2413823  88.08  0.002009231    2.145    0.534
       116 -10.4974     55.4844     41.0175   7.4324752194e+01   6.2452138894e+01    0.1792015    0.1192948 -33.45 0.0004123788    1.450    0.310
       117 -12.2810    105.0601     35.4196   5.5594881384e+01   5.3751881454e+01    0.4870337    0.2962058  -2.38  0.001415818    2.431    0.589
       118 -12.5922     75.5295     37.0995   6.5177848072e+01   5.9599271877e+01    0.4184991     0.241068  46.84  0.001349455    1.705    0.414
       119 -11.6370     70.4732     36.4879   6.6722580398e+01   6.0619303193e+01    0.2617425    0.2247026 -17.93 0.0007891947    1.164    0.141
       120 -12.2567    241.7000     36.2618   3.4862234163e+01   2.2425468886e+01    0.4024808    0.1998638  73.07   0.00180365    2.056    0.514
       121 -12.0797    248.5836    197.3746   6.6856829932e+01  -4.6488938883e+00    0.4555087    0.2017375 -47.29  0.002030724    2.759    0.638
       122 -12.4155     16.0625    196.4195   1.1847814072e+02   3.0434178607e+01     0.466238    0.2657666 -72.73  0.002391892    1.540    0.351
       123 -11.7992     63.5428     25.1573   6.4549842808e+01   6.3396598441e+01    0.5108903    0.2881653  14.63  0.002403016    2.330    0.571
       124 -12.7678    216.2818     28.7450   3.5582551946e+01   2.8670933729e+01    0.2798384     0.154112 -43.40  0.001515573    1.642    0.391
       125 -10.9998     98.0878     26.9754   5.4331159020e+01   5.6314537995e+01     0.251433    0.2104218  75.90  0.001483843    1.411    0.291
       126 -11.2527     88.6115     26.2176   5.6687611159e+01   5.8417485899e+01    0.2362484    0.1203396 -32.81  0.001034732    2.104    0.525
       127 -11.0300     36.2524     23.7013   7.5458682473e+01   6.7853720553e+01    0.2558185    0.1587433 -35.85  0.001505948    1.598    0.374
       128 -13.2533     29.9607    169.3237   1.1266739461e+02   3.5667883952e+01    0.9011747    0.6023853 -30.45  0.003477589    2.097    0.523
       129 -11.6410    223.3742     20.9562   3.3256408199e+01   2.8090120400e+01    0.2340833    0.1625218  71.17  0.001464868    1.431    0.301
       130 -13.1956     22.3116    181.2267   1.1577019212e+02   3.3470492349e+01    0.8018535    0.4121978 -49.21  0.003643259    2.258    0.557
       131 -14.8868      8.1898    183.6728   1.1932587142e+02   3.4143111321e+01     1.269714    0.9771158 -89.35  0.008228634    1.053    0.051
       132 -14.3537     15.8439    175.5155   1.1684057686e+02   3.5455796364e+01      1.94452    0.6944212  53.19  0.007926767    2.997    0.666
       133 -11.3842     49.1200    182.3381   1.0922414576e+02   3.0314330814e+01    0.2491635    0.1713609 -61.39  0.001324533    1.401    0.286
       134 -12.4744    124.3319    167.0786   8.7099210338e+01   2.2502268784e+01     0.638132    0.4036172 -67.05  0.002680659    1.911    0.477
       135 -11.0855    200.5307    192.0307   7.4657596641e+01   3.4550367076e+00    0.2074759    0.1278712 -40.71 0.0007432245    1.565    0.361
       136 -13.2354     74.3462    154.4226   9.8332238099e+01   3.4049993177e+01    0.8778661     0.566335  53.29  0.004027317    1.694    0.410
       137 -11.2499    109.5085    153.5493   8.8289934283e+01   2.8495441014e+01    0.2912841    0.1512354 -66.29  0.001039066    2.468    0.595
       138 -11.3527    103.1366    150.4104   8.9401789810e+01   3.0411627112e+01    0.3403754    0.2270619 -32.34  0.001449585    1.837    0.456
       139 -11.9975    245.5056    149.4938   5.8014313047e+01   3.7092217856e+00    0.2539107    0.2095284 -32.37  0.001570537    1.006    0.006
       140 -11.8874     59.2791    148.6873   1.0171177007e+02   3.7609060743e+01    0.2613108    0.2159147  71.26  0.001402908    1.266    0.210
       141 -11.8497      7.4275    145.8754   1.1624611629e+02   4.3466800503e+01    0.4676393    0.2865072 -58.22  0.002599139    1.457    0.314
       142 -11.3427     14.7629    157.1269   1.1539092796e+02   4.0098842420e+01    0.2378782    0.1511535 -33.50  0.001240245    2.071    0.517
       143 -11.8539     44.9097    134.0664   1.0359494589e+02   4.3116947617e+01    0.4220811    0.1943254 -79.30  0.001540799    2.836    0.647
       144 -11.5936    133.5164    126.0050   7.5500529805e+01   3.0436456409e+01    0.3834532    0.1465454 -41.47  0.001221517    2.750    0.636
