#   1 NUMBER                 Running object number                                     
#   2 MAG_AUTO               Kron-like elliptical aperture magnitude                    [mag]
#   3 X_IMAGE                Object position along x                                    [pixel]
#   4 Y_IMAGE                Object position along y                                    [pixel]
#   5 X_WORLD                Barycenter position along world x axis                     [deg]
#   6 Y_WORLD                Barycenter position along world y axis                     [deg]
#   7 A_WORLD                Profile RMS along major axis (world units)                 [deg]
#   8 B_WORLD                Profile RMS along minor axis (world units)                 [deg]
#   9 THETA_WORLD            Position angle (CCW/world-x)                               [deg]
#  10 FWHM_WORLD             FWHM assuming a gaussian core                              [deg]
#  11 ELONGATION             A_IMAGE/B_IMAGE                                           
#  12 ELLIPTICITY            1 - B_IMAGE/A_IMAGE                                       
         1 -13.3349    170.3757     55.3956   6.1900419550e+01   3.5030004205e+01     1.899443     1.199859  24.70  0.005607002    2.056    0.514
         2 -13.5544    185.0755     40.6156   5.4563920228e+01   3.3272524623e+01     1.194396    0.9868482 -11.24  0.003561209    1.207    0.172
         3 -12.8313    189.9269     34.6449   5.1882822034e+01   3.2740835634e+01    0.6816835    0.5734934 -17.18  0.001498818    1.151    0.131
         4 -12.2976    191.5311     14.9982   4.5109596609e+01   3.4490025349e+01     1.404688    0.6250255  56.86  0.005485722    2.180    0.541
         5 -13.3052    210.2671     11.9650   4.2156552865e+01   2.9822983960e+01     1.153023    0.6558928  17.51  0.003683592    2.281    0.562
         6 -13.6687    205.3894      8.6018   4.1552050539e+01   3.1410280232e+01     1.795922    0.8941655  -0.69   0.00675314    2.505    0.601
         7 -12.0473    238.7292      2.7022   3.7116949799e+01   2.3539373058e+01     1.142624    0.3784077  79.32  0.004134164    3.536    0.717
         8 -11.9014     58.3876    214.9104   1.1474168713e+02   2.6631551397e+01    0.2143051    0.1259558  57.15  0.001212451    1.243    0.195
         9 -13.4081    246.4950    239.5929   8.7263815247e+01  -1.2222750185e+00     1.239895    0.5611466 -15.78  0.008436849    2.640    0.621
        10 -17.5109     43.1893    241.8405   1.1855616377e+02   2.4407748501e+01     6.314056     3.435163  31.64   0.04648216    2.095    0.523
        11  -9.9591      6.4876    206.5093   1.2327844390e+02   3.3138555990e+01    0.1373881    0.1071448  62.43 0.0005669881    1.235    0.191
        12  -9.0561     65.4431    187.1724   1.1155284272e+02   3.0263136802e+01    0.1303257    0.1019609  51.27  0.000519674    1.168    0.144
        13 -13.0256     75.2659    248.9928   1.1394450845e+02   1.9986501631e+01    0.2296926    0.1436569 -64.13  0.001919875    2.192    0.544
        14 -11.7237     61.4145    204.6842   1.1356911795e+02   2.7866925041e+01    0.2304547    0.1824041 -53.54  0.001621851    1.877    0.467
        15 -11.0920    145.4886    181.5160   9.5559454239e+01   1.9674505280e+01    0.2418929    0.2076046   5.55 0.0008723375    1.427    0.299
        16 -11.9894    142.1397    175.9911   9.5412057570e+01   2.1035312430e+01    0.4269817    0.3209203  82.10  0.001770211    1.781    0.439
        17 -19.1958     25.4892     98.9175   1.1269057425e+02   5.2457559122e+01     16.81595     1.473712 -73.33   0.03639305   10.523    0.905
        18 -10.8461    188.9698    176.8465   8.7045674258e+01   1.3087040205e+01    0.5301141    0.3264317 -55.32  0.002141196    2.752    0.637
        19  -9.5651     87.5651    202.8410   1.0869812692e+02   2.4932657987e+01    0.1840723    0.1315302  31.78   0.00103991    1.586    0.369
        20 -10.6703     15.3934    201.3079   1.2158497068e+02   3.3186416448e+01    0.1077016   0.06465843  50.16 0.0008362758    1.250    0.200
        21  -8.7164     64.4938    170.4999   1.1033703502e+02   3.3322242811e+01    0.1122752    0.0910488  65.23 -3.46757e-05    1.054    0.052
        22  -9.3519    240.3325    169.3024   7.7480540395e+01   5.4265106876e+00    0.1231358   0.07101692  18.43  0.000320893    1.655    0.396
        23 -10.9582    192.7720    194.8480   8.9182005383e+01   1.0359164459e+01    0.7147835    0.4193287 -62.80  0.003002387    5.780    0.827
        24 -10.8927     71.7956    244.1952   1.1421721607e+02   2.0994778191e+01    0.1708644     0.111078  84.19  0.001439918    1.658    0.397
        25  -9.8233      1.6780    162.9997   1.2283228531e+02   4.1062296509e+01    0.1392219    0.1041182  83.94 0.0006131129    1.188    0.158
        26  -9.0295    184.2964    212.6437   9.3018775170e+01   9.7139306528e+00    0.0988463   0.07714356  61.40  0.000703379    1.697    0.411
        27 -11.0969     93.8814    157.3136   1.0266598858e+02   3.1780756260e+01    0.2235031    0.1944344  62.70 0.0002507263    1.058    0.054
        28  -9.2063    149.4460    156.1858   9.0919453832e+01   2.2857223700e+01    0.2281298    0.1557389  74.74 0.0009584849    2.173    0.540
        29 -11.0091    133.8887    146.0361   9.2368437005e+01   2.7303563609e+01     1.060907    0.2814334 -55.42   0.00298764    6.695    0.851
        30 -11.5739     65.4738    194.8890   1.1213830953e+02   2.8967705541e+01    0.2580393    0.1980173 -48.71  0.001335378    1.970    0.492
        31 -12.0484     99.2822    150.8138   1.0061225970e+02   3.2180429409e+01     0.480926    0.4153729 -19.65  0.003078581    1.674    0.403
        32  -9.9225    113.3456    151.2013   9.7598169167e+01   2.9880926785e+01    0.2457521     0.170057  75.41  0.001240402    1.702    0.412
        33  -9.7522    174.8629    149.1197   8.4748968475e+01   1.9309865859e+01    0.1909005    0.1696839  62.45 0.0006162909    1.287    0.223
        34  -9.9858    144.1685    146.9015   9.0379393699e+01   2.5314723639e+01    0.3207769    0.1750966 -57.99  0.001516745    2.400    0.583
        35  -9.8993     91.9134    146.7619   1.0169144569e+02   3.4070504333e+01    0.2479239    0.1477256  55.96  0.001353523    1.570    0.363
        36  -9.1414    114.1746    142.7690   9.6090078635e+01   3.1296347532e+01    0.2176005    0.1272083  75.39 0.0009429849    2.767    0.639
        37 -11.3694    109.5410    137.6923   9.6296047663e+01   3.3031545180e+01    0.4827107    0.3057657 -39.41  0.002483882    2.070    0.517
        38  -8.9182    127.9965    139.4598   9.2480803457e+01   2.9517081312e+01    0.2038375     0.118148  44.78  0.001023198    1.571    0.363
        39 -11.8526     98.1847    136.8229   9.8776335111e+01   3.5047355142e+01    0.2619876    0.2365762  49.37 0.0005100836    1.154    0.134
        40 -11.0072    105.9338    130.8237   9.5963762161e+01   3.4971171526e+01    0.3379372    0.2815005 -82.81  0.001137191    1.222    0.182
        41 -10.4804    136.0022    128.1237   8.8585411766e+01   3.0108299717e+01    0.4039172    0.1474937 -48.84  0.001547127    2.984    0.665
        42  -9.9372    161.3540    128.3234   8.3255466920e+01   2.5140699067e+01    0.3658916    0.2518325  79.14  0.001686232    2.377    0.579
        43 -11.5875     71.0567    207.4036   1.1202934580e+02   2.6298791441e+01    0.4136491    0.2360246  27.10   0.00253662    2.389    0.581
        44 -10.5844    104.1013    124.3796   9.5254327931e+01   3.6565326228e+01    0.2535482      0.22788 -14.72 0.0007329809    1.461    0.316
        45  -9.4678    120.5723    123.2143   9.1111693494e+01   3.3901438936e+01    0.1814017    0.1276163 -39.08  0.000869761    1.656    0.396
        46 -10.2250    116.1508    128.7492   9.3201222950e+01   3.3622599395e+01    0.2581481    0.2344108  12.83 0.0006650955    1.345    0.256
        47  -9.5712    152.7821    119.5791   8.3150181158e+01   2.8340477415e+01    0.2432543    0.1933997 -39.10 0.0006437364    1.334    0.250
        48  -9.4115    110.9950    118.0126   9.2364034772e+01   3.6654322127e+01    0.1961757    0.1841842  64.43 0.0003289282    1.049    0.046
        49  -9.9196    231.2888    113.8696   6.7594732814e+01   1.3049451009e+01    0.2379792    0.2016204  31.47  0.000747023    1.157    0.136
        50  -9.7517    167.4625    112.4425   7.8475445073e+01   2.6505642626e+01    0.2980803    0.2360285 -83.79  0.001517728    1.769    0.435
        51 -11.2897    119.3806    110.4931   8.8745986562e+01   3.6621737881e+01     0.531612    0.3337844  70.33  0.002358189    2.207    0.547
        52  -9.6938    205.3607    110.2260   7.0900759030e+01   1.8791484455e+01    0.2850044    0.1816817  42.60  0.000915122    1.498    0.333
        53 -10.2516    134.5457    105.2371   8.3921710815e+01   3.4665653294e+01    0.4245558    0.1377775 -46.27  0.001442581    3.187    0.686
        54  -9.7589    111.0456    104.4814   8.9484661398e+01   3.9398480538e+01    0.2133444    0.1340128  44.95 0.0006360894    1.580    0.367
        55 -10.3926     73.2062    103.2272   9.9408707942e+01   4.5941918414e+01    0.2231798    0.1771008 -70.80 0.0005869059    1.162    0.140
        56 -10.0650    187.8571     87.8626   6.8305992445e+01   2.5868693083e+01    0.3634988    0.2993944 -67.99  0.001813542    1.545    0.353
        57  -9.1368    152.6127     82.1442   7.3737323580e+01   3.4987057417e+01    0.2049963    0.1416774 -22.76   0.00049489    1.636    0.389
        58  -8.3578    184.3421     77.3164   6.6014085134e+01   2.8279685968e+01    0.1587587    0.1106416  20.57 0.0005913429    1.711    0.416
        59  -8.8312     73.5247     73.4906   9.2708816508e+01   5.2576608834e+01    0.1387075    0.1241908 -71.30  0.000180408    1.018    0.018
        60  -8.8711    167.6002    229.5009   9.7709949638e+01   1.0339662324e+01    0.1029268   0.07545786  39.48 8.280676e-05    1.041    0.040
        61  -9.8778     80.6894    194.8107   1.0928167926e+02   2.7088186391e+01    0.3890776    0.1694812  52.77  0.002216208    1.883    0.469
        62 -11.1328     62.6815    220.7064   1.1435200188e+02   2.5279217963e+01    0.3002131    0.1371445  67.36  0.001890047    2.172    0.540
        63 -13.1894     11.4687    206.5229   1.2243278571e+02   3.2699082154e+01    0.3064112    0.1844011  41.88  0.002111777    1.465    0.317
        64 -11.9066    150.2436    188.1311   9.5592509226e+01   1.7974575945e+01    0.3720986    0.3028359 -72.01  0.001948115    1.637    0.389
        65 -11.3199    151.5674    181.1254   9.4378431720e+01   1.8744346752e+01    0.3795379    0.2503363 -80.21  0.001924139    2.867    0.651
        66 -10.3101    156.6758    189.9254   9.4679535468e+01   1.6706597470e+01    0.2125185    0.1380191  45.35 0.0003470848    1.257    0.205
