#   1 NUMBER                 Running object number                                     
#   2 MAG_AUTO               Kron-like elliptical aperture magnitude                    [mag]
#   3 X_IMAGE                Object position along x                                    [pixel]
#   4 Y_IMAGE                Object position along y                                    [pixel]
#   5 X_WORLD                Barycenter position along world x axis                     [deg]
#   6 Y_WORLD                Barycenter position along world y axis                     [deg]
#   7 A_WORLD                Profile RMS along major axis (world units)                 [deg]
#   8 B_WORLD                Profile RMS along minor axis (world units)                 [deg]
#   9 THETA_WORLD            Position angle (CCW/world-x)                               [deg]
#  10 FWHM_WORLD             FWHM assuming a gaussian core                              [deg]
#  11 ELONGATION             A_IMAGE/B_IMAGE                                           
#  12 ELLIPTICITY            1 - B_IMAGE/A_IMAGE                                       
         1 -14.1341    135.8426    128.0607   1.1096978949e+02   2.9915494826e+01     2.853627    0.3670674 -49.44  0.005130529    9.909    0.899
         2 -14.4419    150.4190     57.7944   8.7525802163e+01   4.0392992248e+01     1.228429     1.063556  -5.32 0.0009345324    1.279    0.218
         3 -14.9322    161.6671     43.3101   8.0467832390e+01   3.9719392847e+01     1.440731     1.111004 -16.50  0.003774441    1.452    0.311
         4 -14.8802    176.7343     10.2334   6.7478887328e+01   3.9732261539e+01      1.90418     1.065872  67.08  0.007354885    1.603    0.376
         5 -10.4204    151.1010    242.0453   1.2704044772e+02   5.7920891397e+00    0.1682559    0.1351384  28.55 0.0006381619    1.324    0.245
         6 -20.1283     77.3532    176.7767   1.3361443185e+02   2.9520118733e+01     16.38833     6.457274 -67.06   0.07098897    2.559    0.609
         7 -13.5825    206.4668    178.2707   1.0648116969e+02   5.6381866825e+00    0.6458229    0.4399202  32.38  0.003406314    1.384    0.277
         8 -12.5423    203.6165    171.9893   1.0578178600e+02   7.2021871433e+00    0.6302165    0.4157011 -29.11  0.003042896    1.639    0.390
         9 -11.2629     21.7727    239.0698   1.4916729169e+02   2.4314051034e+01    0.1320208    0.0986487 -88.38  0.000715638    1.357    0.263
        10 -11.0603     30.6274    182.7408   1.4413042559e+02   3.4078611714e+01    0.2148925    0.1793592  39.62  0.001324949    1.504    0.335
        11 -11.4129     27.6255    179.8220   1.4451034481e+02   3.4999020371e+01    0.2632117    0.2169823 -38.04  0.001828378    1.913    0.477
        12 -12.2992    199.4377    179.2307   1.0801038899e+02   6.8434596642e+00    0.4403811    0.2886826 -63.96  0.001989737    2.594    0.614
        13 -13.4563    195.6805    169.5806   1.0683856034e+02   9.1821596686e+00    0.5096716    0.4633966 -46.58 0.0009140872    1.243    0.196
        14 -12.5330    193.8079    164.9510   1.0626693632e+02   1.0352693446e+01    0.4042633    0.3390922  45.97  0.001213726    1.158    0.137
        15 -10.8644    131.1950    236.2507   1.2995932870e+02   9.8923063864e+00    0.2104972    0.1546848 -61.13  0.001385889    1.674    0.403
        16 -12.2955    186.7983    172.6633   1.0921478590e+02   1.0436799031e+01    0.6786748     0.347416 -64.71  0.001830571    6.785    0.853
        17 -10.6824    133.5327    248.9125   1.3094493513e+02   7.6027015971e+00    0.1350299    0.1191414  73.59  0.000298629    1.247    0.198
        18 -11.3639     26.1767    173.0923   1.4427568756e+02   3.6563436914e+01    0.2683413       0.1825  85.84  0.001027092    1.164    0.141
        19 -12.1962    165.3097    171.8044   1.1346677693e+02   1.4907148585e+01     0.304181    0.2135585  67.07  0.001462084    1.758    0.431
        20 -12.1041    230.0996    166.9222   9.9863823091e+01   2.8696211456e+00     0.330801    0.1818588 -43.65  0.001548221    2.081    0.519
        21 -11.7427    134.0352    244.6149   1.3038810216e+02   8.1586468573e+00    0.1986139    0.1678311 -37.59  0.001098378    1.668    0.401
        22 -13.6043    163.6052    156.1424   1.1072234257e+02   1.8245605945e+01    0.4734913    0.4498129 -62.14  0.001551808    1.121    0.108
        23 -13.0998    159.9924    151.9972   1.1064817220e+02   1.9819849100e+01    0.4157596     0.315609 -41.72  0.002087816    1.403    0.287
        24 -10.5218     17.6644    158.7281   1.4492567528e+02   4.0452728295e+01    0.2752049    0.1801429  16.42  0.001463392    2.362    0.577
        25 -11.1130     17.7937    154.6906   1.4455920959e+02   4.1320075541e+01    0.3192829    0.1719512 -83.13  0.001323479    1.511    0.338
        26 -14.8219    134.2729    146.4694   1.1537521313e+02   2.6270197256e+01     1.853803    0.5871031 -56.96  0.005175682    4.634    0.784
        27 -10.7870     13.7830    232.6530   1.5014498607e+02   2.6255403153e+01   0.08644588   0.06436525 -77.82 0.0006827029    1.538    0.350
        28 -10.4583     22.9482    156.1090   1.4352960804e+02   4.0542883995e+01    0.1745141    0.1369959  87.79 0.0004282151    1.028    0.027
        29 -10.9496    192.7645    158.0982   1.0504560327e+02   1.1764395155e+01    0.2803931    0.1795274  21.83  0.001226856    2.016    0.504
        30 -14.8868    143.6197    143.7892   1.1261820457e+02   2.4930139568e+01     1.146961    0.6927668 -62.10  0.004709342    2.013    0.503
        31 -11.5220    139.0297    250.2477   1.3012566312e+02   6.5457179663e+00    0.2443806    0.1676168  40.57  0.001624397    1.221    0.181
        32 -12.8214    173.8547    148.5585   1.0689982725e+02   1.7537364361e+01    0.4181412    0.3835108  82.50  0.001682156    1.206    0.171
        33 -10.9407     16.9242    225.1669   1.4928411217e+02   2.7264303118e+01    0.1264451   0.08411962 -83.91 0.0007542154    1.383    0.277
        34 -11.4035     27.4355    145.6676   1.4148545953e+02   4.2438911260e+01    0.2406673     0.189956 -75.34 0.0008551177    1.147    0.128
        35 -11.9595    139.0478    242.7487   1.2928355873e+02   7.6371981726e+00    0.3374434    0.2091585 -51.22  0.001574329    2.074    0.518
        36 -11.7312    173.0710    139.5171   1.0504874301e+02   1.9455928154e+01    0.2301403    0.2099161 -43.74  0.001227915    1.136    0.119
        37 -12.8455     22.7532    220.3233   1.4805504862e+02   2.7540659121e+01    0.2513496    0.1599335 -71.84  0.001648253    1.656    0.396
        38 -11.3304    130.4382    212.7939   1.2721826763e+02   1.3908760299e+01    0.2667054    0.1858708  88.36  0.000984646    1.823    0.452
        39 -10.5832    126.8808    250.8671   1.3231379088e+02   8.3511788408e+00    0.1440317   0.06071237  42.33            0    1.846    0.458
        40 -13.1427    160.7438    128.0661   1.0509414791e+02   2.4483046776e+01    0.5023019    0.3873776 -60.27  0.001950424    1.440    0.305
        41 -10.5083     15.7993    209.6175   1.4867798999e+02   3.0250431484e+01    0.1025961   0.08996958 -45.07 0.0004686227    1.935    0.483
        42  -9.7861     19.3701    125.2369   1.4127022934e+02   4.7763005987e+01    0.1097385   0.08102043 -44.23 0.0002797909    1.608    0.378
        43 -11.8254    140.6445    120.6261   1.0802103763e+02   3.0486744767e+01    0.4028105    0.2525562  69.10  0.001067583    2.237    0.553
        44 -13.1116     11.4406    206.0791   1.4925555289e+02   3.1348366658e+01    0.3743706    0.2390905  36.97  0.002222983    1.815    0.449
        45 -10.2997     22.6800    205.1540   1.4719820584e+02   3.0408303594e+01    0.1704043    0.1206155 -50.22  0.001147102    2.200    0.545
        46 -11.7100    139.6355    200.5112   1.2366251692e+02   1.4489999721e+01    0.3624932    0.2507596  50.18 0.0007708405    1.249    0.199
        47 -10.8433    205.3212    110.2476   9.1412176007e+01   1.7520166483e+01    0.3203917    0.2077242  45.73  0.001040769    1.568    0.362
        48  -9.4744    135.4638    196.2500   1.2388011115e+02   1.6015642688e+01    0.2369214    0.1740964  70.55  0.001308538    1.474    0.322
        49 -10.4873    180.8012    106.7643   9.5331733818e+01   2.3995159342e+01    0.2170492    0.1838094 -78.95 0.0007133108    1.377    0.274
        50 -10.5602     28.8484    240.4383   1.4810526650e+02   2.3312721049e+01    0.1317916   0.07785297  50.55 0.0009493949    1.372    0.271
        51 -11.8834    146.1297    189.3875   1.2059871297e+02   1.5341652830e+01     0.256196    0.2085656  -4.43 0.0007086431    1.720    0.419
        52 -13.4717    210.2105    187.5130   1.0754967698e+02   3.5042551731e+00    0.8285315     0.380928 -53.99   0.00289075    4.568    0.781
        53 -11.7506    201.1461    163.6337   1.0455438389e+02   9.0833564809e+00    0.6172869    0.3789415 -42.40  0.002952492    1.748    0.428
        54 -10.5658    143.5267     80.8910   9.6420820638e+01   3.7973458599e+01     0.235372    0.1531739 -37.87 0.0006968355    1.546    0.353
        55 -13.0107    168.3428    242.1952   1.2397599048e+02   2.9550783748e+00    0.3414826      0.27311 -24.50  0.001370711    1.651    0.394
        56  99.0000     12.8349    242.7514   1.5072753228e+02   2.4617395774e+01    0.2509352   0.09528173 -62.79  0.001437759    3.374    0.704
        57 -13.1123    165.5511     34.8815   7.7014649841e+01   3.9852577527e+01    0.4389002    0.4182869  -7.45 0.0008528233    1.129    0.114
        58 -11.1447     13.5347     59.9613   1.3266333922e+02   6.2746939327e+01    0.1795189    0.1565913  59.20   0.00042965    1.452    0.311
        59 -10.2269    145.1160     34.1422   8.0669997481e+01   4.5248859204e+01    0.1999705    0.1707808 -86.93 0.0004190058    1.311    0.237
