#   1 NUMBER                 Running object number                                     
#   2 MAG_AUTO               Kron-like elliptical aperture magnitude                    [mag]
#   3 X_IMAGE                Object position along x                                    [pixel]
#   4 Y_IMAGE                Object position along y                                    [pixel]
#   5 X_WORLD                Barycenter position along world x axis                     [deg]
#   6 Y_WORLD                Barycenter position along world y axis                     [deg]
#   7 A_WORLD                Profile RMS along major axis (world units)                 [deg]
#   8 B_WORLD                Profile RMS along minor axis (world units)                 [deg]
#   9 THETA_WORLD            Position angle (CCW/world-x)                               [deg]
#  10 FWHM_WORLD             FWHM assuming a gaussian core                              [deg]
#  11 ELONGATION             A_IMAGE/B_IMAGE                                           
#  12 ELLIPTICITY            1 - B_IMAGE/A_IMAGE                                       
         1 -13.7294     67.4604    144.4715   1.2942156900e+02   3.8179505945e+01     3.227355     1.433685 -88.07  0.002432938    5.977    0.833
         2 -13.4533      1.9097     25.6179   1.2650084027e+02   7.0585587277e+01     2.285189    0.3301959 -59.29  0.007487544    5.544    0.820
         3 -13.0411      2.1279     13.8378   1.2207391888e+02   7.2684336812e+01     1.165587    0.5499784 -22.96  0.006687554    2.143    0.533
         4 -14.1042    190.4005     25.0085   6.7623488216e+01   3.4540284726e+01     2.029056     1.355687 -16.55  0.007231825    1.811    0.448
         5 -14.0503    198.1293     19.1899   6.5033910425e+01   3.3214837553e+01     1.417603    0.9901776  68.36   0.00524932    1.331    0.248
         6 -14.0010    203.4382     11.1454   6.2270784001e+01   3.2735080722e+01     1.663772    0.8728244  53.46  0.001376862    1.968    0.492
         7 -11.2255     13.3185     24.1189   1.2010838297e+02   7.0145367239e+01    0.1928812    0.1589056  14.14 0.0008771954    1.410    0.291
         8 -12.5170      1.9183      4.9719   1.1834742466e+02   7.4172885519e+01     0.824774    0.4494932   1.39  0.005300408    1.961    0.490
         9  -8.7190    181.5196    192.4798   1.1128537442e+02   7.8406236749e+00    0.1379606    0.1211343  28.93 3.350336e-06    1.031    0.030
        10 -10.8556    248.6052    249.6698   1.0864030056e+02  -1.0687206914e+01    0.2652716    0.1632603  28.29  0.001808186    1.256    0.204
        11 -10.7240    163.3844    249.9007   1.2347855203e+02   2.1393566688e+00    0.3075178    0.1497448  56.05  0.001480249    2.561    0.609
        12 -12.2626    139.0881    247.6258   1.2762978116e+02   6.3360211668e+00    0.4767022    0.3365298 -64.11  0.003108782    1.835    0.455
        13 -11.0056    144.8460    248.9492   1.2673162985e+02   5.2265723459e+00    0.2219153    0.1554713  34.46 0.0009515512    1.296    0.228
        14 -15.2230     34.6887    246.8525   1.4600534295e+02   2.1054321171e+01     6.849121     1.506723  35.97   0.02754102    4.794    0.791
        15 -13.8420     83.4405    237.6689   1.3685108497e+02   1.6416779801e+01     1.330656    0.5322107  64.73  0.002422937    3.414    0.707
        16 -12.7548     76.3352    230.0555   1.3749675516e+02   1.8773561337e+01    0.6808826    0.3024721  58.10  0.002554171    2.041    0.510
        17 -12.5133     68.3412    222.6580   1.3835832784e+02   2.1241375921e+01    0.3261792    0.2126542  66.38 0.0005862479    1.280    0.219
        18 -13.7613     47.6185    228.1094   1.4262642124e+02   2.2881108667e+01    0.7326492    0.4013091  89.16  0.001978105    1.726    0.421
        19 -15.8957     55.3795    213.2517   1.4004759126e+02   2.4752923096e+01     9.259599     4.400932  66.28   0.04828315    2.064    0.516
        20  -9.3563     65.9037    186.5492   1.3532597609e+02   2.8867739003e+01    0.2609531    0.1805198 -36.56  0.001382868    2.373    0.579
        21 -12.8548     90.1450    166.2203   1.2711154682e+02   2.9792755827e+01      2.54425    0.6094142  49.12  0.001855929    4.960    0.798
        22 -11.7443    199.3983    248.0393   1.1677727680e+02  -3.3070325730e+00    0.3906564     0.245786  46.13   0.00241977    1.513    0.339
        23 -10.5597    125.6078    174.1225   1.2007387781e+02   2.1948524957e+01    0.3265292    0.1848549  37.96  0.001475694    1.757    0.431
        24  -9.9886    228.6145    205.4737   1.0471426303e+02  -2.5104151959e+00    0.2153667    0.1999166 -46.39  0.000657797    1.507    0.336
        25 -10.0627    138.4887    171.4846   1.1667262088e+02   2.0070218659e+01    0.1445191    0.1323413  57.87  0.000810356    1.012    0.012
        26 -10.8240     38.4063    162.2507   1.3892125659e+02   3.7607374236e+01    0.2519403     0.173898  64.08  0.001049813    1.329    0.248
        27 -10.1253    102.0401    149.7039   1.2140977592e+02   3.1572973106e+01    0.2627695     0.250779 -39.34 0.0006977189    1.216    0.177
        28  -9.8014    104.4874    146.0129   1.2009705606e+02   3.1990603033e+01    0.3564233     0.207298 -36.57   0.00146768    2.393    0.582
        29 -12.2492     91.0160    149.0868   1.2410060864e+02   3.3568582104e+01    0.2741239    0.2547437 -42.79 0.0004615147    1.255    0.203
        30  -9.8388    133.6468    144.5443   1.1250552533e+02   2.6767418812e+01    0.6523728    0.1422874 -54.82   0.00126073    8.907    0.888
        31 -11.6611     45.3054    145.6422   1.3530981226e+02   4.0663473948e+01    0.4143873    0.2274659  70.68  0.002003327    2.105    0.525
        32 -14.3959     11.3446    206.8455   1.4790406949e+02   3.0911493124e+01     1.317022    0.8300307  71.24  0.002877955    1.180    0.153
        33  -9.8506    112.2985    135.5287   1.1596878032e+02   3.2970583000e+01    0.3070749    0.2338022  -8.16  0.001009975    2.016    0.504
        34 -11.3360     83.8641    174.5016   1.2979178646e+02   2.8921078829e+01    0.2415973    0.2170715 -88.51 0.0003109612    1.103    0.093
        35 -15.0867     11.2520    152.3241   1.4431508731e+02   4.2399233115e+01     2.643141     1.228904 -89.73 0.0009279747    1.919    0.479
        36 -10.7469     99.7706    132.6392   1.1867509690e+02   3.5917887479e+01    0.2820552    0.2404394 -17.56 0.0008958055    1.507    0.336
        37 -12.2370     44.0875    128.0516   1.3319210194e+02   4.4933106636e+01    0.4167966    0.2537014 -88.31  0.001672464    1.724    0.420
        38  -8.7944    117.6773    128.6449   1.1305266455e+02   3.3508051818e+01    0.1537519    0.1213221 -12.31 0.0007046327    1.761    0.432
        39  -9.4625    108.6401    122.9966   1.1417663330e+02   3.6536031630e+01    0.2004921    0.1775837 -57.37 0.0004600505    1.103    0.094
        40  -9.4638     81.7849    170.2954   1.2969351797e+02   3.0170727010e+01    0.2461653    0.1666039  76.44 0.0006822324    1.550    0.355
        41 -11.2285    168.1472    113.2177   9.6877330464e+01   2.5778257214e+01    0.4041275    0.3210335 -77.68 0.0009600751    1.568    0.362
        42  -9.5815    204.8114    110.8663   8.8806188280e+01   1.7600499737e+01    0.3989029    0.1753318  37.89  0.001340769    3.021    0.669
        43 -13.4148     71.6320    171.7409   1.3226665809e+02   3.1325440108e+01    0.4661784    0.2821204 -45.37  0.001660092    2.167    0.538
        44 -15.5568      4.8875    239.1556   1.5047411226e+02   2.5540483894e+01     8.195367    0.3017682 -71.62   0.02818911    7.817    0.872
        45  -9.4978    155.4752     76.5221   8.9426631449e+01   3.5912298813e+01    0.1544146    0.1515689  37.64 0.0002011972    1.031    0.030
        46 -11.2507    125.2270     52.6975   8.8991957812e+01   4.7378030701e+01    0.4788078    0.3195004  78.71  0.002019732    2.223    0.550
        47 -10.9655    143.1933    241.8209   1.2618755180e+02   6.5571934783e+00    0.1858741    0.1403234  56.33 0.0007934369    1.223    0.182
        48 -10.5622    173.8017    220.3916   1.1743747985e+02   4.7152211597e+00    0.1923108    0.1036112  33.90 0.0009544707    1.704    0.413
        49 -10.4906    192.8863    194.7691   1.0944413878e+02   5.3437291976e+00    0.7581535    0.3704242 -60.84  0.002214215    6.626    0.849
        50 -11.9011     70.7366    193.1298   1.3500398929e+02   2.6806086298e+01    0.3746825     0.254853 -44.04  0.001605027    2.115    0.527
        51 -11.1860    104.1446    236.9317   1.3294358061e+02   1.3503246889e+01    0.2216306    0.1438386  48.82 0.0007773837    1.215    0.177
        52 -11.8403     75.4580    186.1796   1.3318831047e+02   2.7615890440e+01    0.2907098    0.2411661 -54.79 0.0006643864    1.453    0.312
