#   1 NUMBER                 Running object number                                     
#   2 MAG_AUTO               Kron-like elliptical aperture magnitude                    [mag]
#   3 X_IMAGE                Object position along x                                    [pixel]
#   4 Y_IMAGE                Object position along y                                    [pixel]
#   5 X_WORLD                Barycenter position along world x axis                     [deg]
#   6 Y_WORLD                Barycenter position along world y axis                     [deg]
#   7 A_WORLD                Profile RMS along major axis (world units)                 [deg]
#   8 B_WORLD                Profile RMS along minor axis (world units)                 [deg]
#   9 THETA_WORLD            Position angle (CCW/world-x)                               [deg]
#  10 FWHM_WORLD             FWHM assuming a gaussian core                              [deg]
#  11 ELONGATION             A_IMAGE/B_IMAGE                                           
#  12 ELLIPTICITY            1 - B_IMAGE/A_IMAGE                                       
         1 -12.6253    210.4811     32.3101   4.2812841323e+01   2.9218945992e+01     1.002927    0.7090414 -52.05  0.004294395    1.333    0.250
         2 -12.1584    218.3027     25.8918   4.0360984318e+01   2.8176116483e+01    0.6019958    0.5199999  13.54  0.001288056    1.544    0.352
         3 -12.7830    230.8657     13.3630   3.6251577853e+01   2.6769723001e+01    0.7246371    0.6377765 -59.52  0.002634661    1.110    0.099
         4 -10.4432      2.2192      4.4906   9.3447682367e+01   7.3932250377e+01     0.506654   0.04625967 -47.46  0.001609885    6.224    0.839
         5  -9.8425    124.0561      4.5558   4.7100038709e+01   5.3246315670e+01    0.2314465    0.1768509 -45.76  0.000740477    1.537    0.349
         6 -11.5291    175.4976    234.4986   9.5308087153e+01   1.2336867228e+00    0.4750677    0.3992889 -79.62   0.00283614    1.828    0.453
         7 -11.4903    192.0757    249.6167   9.4371291305e+01  -3.4789299238e+00    0.7209945     0.261865  31.56  0.003077784    2.520    0.603
         8 -12.2790    227.8462    234.3660   8.5372953355e+01  -6.6280324170e+00    0.8021744    0.4546829  -2.79   0.00372992    2.116    0.527
         9 -12.3910    218.4556    249.5026   8.9500253686e+01  -7.2386672209e+00    0.9407299    0.2775016  36.19   0.00366462    2.852    0.649
        10 -12.3940    223.8320    241.9495   8.7339107446e+01  -7.0385308977e+00    0.7086976    0.4368628  15.50    0.0033016    1.462    0.316
        11 -11.1309     63.8132    245.8554   1.1839597572e+02   1.5737086871e+01    0.5106483    0.2588591  28.81  0.002703625    2.456    0.593
        12 -13.1248     92.5615    249.0516   1.1332492717e+02   1.1365701883e+01     2.887444    0.7270249  31.53  0.007454398    8.527    0.883
        13 -12.0794     40.6928    235.2549   1.2186353451e+02   2.0476182976e+01    0.9961888    0.3636564  75.91  0.002373586    4.357    0.770
        14 -14.0291     86.5624    227.4735   1.1236995263e+02   1.6161629012e+01     5.358564     0.483989  38.63  0.004411935    6.152    0.837
        15 -12.6294     31.2948    247.4617   1.2426773217e+02   1.9251399600e+01     1.014621    0.6671858  43.73  0.007276717    1.412    0.292
        16 -13.3334     21.2419    222.6602   1.2463424842e+02   2.5005956539e+01     1.730724    0.6760267  69.42  0.006916661    2.599    0.615
        17 -12.7519      3.8941    184.0594   1.2567642056e+02   3.4653225262e+01    0.9901612     0.485921  81.25  0.005550703    1.781    0.438
        18 -15.1267     34.6579    189.6649   1.1960296671e+02   3.0583553365e+01     9.132383     3.405042  82.56   0.03105778    4.649    0.785
        19 -12.0772    154.0143    229.4803   9.8858460799e+01   5.4649744404e+00    0.7107325    0.4689209  10.86  0.003421378    2.028    0.507
        20 -12.5758     30.5870    208.9147   1.2196300076e+02   2.6849126640e+01    0.6662297    0.4438097 -56.34  0.001270566    1.797    0.443
        21 -14.2093      5.6228    241.2151   1.2827429082e+02   2.2985192614e+01     1.782961     0.978092 -84.27  0.007469401    1.580    0.367
        22 -13.6634      9.6135    207.1096   1.2590788143e+02   2.9262269142e+01     1.035618     0.938109  25.50  0.006126761    1.576    0.366
        23 -10.9898    219.2344    226.9983   8.5708705003e+01  -4.3931358731e+00    0.3913499     0.290066   6.78  0.002141463    1.172    0.147
        24 -11.0641     68.3797    248.9908   1.1780471781e+02   1.4595830145e+01    0.4847753    0.3809018   6.54  0.003156013    2.150    0.535
        25 -11.1139     48.6473    224.7903   1.1962083864e+02   2.1593484480e+01    0.2523237    0.2029861 -58.05  0.000522282    1.562    0.360
        26  -9.9866     53.1449    240.3270   1.1993803629e+02   1.8065651325e+01    0.2103088     0.159562 -86.25 0.0005193342    1.284    0.221
        27 -13.0793    177.5190    213.6658   9.1580757725e+01   4.2757941603e+00     1.144989    0.6812692  40.51  0.003712744    1.544    0.352
        28 -11.4924    202.3578    197.3608   8.3636533486e+01   2.8140274601e+00    0.7540487    0.3970394  38.81    0.0032873    1.812    0.448
        29 -12.7508    194.1002    190.6420   8.4016315336e+01   5.3958176684e+00     1.170432    0.7529979  38.89  0.003900465    1.500    0.333
        30 -12.3540    193.5937    200.8723   8.6048343080e+01   3.7194778368e+00    0.9481937    0.5701129  39.44  0.003232934    1.581    0.368
        31 -11.7365    245.0287    198.3617   7.5851668374e+01  -4.1774709389e+00    0.7351662     0.503852  30.05  0.003249457    1.435    0.303
        32 -12.2610    248.7126    181.3821   7.1896351540e+01  -2.2359263204e+00     1.032158     0.404867 -34.47  0.003901109    2.291    0.563
        33 -12.5590    249.1625    162.9306   6.8046110628e+01   5.3887823284e-01      1.28036    0.4282571 -37.00  0.004867659    2.631    0.620
        34 -13.1361    223.7365    169.0665   7.3827186062e+01   3.8697386800e+00     2.555798     1.250431 -38.33   0.01140392    1.933    0.483
        35 -12.2089    228.3859    143.4881   6.7408499659e+01   7.4222762947e+00     1.235532    0.5048511 -45.06  0.004703799    2.564    0.610
        36 -12.1260    220.4758    136.2642   6.7182649855e+01   1.0221129872e+01     1.115589    0.8211052  19.52  0.004658058    1.570    0.363
        37 -10.9519     58.9874    180.9130   1.1323902709e+02   2.9794074690e+01    0.3873257    0.2602432 -37.65  0.002015666    2.085    0.520
        38 -10.9005     64.5622    175.1162   1.1120756349e+02   3.0437185849e+01    0.2858429    0.2380536 -36.44 0.0008309927    1.516    0.340
        39  -9.6266    204.0069    177.4119   7.9377839525e+01   5.9569854631e+00    0.3148364    0.2352437  37.36  0.001365592    1.342    0.255
        40 -10.1203    144.7448    174.0992   9.1625785256e+01   1.7703447078e+01    0.5220253    0.3025863  39.44  0.002313352    1.667    0.400
        41 -11.1969     31.8199    168.0550   1.1823504682e+02   3.5817552571e+01    0.4122373    0.3509701  61.92  0.001891803    1.185    0.156
        42  -9.6242    145.5854    166.4306   8.9917080530e+01   1.9192141531e+01     0.429665    0.2542739 -54.04  0.001860085    1.823    0.452
        43 -10.5240     74.6325    165.1203   1.0733883673e+02   3.1458505677e+01    0.2532896    0.2224406 -75.82 0.0003504779    1.062    0.058
        44 -11.5415     79.9461    157.9906   1.0486356373e+02   3.2421313236e+01      1.12935    0.6052907  51.74  0.001313555    2.038    0.509
        45 -11.9849     68.1732    144.2351   1.0574063855e+02   3.7423826449e+01    0.7729062    0.5167343  76.97  0.002889598    1.827    0.453
        46 -13.0379     79.3144    246.2730   1.1556018731e+02   1.3655137067e+01     1.496882    0.6300808  28.79  0.006624097    3.222    0.690
        47 -10.6076    189.1814    149.6005   7.6412880020e+01   1.4009210431e+01    0.4245036       0.3765 -13.36  0.001925385    1.093    0.085
        48 -10.7611    250.1012    143.8583   6.3829199211e+01   3.4349259150e+00    0.6428052    0.1790295 -36.59  0.002246684    3.094    0.677
        49  -8.4905    175.3485    149.6662   7.9424298735e+01   1.6818444622e+01    0.1538787    0.1239894 -89.02 0.0007048196    1.774    0.436
        50  -8.9467     96.6779    144.0182   9.7873377642e+01   3.3226717058e+01    0.2279456    0.1990894 -33.87 0.0006501222    1.246    0.197
        51 -11.3283     84.8041    142.4803   1.0083446337e+02   3.5483981903e+01    0.3013923    0.2468074 -51.13 0.0004330591    1.189    0.159
        52 -11.4760    188.2559    236.0547   9.3059284448e+01  -9.8848084061e-01    0.5377716    0.3157959  43.20  0.001873044    1.655    0.396
        53 -10.5042    243.4984    136.7631   6.3338210838e+01   5.7709408173e+00    0.3164898     0.273618   2.35  0.001566068    1.172    0.147
        54  -8.5754     35.6714    141.7170   1.1425098495e+02   4.1763981637e+01    0.1286072   0.08997317 -42.62 0.0002677336    1.606    0.377
        55 -10.9689     58.7600    134.5248   1.0673633707e+02   4.1026772939e+01    0.6341057    0.2002098 -69.17  0.001950916    3.909    0.744
        56  -9.6759    107.3162    131.8450   9.2363704616e+01   3.4334851326e+01    0.4352872    0.2874665  45.47  0.001783098    1.584    0.369
        57 -10.2330     22.1451    132.6515   1.1678936469e+02   4.5161028781e+01    0.2311332    0.1468993 -82.84 0.0006858586    1.393    0.282
        58 -12.7708    237.0126    102.9745   5.6622610223e+01   1.2680929514e+01     1.682414    0.8617267 -26.98  0.006955301    2.094    0.523
        59 -12.6657    247.4915    118.3668   5.8588911169e+01   8.0837788659e+00     1.443147    0.9036807 -46.13  0.006617708    1.537    0.350
        60  -9.5181     95.7500    128.1371   9.4799721477e+01   3.7238673607e+01    0.3042179    0.2342184 -22.15  0.001461373    1.590    0.371
        61 -10.1850    182.2995    128.2782   7.2818674005e+01   1.9696784715e+01    0.3551057    0.2236739  39.81  0.001540004    1.661    0.398
        62  -9.8897     62.1666    235.9357   1.1792008651e+02   1.7781510473e+01    0.2402526    0.1509457  78.08 0.0005905993    1.543    0.352
        63  -8.6080    105.9044    120.1671   9.0026985132e+01   3.7374762082e+01    0.1957863    0.1722869 -16.40 0.0002846811    1.247    0.198
        64 -12.5257     61.6311    161.4544   1.1011245462e+02   3.4063181279e+01    0.4972408    0.2807621 -45.03  0.001636586    2.066    0.516
        65  -9.4160    167.9630    112.9829   7.2076142660e+01   2.5979065207e+01    0.2545282    0.1968654 -76.34  0.001130143    1.739    0.425
        66  -9.1407    205.5706    110.3216   6.3671396135e+01   1.8053466509e+01    0.2418647    0.1771906  26.43 0.0005639517    1.640    0.390
        67 -10.7657    249.3682    107.3723   5.5824200011e+01   9.5258694068e+00     0.393278    0.2334912 -42.89  0.001807277    1.491    0.329
        68  -9.0211    134.4099    102.2558   7.7369146104e+01   3.5723296976e+01     0.225921    0.1473478 -51.89 0.0009503763    1.619    0.382
        69  -8.7329     24.8813     82.5337   1.0778576098e+02   5.6974993716e+01    0.1586304    0.1271832  11.19 0.0003855574    1.476    0.322
        70  -9.0815    161.3042     81.3466   6.4744670493e+01   3.3708764807e+01    0.1598804    0.1219334   9.48 0.0004106974    1.692    0.409
        71 -11.3532    243.7808     77.3357   4.9675391497e+01   1.5408035713e+01    0.5815423    0.3076004 -33.06  0.002729768    1.739    0.425
        72 -10.9893      2.0023     64.1535   1.1270931733e+02   6.2473128031e+01    0.5666038    0.1276599 -70.51  0.001777722    5.101    0.804
        73 -10.4134     13.3578     60.1516   1.0716803172e+02   6.2760680653e+01    0.2370449    0.1824255 -63.75 0.0006806636    1.252    0.201
        74  -8.6302     39.9390     58.2901   9.5518743640e+01   6.0983699810e+01    0.1731365    0.1513715 -19.60 0.0005754957    1.101    0.092
        75 -11.3077    195.0927     47.8361   4.8921993627e+01   3.0858421905e+01    0.4668821     0.278571 -41.85  0.002204088    1.612    0.380
        76 -12.4993    203.4604     38.0669   4.5155219483e+01   3.0155820977e+01    0.7008333    0.6450716 -63.93  0.002767348    1.038    0.037
        77 -12.0536    207.6903    237.7629   8.9634013859e+01  -4.1673871995e+00    0.4235006    0.2970988  41.26  0.001807608    1.515    0.340
        78 -10.3826     62.0167    250.5430   1.1907416442e+02   1.5121079383e+01     0.451442    0.1326456  42.03  0.001545262    2.533    0.605
        79  -9.9659    135.2864     42.1031   5.8119910028e+01   4.6395353323e+01    0.3131791    0.2470995 -64.82  0.001153044    1.568    0.362
        80 -10.4822      2.0000     36.4924   1.0589327735e+02   6.8257367191e+01    0.3928005   0.05258912 -60.68  0.001165128    6.023    0.834
        81 -13.9635    206.7380    245.3110   9.0994716875e+01  -5.0424211503e+00     1.029318    0.6363711  23.20  0.003636385    1.379    0.275
        82  -8.5851    189.4731     15.4498   4.0845557214e+01   3.6209333647e+01    0.1327954    0.1177519 -86.99 0.0001795065    1.016    0.016
        83 -12.0514    178.6617    239.0152   9.5365823164e+01   5.4368583578e-02    0.9435145    0.4766245  52.91  0.004226484    2.867    0.651
