#   1 NUMBER                 Running object number                                     
#   2 MAG_AUTO               Kron-like elliptical aperture magnitude                    [mag]
#   3 X_IMAGE                Object position along x                                    [pixel]
#   4 Y_IMAGE                Object position along y                                    [pixel]
#   5 X_WORLD                Barycenter position along world x axis                     [deg]
#   6 Y_WORLD                Barycenter position along world y axis                     [deg]
#   7 A_WORLD                Profile RMS along major axis (world units)                 [deg]
#   8 B_WORLD                Profile RMS along minor axis (world units)                 [deg]
#   9 THETA_WORLD            Position angle (CCW/world-x)                               [deg]
#  10 FWHM_WORLD             FWHM assuming a gaussian core                              [deg]
#  11 ELONGATION             A_IMAGE/B_IMAGE                                           
#  12 ELLIPTICITY            1 - B_IMAGE/A_IMAGE                                       
         1 -12.1854    192.0251     33.5231   5.6693661245e+01   3.3174720035e+01    0.9869217    0.9785743  25.80   0.00321339    1.032    0.031
         2 -12.5860    201.6749     21.8577   5.1727492531e+01   3.2067614858e+01     1.019589    0.7933411   2.32  0.002189682    1.519    0.342
         3 -10.8277     38.1864      2.7980   8.5317910600e+01   6.9195120577e+01    0.4076037    0.2178316  21.26  0.002341788    2.135    0.532
         4 -10.2734     50.0697      6.2736   8.2110432213e+01   6.7237588011e+01    0.2734796    0.1490123   2.33  0.001318923    2.661    0.624
         5  -8.5197     78.1032    237.1434   1.2140180799e+02   1.8565501857e+01    0.2004749    0.1047531  55.05  0.001240508    1.434    0.303
         6 -18.6193      6.7860    137.9369   1.2615621635e+02   4.4913414431e+01     16.23421     2.247121 -75.80    0.0490479    6.680    0.850
         7  -8.9091     71.8177    229.1873   1.2177721289e+02   2.0666631546e+01    0.1653116    0.1085317  69.07 0.0005183097    1.156    0.135
         8 -11.2314    156.1393    227.3898   1.0765534698e+02   8.2122915940e+00    0.5856476    0.1773191  47.09  0.002543778    2.612    0.617
         9 -11.7070     98.9007    227.8323   1.1729482137e+02   1.7152962244e+01    0.9468725     0.283967  53.38  0.003280392    2.904    0.656
        10  -7.6186     74.3112    226.3312   1.2115711856e+02   2.0807724751e+01   0.08664237   0.08474755  86.11 0.0004645945    1.673    0.402
        11  -8.7248     64.3902    224.2353   1.2258032480e+02   2.2439142774e+01    0.2885391   0.09629732  60.05  0.001388897    2.929    0.659
        12  -9.4855     72.1977    203.8533   1.1959399649e+02   2.4968752593e+01    0.2468585    0.1478525  48.85   0.00159141    1.492    0.330
        13  -9.5700    193.8595    193.4172   9.6005360334e+01   6.4193614414e+00     0.384727    0.3210476  -5.86  0.001777661    1.390    0.281
        14  -8.4878     81.5228    195.4559   1.1712003379e+02   2.5235345914e+01    0.2712522    0.1518512 -39.28  0.001184288    4.474    0.776
        15 -10.4893     74.7841    180.4281   1.1677201229e+02   2.9029358856e+01     0.299836    0.2660805  57.44 0.0007861728    1.314    0.239
        16 -10.9679     79.2750    174.5784   1.1523169700e+02   2.9566089259e+01    0.4047264    0.3672289  89.90  0.002889509    1.233    0.189
        17  -8.3316     99.5122    180.9069   1.1204920392e+02   2.5344457082e+01    0.1711831    0.1138548 -66.27 0.0005605343    1.510    0.338
        18  -8.9359    210.8486    179.7228   9.0477557340e+01   5.1791709940e+00    0.2515763    0.1563414 -16.63   0.00123055    2.103    0.525
        19  -8.6646    126.6619    173.3240   1.0558561010e+02   2.2316648031e+01     0.138458   0.09323023  75.84 0.0007051125    1.720    0.419
        20  -9.1669    114.7312    172.9724   1.0793626259e+02   2.4431871844e+01    0.1843617    0.1584949 -85.16  0.001166513    1.119    0.106
        21 -10.3120    100.2764    170.4219   1.1049520503e+02   2.7281001548e+01       0.5925    0.2146918  56.88  0.002188212    3.545    0.718
        22  -8.4190    196.1704    170.1780   9.1364388870e+01   9.5218034485e+00    0.2156846    0.1774026  22.42   0.00087372    1.232    0.188
        23 -12.5232     58.4062    130.3873   1.1388278895e+02   4.1583358428e+01     1.268311    0.4192758 -71.99  0.004594568    3.684    0.729
        24 -12.1138     75.1987    160.3837   1.1430136926e+02   3.3015454901e+01    0.6101314    0.3994183 -61.28  0.001095643    1.494    0.331
        25 -12.3552     68.2784    144.3424   1.1363408199e+02   3.7326352176e+01    0.8696985    0.5385706  83.20  0.003903122    1.747    0.428
        26 -11.2742     51.4693    143.9955   1.1728147039e+02   3.9450272663e+01    0.3065861    0.2466383  78.99  0.002112361    1.109    0.098
        27  -9.0698    134.1776    146.1518   9.9303006539e+01   2.6301055106e+01    0.6928012    0.1480941 -54.30  0.001676951    6.718    0.851
        28 -10.6443     93.2507    157.5266   1.1010804216e+02   3.0995320283e+01    0.5078773    0.3785928 -30.93  0.001728537    2.144    0.533
        29  -9.7495    105.5557    141.7243   1.0484767684e+02   3.2353436412e+01    0.4681527    0.2909823 -32.37  0.002083609    2.652    0.623
        30 -10.4015     93.4470    142.0607   1.0764331944e+02   3.4231184400e+01    0.2590193    0.2229517 -58.55 0.0005119785    1.225    0.183
        31  -9.2610    113.7904    131.5101   1.0104103081e+02   3.3115849837e+01    0.2559141    0.2177682 -23.63  0.001111362    1.531    0.347
        32  -8.7707    106.0175    130.7525   1.0271196400e+02   3.4627227039e+01    0.2801584    0.2207093 -83.00  0.001552114    1.297    0.229
        33  -7.9549    120.3227    130.6546   9.9349691423e+01   3.2118090806e+01     0.148347    0.1064242  85.95 0.0007050042    1.736    0.424
        34  -8.4070    141.0939    157.9156   1.0002382483e+02   2.2646278063e+01    0.2032389    0.1701476  79.53 0.0003279965    1.229    0.186
        35  -9.4091    101.1343    127.7852   1.0329448818e+02   3.6087199020e+01    0.2429732    0.1992584 -44.11 0.0004921429    1.345    0.257
        36  -9.6368    118.0059    126.2339   9.8977908346e+01   3.3484356077e+01    0.2597982    0.1806062 -38.89  0.001166395    1.644    0.392
        37 -10.1973     67.0025    126.2999   1.1121637135e+02   4.1417262860e+01    0.3126807    0.1679854 -64.00  0.001616761    1.620    0.383
        38  -7.9919    135.3039    122.9764   9.4219860672e+01   3.0854000712e+01    0.2365636    0.1129312 -66.03 0.0007034239    4.158    0.759
        39  -8.4074    109.0526    119.9940   9.9808024735e+01   3.6431800585e+01    0.2071123    0.1913285  84.70 0.0004713496    1.052    0.050
        40 -11.7237     45.3226    115.0424   1.1474583164e+02   4.6411779034e+01    0.4678737    0.2923269 -80.63   0.00272354    1.474    0.321
        41 -11.0642    117.3734    230.8005   1.1454108960e+02   1.3932939246e+01     0.544061    0.2282131  42.52  0.002876264    2.099    0.524
        42  -9.1365    120.4058    111.7944   9.5203042998e+01   3.6124300519e+01    0.2099819    0.1311093 -40.17 0.0009522422    1.703    0.413
        43 -11.1706     86.2322    164.4003   1.1254494213e+02   3.0627733397e+01    0.5841864    0.3295946  67.65 0.0007072882    1.952    0.488
        44  -8.1751    205.9554    109.9956   7.6006669405e+01   1.7524568182e+01    0.2366539     0.188523 -77.05 0.0006945771    1.659    0.397
        45  -8.5681    134.5081    103.0167   8.9607256868e+01   3.5167734885e+01    0.2325193    0.1432979 -46.15  0.001029933    1.583    0.368
        46 -10.8568    112.0202    228.8630   1.1523098519e+02   1.5046389107e+01    0.5842029     0.313173  33.65  0.003133426    2.551    0.608
        47  -8.8059    167.8848    112.7469   8.4429433991e+01   2.5906762799e+01    0.2971667    0.1965767 -66.57 0.0009178499    2.113    0.527
        48  -9.8349     92.7740    235.6790   1.1898209358e+02   1.6789677010e+01    0.2076971    0.1445499  81.32 0.0002912739    1.309    0.236
        49  -8.1762    249.3452     87.6694   6.3009656234e+01   1.0978119632e+01    0.1506771    0.1075864 -61.57 0.0007050264    1.756    0.431
        50  -7.8735    182.6613     77.6808   7.1763564478e+01   2.8836505770e+01    0.1642106    0.1206317  19.15 -1.560131e-05    1.710    0.415
        51  -7.5651     66.2831     70.6783   9.9733982051e+01   5.3667954701e+01    0.1249615   0.09753317 -82.10 0.0004077475    1.592    0.372
        52  -9.0331    169.7067    233.0378   1.0608653514e+02   5.1751300617e+00    0.1556975    0.1351131  50.25 0.0007153278    1.124    0.110
        53  -9.3304    162.1124     63.3991   7.1724812720e+01   3.6416736808e+01    0.3036458    0.2527956 -77.48 0.0005824114    1.447    0.309
        54  -7.8734    162.9264     55.9719   6.9194310395e+01   3.7445963599e+01    0.1828468    0.1714279  46.29 0.0003500551    1.063    0.060
        55 -11.7293    182.5104     41.4519   6.0760681833e+01   3.4606450914e+01     1.011866    0.6124451 -20.82  0.003659822    1.809    0.447
        56  -9.5510    133.9630    246.3464   1.1342885261e+02   9.1275850817e+00    0.1755852    0.1624059 -76.83 0.0009985293    1.408    0.290
        57 -10.5023    150.0216    237.2704   1.0985731999e+02   7.8390869150e+00    0.3179785     0.157401  44.04   0.00183107    1.604    0.376
        58  -9.9434     84.7336    234.1513   1.2012815116e+02   1.8143459856e+01    0.2562385    0.1871317  87.17  0.001292637    1.271    0.213
        59 -11.3508    127.0951    230.5036   1.1289874422e+02   1.2471294304e+01    0.7639257    0.4728403 -84.35   0.00463259    2.134    0.531
