#   1 NUMBER                 Running object number                                     
#   2 MAG_AUTO               Kron-like elliptical aperture magnitude                    [mag]
#   3 X_IMAGE                Object position along x                                    [pixel]
#   4 Y_IMAGE                Object position along y                                    [pixel]
#   5 X_WORLD                Barycenter position along world x axis                     [deg]
#   6 Y_WORLD                Barycenter position along world y axis                     [deg]
#   7 A_WORLD                Profile RMS along major axis (world units)                 [deg]
#   8 B_WORLD                Profile RMS along minor axis (world units)                 [deg]
#   9 THETA_WORLD            Position angle (CCW/world-x)                               [deg]
#  10 FWHM_WORLD             FWHM assuming a gaussian core                              [deg]
#  11 ELONGATION             A_IMAGE/B_IMAGE                                           
#  12 ELLIPTICITY            1 - B_IMAGE/A_IMAGE                                       
         1 -13.5989    210.6952     29.8155   5.9864755055e+00   2.8729497789e+01    0.8731369    0.7643231 -54.30  0.004098248    1.070    0.065
         2 -11.4408    227.0622      9.6597   3.5991740406e+02   2.7391849132e+01    0.2521285    0.2045628 -64.66 0.0007589006    1.022    0.022
         3 -12.6014     93.3569    234.5255   7.2942713060e+01   1.4217456878e+01    0.2359437    0.2146405 -71.64 0.0006747892    1.326    0.246
         4 -14.0721    247.4950    244.5412   4.4893682750e+01  -7.3752522251e+00     1.198168    0.6675644 -28.07  0.008304113    1.731    0.422
         5 -11.5644     82.1862    194.9868   7.1212247216e+01   2.3509745546e+01    0.3823206    0.2469416  45.32 0.0006413155    1.363    0.267
         6  -9.5719     69.0239    194.0097   7.4322865000e+01   2.5519972568e+01    0.1420462     0.125548  65.93  0.000379828    1.052    0.049
         7  -9.7871     47.2848    194.2373   7.9655143714e+01   2.8169774709e+01    0.1078378   0.09816585 -16.79 0.0006796814    1.452    0.311
         8  -9.9305     56.1682    193.0632   7.7380834465e+01   2.7368639321e+01    0.1662333    0.1510324 -70.44 0.0006106227    1.236    0.191
         9 -10.5569     10.6794    189.4870   8.8083040594e+01   3.2926391578e+01    0.1236028    0.1146628  17.22 0.0004679408    1.388    0.280
        10  -9.8909    210.9383    198.6563   4.3691688278e+01   2.8666387338e+00    0.1697024    0.1337758  16.73 0.0004158028    1.123    0.110
        11 -10.8160     90.2770    224.5656   7.2609047055e+01   1.6448403110e+01    0.2084467    0.1713276 -80.57 0.0007275181    1.406    0.289
        12 -12.0240     63.1526    178.0274   7.4018403820e+01   2.9888136593e+01    0.4398274    0.3105764 -26.57  0.001559765    2.085    0.520
        13 -11.5429     51.6401    186.0752   7.7830208439e+01   2.9482732165e+01    0.3299578    0.2776819 -41.76  0.001457214    1.488    0.328
        14 -10.1874     56.6468    182.4227   7.6188975030e+01   2.9704268134e+01    0.2257883    0.1429701  37.96   0.00118994    1.444    0.307
        15  -9.2886     70.7647    186.6939   7.3070600510e+01   2.6904253264e+01      0.12042     0.101241 -35.90 0.0001563949    1.486    0.327
        16 -18.5290     27.0345    126.8546   7.8410154430e+01   4.6578451767e+01     17.21538     3.369997 -74.40   0.04492571    5.720    0.825
        17  -9.6905     73.4381    181.2175   7.1732355183e+01   2.7773647404e+01    0.4409247    0.3203916 -44.34  0.001446948    1.648    0.393
        18 -10.3293    175.0151    179.5163   4.7207435405e+01   1.1561807430e+01    0.2166183    0.1938285 -43.07 0.0007834795    1.286    0.223
        19 -12.5839    172.7387    173.7803   4.6603447601e+01   1.2971328785e+01     0.695685    0.4549958   4.17  0.001718685    2.040    0.510
        20 -11.5465    180.6527    168.5901   4.3953962571e+01   1.2519283515e+01    0.6439287    0.3658897 -56.94  0.002733863    2.690    0.628
        21 -10.7286     57.8575    222.2123   7.9526953559e+01   2.1073932951e+01    0.1334886      0.08046 -72.04 0.0005940681    1.823    0.452
        22 -10.9748      2.6669    176.6237   8.9348881079e+01   3.6463774627e+01     0.148352    0.1348168  24.12 0.0006190313    1.360    0.265
        23 -11.7371      2.2038    164.1823   8.8826292311e+01   3.9370741188e+01    0.1863828    0.1742246 -79.16 0.0004218531    1.231    0.188
        24 -10.9742     94.4702    153.5337   6.1937594998e+01   3.1049166587e+01     0.309115    0.1395499  35.44 0.0008071077    2.138    0.532
        25 -12.1016    133.3019    145.4486   4.9984920594e+01   2.5898452336e+01    0.9484489    0.3312172 -53.60  0.002998175    3.424    0.708
        26 -15.8486    121.8313    234.7817   6.6953547625e+01   1.0253441963e+01     5.964135     4.030177 -69.74   0.03528728    2.060    0.515
        27 -11.9217    108.8567    145.2506   5.6393652965e+01   3.0512951897e+01    0.3445286    0.3121863 -54.41 0.0006665984    1.135    0.119
        28 -12.0204     92.5852    148.0510   6.1482394202e+01   3.2665557627e+01    0.3560491    0.3361192  42.26 0.0003912552    1.053    0.051
        29 -12.9125     97.6718    143.0536   5.9091521499e+01   3.3001652790e+01    0.6642298    0.4831452 -23.75  0.001724176    1.830    0.454
        30 -11.8681     89.3132    212.0767   7.1492766055e+01   1.8985231126e+01    0.2431805    0.2169084 -69.17 0.0006702256    1.280    0.219
        31 -11.3154     54.5217    229.1018   8.0768174885e+01   2.0136051522e+01    0.2090945    0.1104186 -69.78  0.001170363    2.100    0.524
        32 -11.5506    106.3948    138.8778   5.5779946098e+01   3.2446864883e+01    0.4096363    0.3001198  68.44 0.0009110422    1.676    0.403
        33 -12.2435    106.4646    130.9896   5.4074390321e+01   3.4290086801e+01    0.5483333    0.4673648  67.70  0.002226618    1.274    0.215
        34 -12.0414     97.4098    130.3204   5.6566346040e+01   3.6100278782e+01    0.3182568    0.2880194  33.00 0.0004865212    1.122    0.109
        35 -11.2996    133.6926    128.2814   4.6043439118e+01   2.9563890995e+01    0.5183504    0.3993222  84.14  0.001934599    1.786    0.440
        36 -10.5915    115.3811    125.1205   5.0213285038e+01   3.3950071777e+01    0.2552519    0.2132439  23.42 0.0005606027    1.294    0.227
        37 -10.8255    161.3459    118.6196   3.7071293257e+01   2.5758981102e+01    0.4419231    0.2746901 -64.07  0.001563383    2.388    0.581
        38  -9.9047    158.6967    120.3746   3.8095364657e+01   2.5976545542e+01    0.2102662    0.1558468  62.43 0.0009760094    1.590    0.371
        39 -10.5487    103.3124    120.0044   5.2489202279e+01   3.7475419406e+01    0.2675634    0.2236245  20.62 0.0006165207    1.323    0.244
        40 -11.3665     71.0975    230.4056   7.7323550557e+01   1.7867827051e+01    0.1011929   0.06707098 -60.80 0.0001845081    1.788    0.441
        41 -10.2825    110.8738    115.0070   4.9054408775e+01   3.7170996593e+01     0.229403    0.2255947 -51.43 0.0004686792    1.022    0.021
        42 -11.5859    115.9459    108.8772   4.6030606258e+01   3.7535260016e+01    0.4847176    0.2821677  47.71  0.001996695    1.747    0.427
        43 -12.1821    119.0815    104.3787   4.3949064950e+01   3.7878728727e+01    0.4853398    0.3758655 -70.71   0.00224513    1.555    0.357
        44 -12.0440    112.5121     99.5467   4.4511264663e+01   4.0335894995e+01    0.4605808    0.3372283  75.13  0.001438178    1.858    0.462
        45 -10.7176     77.5634    107.4469   5.7666926346e+01   4.5107655382e+01    0.2301764    0.2284342 -52.92 0.0004531032    1.027    0.026
        46 -10.9203     90.1716    220.1120   7.2168789511e+01   1.7304214060e+01    0.2283755    0.2067097 -43.39 0.0006534396    1.357    0.263
        47 -12.0981     80.3250    104.2759   5.5959309559e+01   4.5417104152e+01    0.8272334    0.3473028  51.98  0.002150156    3.361    0.702
        48  -9.4169    152.3265     90.6969   3.1739123900e+01   3.3220006293e+01    0.1558076    0.1207073 -79.61 0.0002688995    1.643    0.391
        49 -11.5542     49.5286    224.5498   8.1513139050e+01   2.1598238630e+01    0.1280704    0.1105947 -78.38  0.000472601    1.324    0.245
        50  -9.6755     93.1650     85.4133   4.6446309473e+01   4.7445502444e+01    0.2260304    0.1409448  54.02 0.0009435354    1.823    0.451
        51 -12.8920    170.9086     68.1345   2.1599166757e+01   3.2769633662e+01    0.4664037    0.4408725 -87.63  0.000811243    1.045    0.043
        52 -15.8677     68.2477    143.6606   6.7847365015e+01   3.7492247312e+01     2.408693     1.774195  59.83   0.01224642    1.401    0.286
        53 -13.5957    186.9388     54.8024   1.5309526042e+01   3.0964635186e+01     1.164403     0.909323  21.68  0.004248397    1.710    0.415
        54 -11.9633    192.9867     49.3665   1.3012128980e+01   3.0302201742e+01    0.3978075    0.3270542  47.47 0.0009088803    1.380    0.275
        55 -10.7129    160.7239    200.2634   5.3845267040e+01   1.0292891682e+01    0.3220948    0.1765292 -48.78  0.001575265    2.123    0.529
        56  -9.8074     60.7508     21.3889   3.3726476331e+01   6.5821587852e+01    0.1895736     0.114676  36.71 0.0008314808    1.573    0.364
