#   1 NUMBER                 Running object number                                     
#   2 MAG_AUTO               Kron-like elliptical aperture magnitude                    [mag]
#   3 X_IMAGE                Object position along x                                    [pixel]
#   4 Y_IMAGE                Object position along y                                    [pixel]
#   5 X_WORLD                Barycenter position along world x axis                     [deg]
#   6 Y_WORLD                Barycenter position along world y axis                     [deg]
#   7 A_WORLD                Profile RMS along major axis (world units)                 [deg]
#   8 B_WORLD                Profile RMS along minor axis (world units)                 [deg]
#   9 THETA_WORLD            Position angle (CCW/world-x)                               [deg]
#  10 FWHM_WORLD             FWHM assuming a gaussian core                              [deg]
#  11 ELONGATION             A_IMAGE/B_IMAGE                                           
#  12 ELLIPTICITY            1 - B_IMAGE/A_IMAGE                                       
         1 -11.7776    180.4856     24.6858   6.0016318857e+00   3.6854577057e+01    0.7730723    0.5876301 -66.42  0.004590482    1.094    0.086
         2  -8.4497     92.9891     13.0372   1.3824364872e+01   6.0793833116e+01    0.1668265    0.1536663  87.62 0.0003818201    1.049    0.047
         3 -13.4504    237.8506    245.8220   4.2930914790e+01  -4.0295695906e+00     1.703493    0.6989285  20.70     0.010718    2.228    0.551
         4 -13.5986    191.9614    244.3586   5.0133603066e+01   5.6432507406e-01     1.359492    0.7741033  23.06  0.009096917    1.443    0.307
         5 -12.0539    128.2006    230.3259   6.0788845851e+01   1.0077758566e+01     1.257588      0.47243  26.22  0.005502549    2.426    0.588
         6 -12.1546    129.9029    241.4769   6.1719355899e+01   8.0681534788e+00    0.7059127    0.6911174  23.50   0.00328237    1.312    0.238
         7 -12.6405    142.0423    242.4429   5.9328068881e+01   6.4599027311e+00    0.9448922    0.8165396 -73.20  0.006760629    1.756    0.431
         8 -12.3009    144.3021    237.1830   5.8238946618e+01   6.9823772053e+00    0.5919915    0.4996091 -56.72  0.004183956    1.621    0.383
         9 -18.6334     64.3867    221.1890   7.4684809945e+01   1.9837918890e+01      4.63712     3.656004  51.32   0.01528043    1.128    0.114
        10 -11.8903    173.8665    224.2924   5.0706328385e+01   5.3082973144e+00     0.542714    0.4064911 -30.18  0.003720126    1.379    0.275
        11  -9.8620    166.1568    226.4037   5.2480827391e+01   5.9361891269e+00      0.18933    0.1540087 -24.34 0.0003618729    1.280    0.219
        12  -9.6685      6.0449    221.8451   8.8989991394e+01   2.5758806177e+01    0.3414681    0.1528504 -83.67  0.001752044    2.365    0.577
        13  -9.0414    160.8662    222.2618   5.2951594239e+01   7.2179613495e+00    0.1741349    0.1554177 -35.23 0.0006741899    1.358    0.264
        14  -9.0388    144.3318    221.7528   5.6266846776e+01   9.4167239154e+00    0.1613764    0.1562818  66.60 0.0006024826    1.380    0.275
        15  -9.1560    165.3351    211.3514   5.0500341279e+01   8.3469446025e+00    0.1999985     0.143584 -43.06 0.0006424662    1.557    0.358
        16  -8.8128    144.2435    212.2333   5.4983451967e+01   1.1019630696e+01    0.1561844    0.1360891  42.86 0.0004064273    1.298    0.230
        17  -9.9102    196.1150    207.8766   4.4197222758e+01   4.9685799170e+00    0.1626852     0.147079  -5.41 0.0005348893    1.273    0.214
        18  -8.8092    128.8865    201.3236   5.6841018168e+01   1.5128581525e+01    0.1794919    0.1435374  23.37 0.0002873154    1.110    0.099
        19 -11.2326    121.0771    196.5668   5.7986584453e+01   1.7184290424e+01    0.3930855    0.2729619 -79.72  0.001417501    2.140    0.533
        20 -10.6820    192.1736    193.5288   4.2608738438e+01   7.5805360293e+00    0.4191919    0.2574486 -64.31  0.001789693    4.304    0.768
        21 -11.4182    201.3631    188.3377   4.0126859812e+01   7.1556195097e+00    0.4169399     0.181453  25.18  0.001940928    2.739    0.635
        22 -12.3169    147.2985    177.6374   4.8911533087e+01   1.6850938210e+01    0.9000193    0.8279557 -39.65  0.003109292    1.166    0.142
        23 -13.6109    132.6928    168.5501   5.0699831733e+01   2.1048554532e+01      2.04034     1.378778  30.01   0.01019948    1.447    0.309
        24 -10.6038    112.9996    169.9960   5.5889389411e+01   2.4014972975e+01    0.3962698    0.2530584 -25.02  0.001709325    2.265    0.559
        25 -10.5180    181.1277    176.1252   4.1671012346e+01   1.1906779443e+01    0.3644513    0.2924362  74.82  0.001679414    2.113    0.527
        26 -10.5039    191.6112    168.5539   3.8368290372e+01   1.1605084777e+01    0.2293603    0.2281263  11.47 0.0009160101    1.297    0.229
        27 -10.2715    111.0856    159.2185   5.4533459258e+01   2.6767885719e+01    0.2715986    0.2255994  51.50 0.0003215667    1.187    0.157
        28 -12.1443    220.4092    175.8777   3.4875199129e+01   6.5077547965e+00    0.3446056    0.2290022  22.64  0.002211203    1.572    0.364
        29 -10.7303    161.6515    154.4801   4.1497573815e+01   1.8908078170e+01    0.2724244    0.2424134 -50.93 0.0004983305    1.200    0.167
        30 -10.5774     17.2704    154.0174   8.3012101842e+01   4.1006441196e+01    0.4274493    0.2017149 -79.13  0.001587571    2.028    0.507
        31  -8.9605    127.4048    149.1953   4.8359509187e+01   2.6124343959e+01    0.1943363    0.1422419 -65.45 0.0003616676    1.575    0.365
        32 -10.1890    133.6157    146.8062   4.6326175506e+01   2.5502852444e+01    0.3756374    0.1855146 -57.41  0.001451063    2.388    0.581
        33 -10.5317    108.8307    146.7505   5.2822946379e+01   3.0069843621e+01    0.2797044    0.2500062 -27.17 0.0006105279    1.255    0.203
        34 -10.9144     26.9540    146.3624   7.9140536241e+01   4.2168851054e+01    0.3318076    0.3009433 -64.67  0.001071346    1.212    0.175
        35  -9.4801    154.0029    145.4676   4.1312576545e+01   2.2024193339e+01    0.2600375    0.1997242 -65.81  0.001272001    1.581    0.368
        36 -10.5876    115.8706    240.0811   6.4553357392e+01   1.0004724860e+01    0.2524474    0.1635856   9.87  0.001302645    1.620    0.383
        37 -11.1873     95.9007    144.1521   5.6054421738e+01   3.3007795265e+01    0.3370358    0.3193622  23.46 0.0006122043    1.123    0.109
        38  -9.2774     93.9658    135.0515   5.4853728665e+01   3.5618281615e+01    0.1893236    0.1755474  55.87 0.0003130503    1.026    0.025
        39 -10.0004     29.9844    134.5455   7.6890332707e+01   4.5105847127e+01    0.2803043     0.187457 -57.45 0.0005236325    1.559    0.358
        40 -10.4431    185.9620    171.3178   3.9901030772e+01   1.1990104264e+01    0.2169992    0.1808686 -60.75  0.001026125    1.604    0.376
        41 -10.4781     23.6077    132.1616   7.9017840194e+01   4.6388772799e+01    0.2445854    0.2383173  25.73 0.0001401761    1.161    0.139
        42  -9.5955      3.8339    128.1862   8.6168579673e+01   4.9010735383e+01    0.2183961     0.168772  62.48 0.0005055764    1.157    0.136
        43  -9.6591     96.0776    126.9826   5.2499452360e+01   3.7246992216e+01    0.2439848    0.2258721  75.32 0.0005102748    1.054    0.052
        44 -10.4095    106.5715    132.4721   5.0539991059e+01   3.3903030734e+01    0.3261592    0.2731852  44.05  0.001629111    1.159    0.137
        45 -11.5089     46.3691    124.3728   6.9367934430e+01   4.6035024220e+01    0.4941117     0.244799  44.15  0.001962448    1.914    0.477
        46  -8.9814    109.3004    121.9255   4.7374470931e+01   3.5901136463e+01     0.213377    0.2016966 -53.60 0.0004717832    1.095    0.087
        47  -8.8235    148.9675    115.8810   3.5783945005e+01   2.9007628100e+01    0.2400685    0.1802495 -84.45  0.001115389    1.759    0.432
        48  -9.3093    167.6588    113.1240   3.1261281993e+01   2.5692203040e+01     0.331618    0.2257492 -66.41  0.001546467    1.850    0.460
        49 -10.6008     96.5619    110.0913   4.8380589835e+01   4.1349184526e+01    0.5012575    0.3328737  10.94  0.001845343    2.676    0.626
        50 -12.4169     62.6825    108.9152   6.0137019014e+01   4.7903654365e+01    0.8389678    0.4965997  32.61  0.003178124    1.705    0.413
        51 -12.3479     66.3897    105.2179   5.7856368838e+01   4.8278202424e+01     1.032332    0.4327666 -43.08  0.003277777    3.149    0.682
        52  -9.1745     79.4985    109.4983   5.4001087399e+01   4.4819602089e+01    0.1605848    0.1506655  74.20 -2.730948e-05    1.010    0.010
        53 -14.0139     35.1518    241.1051   8.2874917367e+01   1.9137272053e+01    0.3868631     0.338698  42.04  0.001091793    1.186    0.157
        54  -9.4138     54.4986     90.9928   5.9284661660e+01   5.4015786572e+01     0.255683    0.2002309  36.02 0.0008196751    1.281    0.219
        55  -9.2825     73.9272     90.4793   5.1106288292e+01   5.0739709175e+01    0.2335497    0.1535814  41.11 0.0003957632    1.498    0.333
        56  -9.0659     37.5872     81.2958   6.4794781035e+01   5.9018241025e+01    0.2397811    0.1792737  -7.91 0.0006294319    1.666    0.400
        57 -10.4295    156.0180    235.0601   5.5618174870e+01   5.8842923240e+00    0.2860557    0.1562009 -38.17  0.001039068    2.019    0.505
        58 -11.7515    153.8485     66.8208   2.1599032918e+01   3.7217976681e+01     0.552139    0.3610151 -61.96  0.001713037    1.589    0.371
        59  -9.1932    139.0025     64.5067   2.3716809596e+01   4.1260329987e+01    0.2281473    0.1457242  65.14  0.001021782    1.571    0.363
        60 -11.1242    170.6542     44.5654   1.2618794766e+01   3.6612423554e+01    0.4320246    0.4038844  -9.89 0.0008757628    1.374    0.272
        61 -11.0323    164.8913     60.6691   1.8003813774e+01   3.5578514050e+01    0.3017669    0.2511389  50.76 0.0005803723    1.399    0.285
        62 -12.5649    165.2986     53.4376   1.5876698473e+01   3.6602550483e+01    0.8585324    0.8313555  62.43  0.004083675    1.243    0.195
        63 -10.7379    120.7186    240.6942   6.3576389702e+01   9.3111599200e+00    0.5729328    0.2076595  47.15  0.002245798    3.748    0.733
        64  -9.0412     10.9677    229.9659   8.8043614873e+01   2.3654480691e+01    0.1703436    0.1322856  51.37 0.0003302248    1.062    0.058
