#   1 NUMBER                 Running object number                                     
#   2 MAG_AUTO               Kron-like elliptical aperture magnitude                    [mag]
#   3 X_IMAGE                Object position along x                                    [pixel]
#   4 Y_IMAGE                Object position along y                                    [pixel]
#   5 X_WORLD                Barycenter position along world x axis                     [deg]
#   6 Y_WORLD                Barycenter position along world y axis                     [deg]
#   7 A_WORLD                Profile RMS along major axis (world units)                 [deg]
#   8 B_WORLD                Profile RMS along minor axis (world units)                 [deg]
#   9 THETA_WORLD            Position angle (CCW/world-x)                               [deg]
#  10 FWHM_WORLD             FWHM assuming a gaussian core                              [deg]
#  11 ELONGATION             A_IMAGE/B_IMAGE                                           
#  12 ELLIPTICITY            1 - B_IMAGE/A_IMAGE                                       
         1  -8.5801     55.7480     10.0112   6.9417056422e+01   6.6590110128e+01    0.2045248    0.1562082 -34.25 0.0008793495    1.536    0.349
         2  -7.8380     47.5449     10.0520   7.2762773569e+01   6.7875086353e+01    0.1535873   0.09709881 -47.20 0.0008079026    2.458    0.593
         3  -7.7336     28.2140      9.9805   8.1595749418e+01   7.0478148517e+01    0.1490248   0.07939044 -33.58 0.0004154689    1.633    0.388
         4  -8.0828    101.5677      8.6915   5.4568403513e+01   5.7803329342e+01    0.1722425    0.1181035 -32.73 0.0009413252    1.614    0.380
         5  -8.3566     90.9365      8.9937   5.7421424964e+01   6.0067582254e+01    0.1924267     0.155929 -60.44 0.0007441986    1.740    0.425
         6  -7.8444      5.6551      8.3242   9.2845449596e+01   7.2904225856e+01   0.09064563   0.08875157 -54.62 0.0006990077    1.738    0.425
         7  -8.7586     33.4892      5.0454   7.6449109546e+01   7.0472882575e+01    0.2762643    0.1671246 -47.02  0.001498414    2.646    0.622
         8  -8.1364    124.2250      5.1807   4.8364246642e+01   5.2900348213e+01    0.1733439    0.1496364 -68.68 0.0003392104    1.357    0.263
         9  -7.9123     44.6621      3.3278   7.0495871898e+01   6.9094982873e+01    0.1032989   0.09481761 -45.18 0.0007051792    1.730    0.422
        10  -7.8184     15.7786      3.0094   8.4439175442e+01   7.2793747438e+01    0.1459203   0.07484705 -34.89 0.0003151648    1.645    0.392
        11  -8.5635     79.0496      4.2011   5.8637843133e+01   6.2946164971e+01    0.2623282    0.1460263 -38.71  0.001004228    2.218    0.549
        12  -8.4857     62.3200      1.6098   6.2771401190e+01   6.6348222474e+01    0.1858862    0.1390401  53.15  0.000619549    1.567    0.362
        13  -7.3072     52.6654      1.3126   6.6175357811e+01   6.8039689937e+01    0.1040465   0.09594719 -48.83 0.0007045289    1.684    0.406
        14  -7.9813    237.5705      5.4921   3.5101849346e+01   2.5597177427e+01    0.1240049    0.1012163 -67.54 9.326921e-05    1.010    0.010
        15  -8.5171      9.6033    244.2337   1.2809690487e+02   2.2268808112e+01    0.1951435   0.07849709 -88.21  0.001136381    2.209    0.547
        16 -10.2443    248.6592    241.9361   8.4563905656e+01  -1.0836954030e+01    0.7303026    0.2040609 -33.62  0.003225623    3.652    0.726
        17  -8.8842    247.7817    234.6289   8.3498631989e+01  -9.8751599017e+00    0.2457519    0.1618812 -18.00 0.0009696204    1.396    0.284
        18  -9.5634    246.3258    229.1714   8.2819102495e+01  -9.0226096256e+00    0.4467693    0.2012237 -26.81  0.001550875    2.215    0.548
        19  -7.9598    191.5239    249.9910   9.5870957145e+01  -3.7226078400e+00    0.1321166    0.1065307 -82.06 0.0006066103    2.328    0.570
        20  -7.9852    183.4822    250.4998   9.7412208063e+01  -2.5798033861e+00    0.1202765   0.09528276  26.74 2.710187e-05    1.019    0.018
        21  -8.8951    107.9717    250.5984   1.1142496814e+02   8.8777746853e+00    0.2002251   0.09021668  44.37 4.296629e-05    1.758    0.431
        22  -9.1791    103.7245    246.7832   1.1182259093e+02   1.0137930107e+01    0.3707301    0.1992656 -81.76   0.00189313    2.745    0.636
        23  -8.3747     93.6685    249.4917   1.1393696261e+02   1.1121006076e+01    0.2393573    0.1160182  60.12  0.001084146    2.129    0.530
        24  -7.4692     86.2842    250.6334   1.1537922797e+02   1.1957988932e+01    0.1207515   0.07078069  67.02 0.0004522416    1.693    0.409
        25  -8.5974    201.9530    243.4753   9.3006077957e+01  -4.4253564270e+00    0.1919411    0.1660608 -51.47  0.000880396    1.673    0.402
        26  -8.4425    168.9804    243.4456   9.9118240250e+01   6.5045622029e-01    0.1919037    0.1699706 -79.85 0.0006223089    1.558    0.358
        27  -8.9268    139.4254    243.0989   1.0467643715e+02   5.3387072580e+00    0.2979367    0.1218673 -53.17   0.00140873    2.981    0.664
        28  -8.2246     49.5981    243.3773   1.2133345841e+02   1.8016181602e+01    0.2132991   0.08462351  89.09 0.0009589259    3.407    0.706
        29  -7.8398     34.5016    244.4924   1.2400457638e+02   1.9580536285e+01    0.1097812    0.0801154  68.43 -3.472841e-05    1.014    0.014
        30  -9.2506    213.6497    242.1110   9.0680589692e+01  -5.9826179723e+00    0.2683986    0.1860974  -4.22  0.001204592    1.476    0.322
        31  -8.3080    195.0101    243.0207   9.4207832661e+01  -3.3161515962e+00     0.185546    0.1479035  21.15 0.0004597324    1.031    0.030
        32  -8.8826    193.8609    239.6240   9.3906251650e+01  -2.6750756038e+00    0.2153521    0.1767817  54.37 0.0007666663    1.564    0.361
        33  -9.2422    183.4413    240.4477   9.5971215905e+01  -1.1757704010e+00    0.4076259    0.2626604  64.25  0.002025061    2.846    0.649
        34  -9.1548     77.6400    242.5117   1.1623596932e+02   1.4566759976e+01     0.252415    0.1339011 -72.95  0.001065449    2.059    0.514
        35  -9.3476    160.2104    240.4935   1.0037102233e+02   2.4757556124e+00    0.2977616    0.2120736 -75.55  0.001361666    2.271    0.560
        36  -8.2914    153.3767    242.1612   1.0189849302e+02   3.2978194678e+00    0.1494863    0.1172058 -70.16 0.0007504157    1.716    0.417
        37  -8.2773     88.0709    242.0833   1.1427095300e+02   1.3200907369e+01    0.1847641    0.1142059  68.39  0.000537144    1.612    0.380
        38  -9.4835    241.3961    238.9378   8.5302308285e+01  -9.5198562221e+00    0.4471861    0.2009149 -13.45  0.001951015    3.494    0.714
        39  -9.5744    231.2112    237.5564   8.6836984065e+01  -7.9414355852e+00    0.3400924     0.287531  69.67  0.002157013    2.387    0.581
        40  -9.0425    235.9173    230.6969   8.4872954758e+01  -7.7564007267e+00    0.2291048    0.1521395 -29.66 0.0004800417    1.562    0.360
        41  -8.6767    135.6312    239.0096   1.0489099495e+02   6.5991918077e+00    0.1801832    0.1440832  80.42 0.0008762429    1.503    0.335
        42  -8.1332    129.5029    239.0196   1.0607277728e+02   7.5566805471e+00    0.1575991    0.1018968  84.99 0.0007147952    2.414    0.586
        43  -7.9725    189.6552    237.2255   9.4323942433e+01  -1.6863841356e+00    0.1538436    0.1087791 -24.06 0.0005184968    1.595    0.373
        44  -9.4974    109.3644    235.0720   1.0950046658e+02   1.1339184270e+01    0.4726233    0.2324162  61.96  0.002175315    2.578    0.612
        45  -7.9661     25.4886    236.9790   1.2510215110e+02   2.1954588935e+01     0.161969    0.0647596  75.46 0.0008104614    2.583    0.613
        46  -9.2906    216.5497    235.5292   8.9110209752e+01  -5.5598595013e+00     0.204324    0.1950181   0.41 0.0009204481    1.398    0.285
        47  -9.3304    213.9310    231.9857   8.9007054199e+01  -4.6981236335e+00    0.2481329    0.2200235  65.39   0.00107609    1.791    0.442
        48  -9.0424    203.2586    234.7462   9.1408784967e+01  -3.4474055806e+00    0.2942019    0.2084222 -58.97   0.00130222    2.424    0.587
        49  -8.2634    205.7644    230.3856   9.0244114338e+01  -3.2301936213e+00    0.2720957     0.130027  31.98  0.001357713    1.870    0.465
        50  -9.8525    175.6358    233.1917   9.6369275612e+01   1.1291641422e+00    0.4361459    0.2519133 -58.41   0.00218135    2.705    0.630
        51  -8.4546    170.3713    236.1696   9.7817804978e+01   1.5199014690e+00    0.1497661    0.1193641 -60.70 0.0005259705    1.685    0.407
        52  -8.0308     57.9465    237.0000   1.1937732794e+02   1.8158058546e+01    0.1805116    0.0556402  37.76 0.0006553954    2.910    0.656
        53  -9.3084    151.3500    229.0204   1.0048648363e+02   5.7395513404e+00    0.2999633    0.2094617 -83.80   0.00143752    2.343    0.573
        54  -9.5109    148.6772    224.6511   1.0039235261e+02   6.9180988966e+00    0.3765337    0.2661038  83.91  0.001599146    2.224    0.550
        55  -8.5228     99.6858    234.6400   1.1132331818e+02   1.2863910324e+01    0.2466331    0.1411652  67.90  0.001005495    2.023    0.506
        56  -9.2044     78.5875    234.2869   1.1531801960e+02   1.5941204037e+01    0.2652783    0.1521914  76.91 0.0008895508    1.950    0.487
        57  -8.2303      8.2949    235.3284   1.2790445775e+02   2.4024191090e+01   0.09048042   0.07325432 -68.39 0.0005746266    1.630    0.386
        58  -8.2707    122.9085    233.9669   1.0673524377e+02   9.4508592073e+00    0.1964164    0.1318389  66.86 0.0006922698    1.686    0.407
        59  -9.5205     68.7110    232.7303   1.1703793076e+02   1.7567464321e+01    0.4799314    0.1758144  60.40  0.001973445    3.337    0.700
        60  -8.3997    194.4501    233.0447   9.2777818276e+01  -1.8410936180e+00    0.1887484    0.1541656  44.74 0.0006351229    1.352    0.260
        61  -8.1473    144.6441    233.2257   1.0238669550e+02   6.1260378913e+00     0.275032    0.1390004  57.32  0.001228615    2.593    0.614
        62  -8.4360    140.0016    230.0572   1.0287167037e+02   7.4091646160e+00    0.2755113    0.1648018  59.21  0.001062442    1.958    0.489
        63  -8.2110    132.6813    232.7133   1.0466390166e+02   8.1274012048e+00    0.2205162    0.1459944 -89.02  0.001146319    2.329    0.571
        64  -8.6241     92.3255    231.8724   1.1245309753e+02   1.4448638208e+01    0.2556211    0.1620887  81.75 0.0009500313    1.810    0.447
        65  -7.7304     37.6877    233.3537   1.2275643056e+02   2.1282424340e+01    0.1232114   0.06203009  66.68 0.0005525225    1.730    0.422
        66  -9.3488    186.6038    230.9158   9.3925581306e+01  -2.8785939285e-01    0.2985705    0.2381939  89.74  0.001631154    2.222    0.550
        67  -7.7469    157.6950    232.3341   9.9713579165e+01   4.1630518338e+00    0.1228441   0.09254092  65.69 0.0002413557    1.665    0.399
        68  -8.8838      1.7117    230.8897   1.2879051527e+02   2.5480171450e+01    0.1995621   0.09671811  76.00 0.0006996719    1.622    0.384
        69  -8.2381    229.8137    229.0246   8.5661909131e+01  -6.6659200668e+00    0.1586098    0.1388171 -53.82 0.0007342528    1.869    0.465
        70  -8.8300    222.3084    228.0382   8.6834483618e+01  -5.4292240989e+00    0.4340779    0.2366516  -5.41  0.002054948    2.651    0.623
        71  -9.0234    225.3807    221.9251   8.5236405319e+01  -5.0692231752e+00    0.2413361    0.1864745  39.41  0.001068784    1.447    0.309
        72  -8.8849    162.5242    228.0631   9.8147696069e+01   4.0661665173e+00    0.2941378    0.1559112  51.50  0.001125724    2.056    0.514
        73  -8.7295    128.1042    227.3808   1.0487943283e+02   9.7911596461e+00    0.2710644    0.1685888  64.00  0.001102002    1.922    0.480
        74  -8.3527    119.9694    227.9161   1.0656859579e+02   1.0986707601e+01    0.2030898    0.1340595  65.51 0.0008125195    1.681    0.405
        75  -8.8855      8.3677    228.2304   1.2755439582e+02   2.5351633426e+01    0.1523258   0.07461075  84.19 0.0007920032    1.683    0.406
        76  -8.3136     49.4316    227.2350   1.2018776673e+02   2.1072494117e+01    0.2145441    0.1041421  58.22   0.00100235    1.777    0.437
        77  -9.0234    206.0238    225.6185   8.9410864922e+01  -2.5988962320e+00    0.2278766    0.1797797 -31.08 0.0007915645    1.397    0.284
        78  -8.0917    200.0487    226.3063   9.0642745220e+01  -1.7545821004e+00    0.1725222     0.142419  26.00 0.0005238422    1.079    0.073
        79  -9.0567     94.4490    224.5715   1.1125580974e+02   1.5513308260e+01    0.4707376    0.2017615  59.77  0.001960039    2.941    0.660
        80  -8.8553    180.3802    224.2831   9.4076169130e+01   1.7317127758e+00    0.2200103    0.1938944  40.17 0.0005613714    1.175    0.149
        81  -8.8958    104.7222    223.7648   1.0911203565e+02   1.4122814995e+01    0.3278941    0.2053074  85.27  0.001623635    2.088    0.521
        82  -8.2153     38.3709    225.1365   1.2207491599e+02   2.2787469276e+01     0.163431   0.08554062  86.11 0.0007779991    1.807    0.447
        83  -8.8186    216.4949    223.6385   8.7143506486e+01  -3.9492827286e+00    0.2089668    0.2029511  -2.44 0.0009222967    1.399    0.285
        84  -8.6705    173.0344    223.4623   9.5381331997e+01   3.0748762423e+00    0.2109211    0.1808953 -70.10 0.0006174155    1.574    0.365
        85  -8.2422    113.8449    224.1468   1.0732557498e+02   1.2639708240e+01    0.1980181    0.1511165  66.69 0.0006549539    1.294    0.227
        86  -8.1022     59.5987    223.8194   1.1799320027e+02   2.0473467031e+01    0.1604765      0.09659  88.41 0.0007451478    1.634    0.388
        87  -9.4044    192.3897    221.4083   9.1289308727e+01   2.0667247294e-01    0.2801928    0.2415771 -83.05  0.001038462    1.820    0.450
        88  -9.2408    160.1459    221.3655   9.7610981857e+01   5.5694000982e+00     0.561956    0.2617756  56.39   0.00215016    3.411    0.707
        89  -8.3242    140.5781    222.8741   1.0176507099e+02   8.5642083054e+00    0.2323138     0.148116  67.32 0.0009527256    2.159    0.537
        90  -8.2469     27.3143    221.5523   1.2385272346e+02   2.4719066473e+01    0.2471692    0.1004651 -64.09  0.001316328    2.472    0.595
        91  -8.8342    239.0116    221.7142   8.2786080824e+01  -7.0547796338e+00    0.2042106    0.1845061 -59.13 0.0008754868    1.915    0.478
        92  -8.6036    202.6668    220.6526   8.9206331459e+01  -1.3452801450e+00    0.2846853    0.1867009 -22.55  0.001421143    1.656    0.396
        93  -8.2864     73.2607    221.2055   1.1510069331e+02   1.9183743218e+01     0.263108    0.1293132  67.98  0.001218244    2.397    0.583
        94  -9.1398    120.2321    219.1795   1.0539522699e+02   1.2556030724e+01    0.4132077      0.22633  68.65  0.001733998    2.875    0.652
        95  -8.5525     82.9801    220.8173   1.1313522133e+02   1.7905531884e+01    0.2730633    0.1425166  67.13  0.001320293    2.224    0.550
        96  -7.7683    131.3184    220.3242   1.0328613198e+02   1.0544417293e+01    0.1245123    0.1001046   2.50 0.0004938889    1.673    0.402
        97  -9.3048    248.6999    218.1502   8.0486916198e+01  -7.9786360689e+00    0.3346546    0.2435438  63.89  0.001717505    3.410    0.707
        98  -8.4324    210.2671    219.0590   8.7508281549e+01  -2.3260499300e+00    0.1699196    0.1479261  -5.82 0.0004471558    1.138    0.121
        99  -9.2904    132.8364    216.0703   1.0237907476e+02   1.1077988612e+01    0.4620013    0.2778216  76.77  0.001972374    3.022    0.669
       100  -8.5546     62.2439    217.5703   1.1692528719e+02   2.1377780602e+01    0.2976831    0.1393904  63.31  0.001217342    2.239    0.553
       101  -8.8529     51.5501    217.5224   1.1900740286e+02   2.2738736217e+01      0.24736    0.1458554  67.12 0.0008640281    1.516    0.340
       102  -8.7445    169.4386    216.4517   9.4980040452e+01   4.8301921172e+00    0.2606751    0.1897635  76.60 0.0007802333    2.265    0.559
       103  -8.5975    142.9353    216.4697   1.0036029767e+02   9.3173690352e+00    0.2321989    0.1814689 -86.15   0.00082697    1.663    0.399
       104  -8.1279    111.8153    217.0045   1.0683937186e+02   1.4311865723e+01    0.2146886    0.1370188  77.81  0.001077167    2.051    0.512
       105  -8.0674     55.8472    217.1683   1.1814242109e+02   2.2276348256e+01    0.1382719    0.1284146  84.05 0.0009964944    1.289    0.224
       106  -8.3606    154.4761    215.4459   9.7845021497e+01   7.5478365946e+00    0.2187187    0.1685246  71.32 0.0007381457    1.668    0.401
       107  -8.8149    232.2071    214.6943   8.2739221613e+01  -5.1142008200e+00    0.2196075    0.1914164 -52.89  0.001121448    1.778    0.437
       108  -8.4594    185.6382    214.6142   9.1462919963e+01   2.3906566250e+00    0.2263153    0.1830586  78.19 0.0008160358    1.939    0.484
       109  -9.1038     93.3817    214.1818   1.1028978000e+02   1.7705392122e+01    0.3461719    0.1766378  64.81  0.001550281    2.442    0.590
       110  -8.5355     77.0284    214.5134   1.1367073518e+02   2.0004106223e+01    0.2967445    0.1238065  52.66  0.001354507    2.253    0.556
       111  -9.3080     72.1431    211.1776   1.1431702794e+02   2.1361488299e+01    0.4419684    0.2151737  72.66  0.001769903    2.776    0.640
       112  -9.4829    213.8565    212.2898   8.5651891504e+01  -1.9091034677e+00    0.3131578    0.2641602  58.26  0.001509583    1.695    0.410
       113  -8.8120    161.5320    212.4682   9.5935779189e+01   6.8643464451e+00    0.2239591    0.2056662  40.42 0.0006500174    1.076    0.070
       114  -8.4186    106.4964    213.0061   1.0742872861e+02   1.5930046586e+01    0.1790809    0.1254256 -69.54 0.0005854008    1.547    0.354
       115  -7.9600    224.9507    212.3038   8.3613735359e+01  -3.6673752650e+00    0.1733863    0.1427959  10.77 0.0005626706    1.030    0.029
       116  -8.9646    204.4422    210.9850   8.7193804505e+01  -1.7881670736e-01    0.2582151    0.2064991 -54.74 0.0008522852    1.736    0.424
       117  -9.3281    175.4748    210.1707   9.2731576479e+01   4.8576938068e+00    0.3537542    0.2629649  89.05   0.00126784    2.414    0.586
       118  -8.4482    192.1913    210.4685   8.9467148703e+01   1.9502839039e+00    0.2244455    0.1707663 -57.88 0.0006292615    1.824    0.452
       119  -8.8183    148.0943    210.6169   9.8406895960e+01   9.5068067082e+00    0.2630006    0.1985814  80.08  0.001002206    1.807    0.447
       120  -8.9783    116.3615    210.4965   1.0503226159e+02   1.4851307346e+01     0.332751     0.204688  69.04 0.0009763953    2.077    0.519
       121  -8.9151      5.7684    207.5524   1.2694572985e+02   2.9669678176e+01    0.3061425     0.109353  80.50  0.001418916    2.886    0.653
       122  -9.8230    236.7434    207.1519   8.0562152685e+01  -4.7593643622e+00    0.5595787    0.2575887 -36.47  0.001762212    2.172    0.540
       123  -8.3759     85.6683    209.7025   1.1136615633e+02   1.9753249404e+01    0.2527366    0.1393465  85.94  0.001158984    2.463    0.594
       124  -8.4769     32.3672    210.2381   1.2213396181e+02   2.6456412493e+01    0.1657395   0.08833072  88.25 0.0006587127    1.705    0.413
       125  -8.4252    139.3297    208.2959   9.9878492376e+01   1.1441575912e+01    0.2609254    0.1786897  72.75 0.0007420516    2.008    0.502
       126  -9.8320    124.3582    206.3583   1.0275596626e+02   1.4349545054e+01    0.3322725    0.2180548  74.08  0.001616188    2.049    0.512
       127  -9.2791    246.3758    207.5040   7.8950752382e+01  -6.2484426566e+00    0.2158893    0.1859606 -17.49  0.000552516    1.276    0.216
       128  -8.0502    156.4296    208.1834   9.6291258686e+01   8.5096021608e+00    0.1697662    0.1306806 -66.40 0.0004426623    1.639    0.390
       129  -9.2966     99.3229    206.1636   1.0806154079e+02   1.8427528006e+01    0.3630413    0.2262596  81.41  0.001368967    2.049    0.512
       130  -8.6403     56.3726    205.5566   1.1698062495e+02   2.4610361051e+01    0.3242334    0.1498236  62.38   0.00153272    2.279    0.561
       131  -8.9412    183.9172    204.0579   8.9976827226e+01   4.4290077106e+00    0.2984501    0.2380387  73.14 0.0009440595    1.858    0.462
       132  -8.8171    131.3157    204.1199   1.0093882901e+02   1.3615109510e+01    0.3284362       0.2142  85.76  0.001014035    2.441    0.590
       133  -8.2875    109.0269    205.2980   1.0587789500e+02   1.7074609177e+01    0.1915643    0.1580186  58.68 0.0009953398    1.092    0.084
       134  -8.2227     24.8552    205.0394   1.2320708704e+02   2.8334814040e+01    0.2048593   0.09692673  73.60 0.0009323296    2.025    0.506
       135  -9.4271    250.1262    202.0701   7.7297158466e+01  -6.0634875997e+00    0.3612425    0.1641119 -34.69  0.001277873    2.087    0.521
       136  -9.5039    245.9616    194.0657   7.6482689474e+01  -4.3221868181e+00    0.3640927    0.2688946 -57.47  0.001976961    2.381    0.580
       137  -9.2789    194.7353    203.6170   8.7751345000e+01   2.6264453227e+00    0.2790957    0.2485879 -30.38 0.0008146412    1.227    0.185
       138  -9.4431    192.6015    197.7274   8.7094504289e+01   3.9774834260e+00    0.3470709    0.2923593 -82.71  0.001308773    1.815    0.449
       139  -9.7517    163.9580    203.1463   9.3891616060e+01   8.1012548895e+00    0.4488171    0.2568589  55.41  0.000936522    2.149    0.535
       140  -8.9605     17.5284    203.1151   1.2448396921e+02   2.9474184760e+01    0.2809815    0.1082244  83.20  0.001279123    2.806    0.644
       141  -8.3213     48.4012    202.1468   1.1829296445e+02   2.6316293898e+01    0.2741182    0.1046807 -82.30  0.001097036    3.125    0.680
       142  -9.1884    242.9824    200.7023   7.8264848624e+01  -4.8061715336e+00    0.3112652    0.1818758 -30.86 0.0009094059    1.608    0.378
       143  -7.9830    221.9811    201.5480   8.2180590683e+01  -1.6221889331e+00    0.1980948    0.1690975 -49.15  0.001066632    1.581    0.368
       144  -8.9178    140.3702    201.0458   9.8520748229e+01   1.2652450599e+01    0.3254923    0.2228967 -89.04  0.001031018    2.273    0.560
       145  -8.8516     79.9470    201.2757   1.1159276322e+02   2.2343603869e+01     0.329275    0.1777918  79.32  0.001466051    2.513    0.602
       146  -9.4341    237.0191    198.9787   7.8981783665e+01  -3.6424274264e+00    0.2756211    0.1711501 -39.39  0.001100399    1.743    0.426
       147  -9.5328    149.5506    198.6510   9.6163769327e+01   1.1496705460e+01     0.382992    0.2715857 -88.50   0.00111969    2.213    0.548
       148  -8.8535    124.0294    199.4008   1.0179096767e+02   1.5795813700e+01    0.3209113    0.2197584  73.89  0.001248654    1.858    0.462
       149  -9.4847    112.9222    198.5067   1.0407997687e+02   1.7836594335e+01    0.4611551    0.2820291  73.64  0.001688322    2.280    0.561
       150  -9.1064     88.6629    198.6547   1.0939428359e+02   2.1625709822e+01    0.3441553      0.21383  78.62  0.001372571    1.914    0.477
       151  -8.3974    177.0195    199.0210   9.0475526137e+01   6.5180722143e+00     0.198104    0.1676158  81.10 0.0005645832    1.634    0.388
       152  -8.4539    202.3544    198.0103   8.5230894658e+01   2.2285039108e+00    0.2108633    0.1879652  61.09 0.0006648084    1.479    0.324
       153  -8.6633    133.1565    196.6840   9.9379001139e+01   1.4774075836e+01    0.3254481    0.1853416 -65.08  0.001097301    2.230    0.552
       154  -9.1694     61.6736    197.0855   1.1502543193e+02   2.5746605622e+01    0.4271208    0.2094114  68.09  0.001843907    2.423    0.587
       155  -9.2972    210.0490    201.7020   8.4441504721e+01   3.2710528208e-01    0.2948911    0.2391911  52.12  0.001730081    1.557    0.358
       156  -8.8244    215.9318    195.5094   8.2162625665e+01   3.0886593872e-01     0.295538     0.182541 -50.39  0.001072092    2.187    0.543
       157  -8.2137     53.8857    196.7768   1.1664406490e+02   2.6803653681e+01    0.2589333    0.1337731  76.49  0.001237337    2.205    0.547
       158  -7.9346     29.3472    197.6776   1.2177922746e+02   2.9423721095e+01    0.1303483   0.06869211  66.82 0.0007049512    1.740    0.425
       159  -8.1806    209.3881    196.1125   8.3517621961e+01   1.3254542387e+00    0.1784553    0.1223613 -46.59 0.0008317399    1.736    0.424
       160  -8.7353    224.4734    193.9832   8.0283205053e+01  -8.8132826021e-01    0.2873697    0.1938967 -45.86  0.001267375    1.804    0.446
       161  -8.9834    185.1895    194.8052   8.8040021213e+01   5.7977956574e+00     0.244609    0.2174457 -36.81 0.0007256766    1.221    0.181
       162  -9.0883    160.9110    194.4142   9.3012123316e+01   1.0262104656e+01    0.3187832    0.2244463  65.86 0.0009374584    1.911    0.477
       163  -8.1457    231.0310    194.4995   7.9191374072e+01  -2.0323448961e+00    0.1860659    0.1192898  36.29 0.0005864567    1.537    0.350
       164  -8.7148     76.9432    193.8953   1.1136195208e+02   2.4365761797e+01    0.2177668     0.171089 -85.31 0.0005831342    1.191    0.160
       165  -8.9754     43.6462    193.4076   1.1847646173e+02   2.8768396322e+01    0.3538128     0.177054  75.29  0.001689121    2.189    0.543
       166  -8.6284    241.3248    192.0308   7.6890246282e+01  -3.3087055017e+00    0.1829791    0.1450651 -16.58 0.0005397139    1.117    0.105
       167  -8.2846    198.8856    191.8667   8.4745725091e+01   3.8570467275e+00    0.2311042    0.1817772 -40.11 0.0006242188    1.370    0.270
       168  -9.2569    178.5571    191.7711   8.8832236159e+01   7.5375879483e+00    0.2861241    0.2418679   2.64 0.0006580672    1.221    0.181
       169  -8.3881    172.3855    191.9607   9.0149902934e+01   8.6295687874e+00    0.2361518    0.1917346  65.81  0.001000708    1.538    0.350
       170  -9.0861    139.3867    190.5558   9.6999191039e+01   1.4909615003e+01    0.3677257    0.2569822  84.86  0.001204205    2.137    0.532
       171  -9.2679    129.3600    189.1771   9.8991965062e+01   1.6975509654e+01    0.3443965    0.2462156 -78.54   0.00115751    1.759    0.431
       172 -10.4919     92.0800    188.7428   1.0732250514e+02   2.3257755489e+01     0.963782    0.2895015  49.30  0.003237085    3.625    0.724
       173  -8.0657     90.6567    181.7012   1.0664968550e+02   2.5046720412e+01     0.204677     0.175496  21.37 0.0006529801    1.442    0.306
       174  -8.6848     21.1827    191.3395   1.2294318626e+02   3.1622652342e+01     0.268381   0.08495216  54.54  0.001163016    3.034    0.670
       175  -8.5592    148.5198    189.4068   9.4794988515e+01   1.3488753148e+01    0.2633829    0.1941996 -74.91 0.0008262585    1.797    0.444
       176  -8.4291    237.1161    188.7169   7.6979959924e+01  -2.1484057243e+00    0.2128664    0.1591385 -35.25  0.000427254    1.390    0.280
       177  -8.8751    216.7891    188.1946   8.0582277669e+01   1.3274641053e+00    0.2614687    0.2076128 -43.81 0.0008256845    1.462    0.316
       178  -7.9809    210.2144    189.2265   8.2032590316e+01   2.3008017702e+00    0.2070413    0.1018557 -47.18 0.0008795077    2.463    0.594
       179  -9.3647    155.8575    187.3935   9.2835050280e+01   1.2540326483e+01    0.4021764    0.2526111 -64.67  0.001149159    2.188    0.543
       180  -9.8041    120.9527    186.8760   1.0050342219e+02   1.8928647758e+01    0.5440109    0.2957067 -74.79  0.002123284    2.927    0.658
       181  -8.9130     34.1034    187.8046   1.1998135519e+02   3.1069784164e+01    0.3332736    0.1528021  81.49  0.001388474    2.465    0.594
       182  -8.2434    242.6147    188.2260   7.5921882105e+01  -2.9540386059e+00    0.1794286    0.1072801 -22.57 0.0005066991    1.582    0.368
       183  -8.1208    230.6712    187.5620   7.7901450238e+01  -9.1969354528e-01    0.2086481    0.1545784 -48.83 0.0008947902    1.752    0.429
       184  -8.8045    191.3481    187.3399   8.5375723098e+01   5.9953387945e+00    0.2690878    0.2297595  87.97  0.001120814    1.710    0.415
       185  -8.8267    165.0588    187.0085   9.0780915158e+01   1.0910635459e+01    0.3236005     0.240784 -80.30 0.0009101803    2.049    0.512
       186  -9.3138    109.8094    186.3636   1.0295090519e+02   2.0933109397e+01    0.4296783    0.2632111  73.54   0.00134754    2.286    0.562
       187  -9.2388     54.6355    186.8079   1.1545219075e+02   2.8913565384e+01    0.3957766    0.2072978  77.89  0.001310312    2.246    0.555
       188  -9.3587    248.8264    185.8182   7.4382530988e+01  -3.5764956699e+00     0.291004    0.2358933  10.59  0.001507149    1.127    0.113
       189  -9.2053    182.8233    184.9902   8.6659927819e+01   7.9859556974e+00    0.3538052    0.2009754 -50.10 0.0008873248    2.038    0.509
       190  -8.8177    210.2391    184.4657   8.1088554745e+01   3.0850077230e+00      0.23947    0.1738414 -31.44 0.0004032608    1.349    0.259
       191  -8.7864    202.7406    184.6898   8.2588484516e+01   4.3887294106e+00     0.264003    0.1859883 -47.56 0.0008785749    1.634    0.388
       192  -9.0827     66.5325    184.4841   1.1253761629e+02   2.7899632479e+01    0.3635059    0.2060199  69.41  0.001026812    1.981    0.495
       193  -8.5258     12.0202    185.2487   1.2436311601e+02   3.3809803567e+01    0.2296045   0.07854678  69.12 0.0008952864    3.710    0.730
       194  -8.4073    224.1448    183.6515   7.8311488224e+01   7.9219670560e-01    0.2222214    0.1676839 -37.92 0.0005953935    1.390    0.281
       195  -8.3195    196.9926    183.7036   8.3530053641e+01   5.6034497792e+00    0.2410489    0.1745328 -50.37 0.0007315386    1.633    0.388
       196  -9.1783    174.4049    183.1742   8.8065968128e+01   9.8949217796e+00    0.4106854    0.2399656 -45.88  0.001354565    1.814    0.449
       197  -7.9638      1.7778    183.7916   1.2632957748e+02   3.5005568510e+01    0.1631712   0.09921378  67.60  0.001050651    1.378    0.275
       198  -8.7902    240.9226    181.1141   7.4800403383e+01  -1.6179274051e+00    0.3774862     0.193804 -53.67  0.001398258    4.137    0.758
       199  -9.0677     44.3721    182.4371   1.1725496113e+02   3.1128502487e+01     0.340571    0.1835099  73.74  0.001105476    1.976    0.494
       200  -9.3261    147.5907    180.7432   9.3434076095e+01   1.5411208065e+01    0.3848822    0.2703008  81.24  0.001106802    2.201    0.546
       201  -9.5636     25.4474    178.8061   1.2104598486e+02   3.3973889774e+01    0.6249564    0.2394521  79.30  0.002351484    3.794    0.736
       202  -8.0550    235.3054    181.6602   7.5895905859e+01  -7.7761773292e-01    0.1206341    0.1061992 -61.85 0.0007041079    1.679    0.404
       203  -8.7385    137.3635    179.3343   9.5480295837e+01   1.7599642774e+01    0.2920053    0.2234316  74.44 0.0008235878    1.600    0.375
       204  -9.3085    191.6141    178.5207   8.3576455999e+01   7.5233494128e+00    0.3066159    0.2506441  65.66 0.0007201884    1.612    0.380
       205  -8.1459    169.1908    178.6964   8.8304630101e+01   1.1739032435e+01     0.220672    0.1736847  57.50  0.000700025    1.434    0.303
       206  -9.1929     35.9044    176.6605   1.1855461098e+02   3.3384313716e+01    0.5387387     0.216117  78.08  0.001909873    4.115    0.757
       207  -9.5510    248.4305    176.6201   7.2607200545e+01  -2.1533887440e+00    0.4267853     0.249793 -47.82  0.001951638    2.223    0.550
       208  -8.7474    250.3891    172.8286   7.1506402008e+01  -1.8974075569e+00    0.2401727    0.1563919 -33.43 0.0007159202    1.400    0.286
       209  -8.5981    231.2510    177.3090   7.5736179076e+01   5.8722265856e-01    0.2476801    0.1636596 -40.40 0.0005116301    1.566    0.361
       210  -8.4991    217.5372    177.2821   7.8249648801e+01   2.9855700344e+00    0.2257398    0.1893466 -47.63 0.0006478984    1.425    0.298
       211  -8.7788    205.0261    177.5690   8.0707782620e+01   5.2014369177e+00    0.2605957    0.1923537 -52.50 0.0008478519    1.671    0.402
       212  -8.8350    129.0215    177.2729   9.7020915792e+01   1.9562955383e+01    0.2637735    0.1974913  88.85  0.000937281    1.697    0.411
       213  -8.8935     89.1039    176.9378   1.0631386181e+02   2.6367678707e+01    0.2988867    0.2049313  84.82 0.0008689529    1.653    0.395
       214  -9.3557    183.0613    176.2053   8.4869392247e+01   9.5686785117e+00    0.3043442    0.2357827 -49.96 0.0005058097    1.432    0.301
       215  -7.8844     97.5034    177.5358   1.0442816955e+02   2.4910697253e+01    0.1370699    0.1287632  80.74  0.000305231    1.055    0.052
       216 -10.0407     57.3652    173.2616   1.1327802108e+02   3.1669838576e+01    0.8355677    0.3703545  81.73  0.002726824    4.530    0.779
       217  -9.1068     12.9821    176.6623   1.2353870834e+02   3.5619547739e+01    0.3085273    0.1346003  75.51  0.001364668    2.385    0.581
       218  -7.4138    211.6528    176.3003   7.9164847049e+01   4.2096765203e+00    0.1294866    0.1139154  89.44 0.0007037665    1.685    0.406
       219  -9.1186    158.5670    174.8670   8.9871261158e+01   1.4532338989e+01    0.3317558    0.2490534 -74.71 0.0008697039    1.812    0.448
       220  -9.4096    104.3222    174.7671   1.0237728626e+02   2.4423498870e+01    0.5054752      0.30022  73.66  0.001828819    2.501    0.600
       221 -10.6770     76.0685    169.5395   1.0833580411e+02   3.0022348854e+01      1.43833    0.5073066 -69.10  0.005010335    3.329    0.700
       222  -8.4796    224.3262    174.4313   7.6401405132e+01   2.2537541923e+00    0.2167899    0.1565386 -49.85 0.0006012845    1.711    0.416
       223  -7.5593    241.3017    174.3178   7.3353700185e+01  -6.3738859395e-01    0.1369294   0.09234728  -0.81 0.0003050292    1.621    0.383
       224  -9.4740    175.8645    172.2945   8.5592056091e+01   1.1700026119e+01     0.343375    0.2608182 -45.84 0.0008817246    1.377    0.274
       225  -8.2566    142.9745    172.7338   9.2969627209e+01   1.7950743260e+01    0.2542779    0.1885651 -68.72 0.0007348657    1.608    0.378
       226  -8.1883    194.3165    172.3407   8.1762644231e+01   8.1380934195e+00    0.1501714    0.1076138   0.49 0.0007048544    1.708    0.415
       227  -8.5638    134.8293    171.9365   9.4697365068e+01   1.9651405421e+01    0.2637639    0.2023885 -81.65 0.0008654637    1.611    0.379
       228  -9.6106    121.3862    170.5621   9.7600955400e+01   2.2415399390e+01    0.3911811    0.2740904 -83.53  0.001187055    1.851    0.460
       229  -9.1611     44.9245    170.8515   1.1589386155e+02   3.3726229014e+01    0.3916501    0.2057778  85.49  0.001445825    2.127    0.530
       230  -8.6076    198.3812    170.4760   8.0555024163e+01   7.7037116603e+00    0.2507535    0.2203819 -35.22 0.0007825305    1.169    0.145
       231  -8.3583    237.1883    169.8879   7.3152365809e+01   7.5240645229e-01    0.1949765    0.1724411 -34.30 0.0006438305    1.259    0.206
       232  -9.1495    230.0876    168.9522   7.4213963845e+01   2.1363758565e+00    0.4490263    0.1610882 -43.14  0.001669953    2.960    0.662
       233  -8.1417    205.6672    170.2402   7.9063825297e+01   6.3684027971e+00    0.2064058    0.1702504 -47.23 0.0006289878    1.364    0.267
       234  -8.5675    149.8506    169.6336   9.0795212943e+01   1.7291738742e+01    0.2719249    0.1958179 -72.06 0.0007079486    1.828    0.453
       235  -7.6817     68.3304    170.6681   1.1035159796e+02   3.0839045022e+01    0.1448809   0.09210777  71.90 0.0007051987    1.721    0.419
       236  -8.4444    244.4032    169.2514   7.1776514378e+01  -3.6737071174e-01    0.1777344    0.1133774 -39.99 0.0003858442    1.571    0.364
       237  -9.1423    167.0705    168.5931   8.6735069562e+01   1.4148452476e+01    0.3064287    0.2388335  74.40 0.0009888234    1.734    0.423
       238  -8.2703     88.7124    168.9035   1.0518011318e+02   2.8284835937e+01    0.2593367    0.1791708 -85.47  0.000823701    1.592    0.372
       239  -8.3439    218.8239    168.2577   7.6129901235e+01   4.2737001488e+00    0.1937978    0.1844924 -22.29 0.0005211588    1.183    0.155
       240  -7.9228    211.3774    168.2160   7.7530782971e+01   5.6557967693e+00    0.1972107    0.1257962 -46.41 0.0005368521    1.721    0.419
       241  -8.6779    111.7176    167.5140   9.9368257103e+01   2.4814707816e+01    0.3490777      0.22238  73.64  0.001212194    2.209    0.547
       242  -8.8329    191.9330    166.6576   8.1054425331e+01   9.6483210799e+00    0.2679135    0.2036403 -43.20 0.0004376726    1.356    0.262
       243  -8.9391    185.1465    166.6769   8.2461967622e+01   1.0970909469e+01    0.2507331    0.1924741 -49.87 0.0007052209    1.423    0.297
       244 -10.0762     95.1024    162.5490   1.0257125018e+02   2.8762243704e+01    0.9441146    0.5507686 -88.98  0.003305095    2.665    0.625
       245  -9.2194     20.7108    166.3930   1.2099596168e+02   3.7253065924e+01    0.3628907    0.1493739  61.54  0.001376056    2.722    0.633
       246  -8.1192     12.5018    166.9827   1.2288198068e+02   3.7843164684e+01    0.1778793   0.07712078  78.70 0.0008095985    2.482    0.597
       247  -8.4637    140.6597    166.3177   9.2255869232e+01   1.9767858809e+01    0.2439435    0.1470297  46.05  0.000865284    1.637    0.389
       248  -9.8086    135.7724    164.0650   9.2957846001e+01   2.1193491007e+01    0.4668805    0.2925706  58.44  0.001108787    1.884    0.469
       249  -8.6353    233.8778    165.1057   7.2728935052e+01   2.0971482849e+00    0.1986577    0.1727859 -37.99 0.0005249901    1.265    0.209
       250  -8.7148    159.4186    164.4813   8.7583570407e+01   1.6497562153e+01    0.2916252    0.2460715 -86.34 0.0008258437    1.481    0.325
       251  -9.5034     33.4954    163.4084   1.1775161217e+02   3.6706490680e+01    0.5403051    0.2088732  57.65  0.002208047    3.114    0.679
       252  -8.8209    245.9965    163.1869   7.0239625369e+01   3.1341615698e-01    0.2280496    0.1705155 -28.49 0.0004548606    1.184    0.155
       253  -8.0026    240.1563    164.1971   7.1443973420e+01   1.1503615403e+00    0.1746631    0.1545796 -43.12  0.000634595    1.339    0.253
       254  -8.6273    212.9380    163.6959   7.6267798073e+01   6.1546986820e+00    0.2656818    0.1924013 -41.31 0.0006043818    1.400    0.286
       255  -8.8695    204.8645    163.0483   7.7688972281e+01   7.8076183479e+00    0.2090092    0.1908114 -50.18 0.0004522356    1.261    0.207
       256  -9.4589      3.2603    162.3282   1.2455812372e+02   3.9644329504e+01    0.3697716     0.156202  57.86  0.001879666    2.368    0.578
       257  -9.0798    151.6617    161.1832   8.8661319152e+01   1.8727753269e+01      0.32333    0.2458926 -78.44 0.0009417025    1.751    0.429
       258  -9.0456    177.4567    160.6504   8.2802133145e+01   1.3671898044e+01    0.2945572    0.2452601 -76.74 0.0009935324    1.570    0.363
       259  -8.9193     60.6895    160.5252   1.1081552002e+02   3.4254221279e+01    0.3479063     0.174938  66.04   0.00142015    2.681    0.627
       260  -9.0372    243.2928    159.4449   6.9901747612e+01   1.3689622132e+00    0.4167149    0.2004281  29.05  0.000892842    2.701    0.630
       261  -9.8514    250.1591    157.8377   6.8419553633e+01   4.4998778679e-01    0.3703383    0.2019653 -37.86 0.0007749274    1.666    0.400
       262  -8.2570    246.5681    155.5249   6.8517004183e+01   1.4293573940e+00    0.2238076    0.1170972 -33.98  0.000461612    1.686    0.407
       263  -8.6062    237.0041    159.2980   7.0944741845e+01   2.4931924315e+00    0.2375977    0.1821126 -51.45 0.0007353355    1.606    0.377
       264  -8.5532    227.3609    159.1195   7.2607599285e+01   4.2606484825e+00    0.2816622    0.1905719 -50.17  0.001074948    1.764    0.433
       265  -9.8067    106.0261    158.3100   9.9096073959e+01   2.7931193689e+01    0.5253955    0.3330841  73.39  0.001650548    2.234    0.552
       266  -8.2754    128.1246    158.8956   9.3761253627e+01   2.3796530452e+01     0.228533    0.1944714  81.55 0.0004998257    1.302    0.232
       267  -8.4193    196.6524    158.0464   7.8232293413e+01   1.0333963966e+01    0.2287506    0.1759257 -51.09 0.0007296695    1.451    0.311
       268  -8.3163    188.2507    157.8215   7.9903424280e+01   1.2055217250e+01    0.2602051    0.1729903 -43.66 0.0006277737    1.515    0.340
       269  -9.2994    167.5629    157.3079   8.4236910939e+01   1.6346223460e+01    0.3320382    0.2700542 -77.77 0.0007973515    1.597    0.374
       270  -8.5250    218.0321    156.6044   7.3766297293e+01   6.4345822100e+00    0.2663072    0.1836229 -48.91 0.0007505935    1.636    0.389
       271  -8.6880    157.6677    156.3530   8.6257628254e+01   1.8551646138e+01    0.2529446    0.2263695 -89.21 0.0005904043    1.295    0.228
       272  -9.2810    119.5670    155.3145   9.5146136476e+01   2.6210466474e+01    0.4400457    0.2850315 -75.77  0.001466936    2.056    0.514
       273  -9.4989     81.7446    155.0031   1.0465904649e+02   3.2646082372e+01     0.488099    0.2940139  74.41  0.001527838    2.275    0.561
       274  -9.4075     49.9493    155.5953   1.1281960797e+02   3.6758231595e+01    0.4511106    0.2233196  64.30  0.001710934    2.585    0.613
       275  -8.1828    237.4190    150.4754   6.8959548940e+01   3.8723010618e+00     0.191046    0.1273263  30.87 7.090508e-05    1.633    0.388
       276  -9.0040    242.7261    155.0535   6.9056134301e+01   2.1741395104e+00    0.1975382    0.1696456 -35.61 0.0003853836    1.208    0.172
       277  -9.9645    242.5151    150.1094   6.8019831535e+01   3.0150883873e+00    0.3465203     0.302102  83.00  0.002003584    1.688    0.407
       278  -9.0637    240.4463    145.4853   6.7350380245e+01   4.1486295126e+00    0.2637569    0.1727712 -46.69 0.0005389836    1.632    0.387
       279  -9.4978    242.6962    143.3277   6.6500680357e+01   4.0953783461e+00    0.4853126    0.1845323 -27.05  0.001665125    3.270    0.694
       280  -7.9386    204.6451    155.2666   7.6028038944e+01   9.2680167056e+00    0.1981918    0.1297248 -29.60 0.0005842401    1.516    0.340
       281  -8.5725    144.6354    155.0607   8.9010038296e+01   2.1446938852e+01    0.3329733    0.2079817  57.73  0.001021983    1.903    0.475
       282  -9.7830    132.9028    152.9674   9.1384413207e+01   2.4220544587e+01    0.4627196     0.336306  80.02  0.001345929    1.891    0.471
       283  -9.1845    133.5806    148.2205   9.0206151523e+01   2.5161228935e+01    0.3517767    0.2524773 -48.93  0.001196755    1.383    0.277
       284  -9.5087     68.0155    153.7210   1.0796857543e+02   3.4922325986e+01     0.455872    0.2587892  73.91  0.001377839    2.418    0.586
       285  -8.1599    232.7723    153.9277   7.0518136475e+01   4.1435005408e+00    0.2160915    0.1518408 -56.89 0.0008382903    1.951    0.487
       286  -8.8342    151.8173    152.3828   8.6744276241e+01   2.0586327260e+01    0.2987685    0.1777882 -37.48  0.001252873    1.805    0.446
       287 -10.3148    149.0192    145.1339   8.5788196920e+01   2.2736477325e+01    0.6126483    0.4198832 -86.41  0.001587039    2.482    0.597
       288  -9.3062     20.1674    152.7248   1.1981550935e+02   4.0485972399e+01    0.1920189    0.1269739  62.83 0.0005672243    1.491    0.329
       289  -8.9102      8.6565    153.4158   1.2261192643e+02   4.1272947864e+01    0.2038791    0.1033985  36.18  0.001137508    2.155    0.536
       290  -9.7649     29.2447    150.4022   1.1734480981e+02   4.0206346800e+01    0.5655004    0.2565511  81.97   0.00231827    2.945    0.660
       291  -9.6981    248.7719    149.6286   6.6886518424e+01   1.9896924767e+00    0.3543571    0.1926379 -33.99 0.0008119363    1.606    0.377
       292  -9.0548    246.9714    143.8982   6.5929336693e+01   3.2316594289e+00    0.2641932    0.1673736 -33.34 0.0005378124    1.376    0.273
       293  -8.9219    189.4842    150.3713   7.7982929308e+01   1.3246857887e+01    0.3159081    0.2491353 -58.40 0.0008039003    1.494    0.331
       294  -8.0985    182.1895    151.1854   7.9697548664e+01   1.4587780649e+01    0.2035771    0.1800093 -77.33 0.0005237072    1.387    0.279
       295  -8.3345    162.6696    150.7339   8.3883068815e+01   1.8715385058e+01    0.2922134    0.1813863 -65.22 0.0009790335    2.357    0.576
       296  -8.1667    145.5187    151.5200   8.8038370643e+01   2.2047261442e+01    0.2767332    0.1395961  52.69  0.001033468    2.281    0.562
       297  -8.5366     98.1959    150.6342   9.9648577726e+01   3.1079733720e+01     0.301739     0.211148 -89.70 0.0009284677    1.776    0.437
       298  -8.2577    212.7612    149.9236   7.3270357163e+01   8.6410786896e+00    0.2022616    0.1736052 -30.22 0.0003902009    1.100    0.090
       299  -8.8420      2.8131    150.2119   1.2370408115e+02   4.2448385728e+01    0.2112883   0.08555645  65.21 0.0009515806    2.832    0.647
       300  -8.6043    198.8665    149.0831   7.5781716713e+01   1.1576696825e+01     0.218211     0.199439 -64.96 0.0005593442    1.292    0.226
       301 -10.0089     89.1143    146.2178   1.0118731829e+02   3.3626237671e+01    0.6565467    0.3746196  88.07  0.002365941    3.168    0.684
       302 -10.0775     39.5729    147.6518   1.1440426203e+02   3.9829478745e+01    0.5434662    0.2628873  67.03  0.002066137    2.784    0.641
       303  -9.4314    233.9972    146.3606   6.8637304700e+01   5.1907033858e+00    0.6130894    0.2344526 -25.82  0.001937715    3.845    0.740
       304  -9.1848     78.3278    147.5730   1.0427570351e+02   3.4952263077e+01    0.3067656    0.2101282  76.07 0.0008896114    1.737    0.424
       305 -10.5634     54.1842    143.4690   1.0999982355e+02   3.9195548155e+01    0.9829101    0.4826758  85.07  0.003511687    3.565    0.720
       306  -9.1074     57.0303    135.4972   1.0795583116e+02   4.0801989936e+01    0.2629088    0.2091365  33.27  0.001370509    1.444    0.307
       307  -8.2570    223.2975    146.9701   7.0658936349e+01   7.1134429994e+00    0.2037335    0.1694648 -27.57 0.0003729281    1.094    0.086
       308  -8.1740    206.7947    146.5774   7.3652443191e+01   1.0439636353e+01    0.2317152    0.1706468 -41.24 0.0006439878    1.327    0.247
       309  -9.9613    139.0082    145.1113   8.8193350193e+01   2.4781605686e+01    0.4554038    0.3008514 -72.87  0.001156068    2.159    0.537
       310  -9.5012     13.4757    146.4176   1.2081016655e+02   4.2529497113e+01    0.3362698    0.1802622  68.05  0.001176095    1.963    0.491
       311  -8.1234    175.5139    146.4633   8.0057304147e+01   1.6925451333e+01    0.2451929    0.1459559  55.71 0.0006323717    1.995    0.499
       312  -8.8718    165.4774    144.1858   8.1757450847e+01   1.9506519389e+01    0.2723209    0.2426307  67.26 0.0006333587    1.256    0.204
       313  -9.8948    125.0847    142.8688   9.1159742170e+01   2.8045225803e+01    0.5555693    0.3600608 -82.66  0.001397285    2.515    0.602
       314 -10.6485     69.5352    141.3077   1.0553107258e+02   3.7738411792e+01    0.6421761    0.4388488 -61.03  0.002373079    1.319    0.242
       315  -9.5886     68.8955    134.6804   1.0452621005e+02   3.9453039634e+01    0.4624538    0.2823931   5.64  0.001876595    3.065    0.674
       316  -7.7254    194.3507    144.1418   7.5556203250e+01   1.3447047884e+01    0.2124819    0.1322262 -49.01 0.0004306244    1.720    0.418
       317  -9.7615      2.7104    141.5817   1.2298526498e+02   4.4456202126e+01    0.4211504    0.1959828  78.97  0.002076341    2.249    0.555
       318 -10.4041    106.8502    144.0433   9.6102424681e+01   3.1158427680e+01     0.861809    0.5673975 -81.24  0.002336335    2.058    0.514
       319  -8.4446    182.1145    141.7562   7.7541699975e+01   1.6484955906e+01    0.2606389    0.2019129 -53.17 0.0005725359    1.395    0.283
       320  -8.4346    250.5037    140.9502   6.4718302384e+01   3.0801640234e+00    0.2055165     0.117279 -35.29 0.0005111141    1.516    0.341
       321 -10.0069     23.5010    138.3155   1.1739438592e+02   4.3624480292e+01    0.5010065    0.2427596  68.05  0.001849398    2.626    0.619
       322  -7.9393    218.6183    138.7666   6.9637258286e+01   9.4838429729e+00        0.202    0.1270479 -43.64 0.0004346264    1.558    0.358
       323  -8.6969    172.3163    138.4470   7.8882562089e+01   1.9248127282e+01     0.321597    0.2428664 -88.22 0.0008989212    1.981    0.495
       324  -9.3666    139.2539    137.9975   8.6513320218e+01   2.6330261216e+01    0.5110309    0.3261761   4.93  0.001750745    3.277    0.695
       325  -8.2423    207.4960    138.0162   7.1536665699e+01   1.1881583900e+01    0.2245698      0.13786 -40.04 0.0005606453    1.542    0.351
       326  -8.6169    197.6129    137.5438   7.3353835488e+01   1.4031798063e+01    0.2870674    0.2101121 -53.46 0.0007727043    1.525    0.344
       327  -8.2669    241.5588    137.2798   6.5340445420e+01   5.3067176705e+00    0.2066763    0.1207809 -25.21 0.0009583418    1.691    0.409
       328  -9.3777     39.0616    136.2833   1.1299244417e+02   4.2642548696e+01    0.2847723    0.1799899  83.82 0.0008442508    1.710    0.415
       329  -8.9744    248.3569    135.4253   6.3836633927e+01   4.3623602162e+00    0.3006778     0.189787 -44.39  0.000817672    1.556    0.357
       330  -8.5523    246.8172    130.3224   6.2937470903e+01   5.4818470822e+00    0.2386888    0.1617771 -40.15 0.0005548422    1.337    0.252
       331  -7.5740    192.3335    136.6575   7.4206806159e+01   1.5320789102e+01    0.1542235    0.1215888 -76.75 0.0007050767    1.757    0.431
       332  -8.0735    162.4279    136.2793   8.0588631934e+01   2.1825383208e+01    0.2139788    0.1461991 -54.23 0.0007047882    1.581    0.367
       333  -8.6609    151.4887    135.5322   8.2965197423e+01   2.4322658684e+01    0.3195436    0.1536845  44.68   0.00119309    2.112    0.527
       334 -10.3514     83.3673    132.8194   1.0014358960e+02   3.7790112139e+01    0.5482556    0.3390863 -75.04  0.001342602    1.892    0.471
       335  -7.9595    237.5883    133.7893   6.5204406212e+01   6.6398233610e+00    0.2021846    0.1181355 -43.76  0.000939498    1.653    0.395
       336  -7.8515    231.2887    133.9917   6.6306234737e+01   7.8193458213e+00    0.1783948    0.1160508 -34.80 0.0003898087    1.379    0.275
       337  -8.5147    179.3812    133.9246   7.6257990549e+01   1.8648855859e+01    0.2903695    0.2282784 -69.77  0.001034446    1.617    0.382
       338 -10.1793    132.4256    131.3129   8.6647788540e+01   2.9241724462e+01    0.6510203    0.4492849 -78.08  0.002097007    2.109    0.526
       339  -9.0874    113.0073    133.4630   9.2201003954e+01   3.2546675857e+01    0.3958164    0.2825248  74.96  0.001485997    1.882    0.469
       340 -10.3926     98.1101    130.1086   9.5486884778e+01   3.6030297855e+01    0.7350524    0.2860007 -55.87  0.001660392    2.509    0.601
       341  -8.6404    100.3341    119.9791   9.2547470945e+01   3.8067377160e+01    0.5568476    0.2845207  18.57  0.001631402    4.626    0.784
       342  -9.4178    142.9843    131.5302   8.4060298273e+01   2.7003232108e+01    0.3933202    0.2539702 -61.97 0.0009780227    1.870    0.465
       343  -9.0763    250.6441    129.9838   6.2268893337e+01   4.8322215215e+00    0.4237338    0.1156901 -35.03  0.001414475    3.233    0.691
       344  -9.3399    168.4111    129.7147   7.7633974318e+01   2.1908680440e+01    0.3663591    0.2608637 -66.16 0.0008183644    1.829    0.453
       345  -9.9293     73.2979    129.0471   1.0222147092e+02   4.0217815392e+01    0.5143775    0.2816264 -72.82  0.001535672    2.112    0.526
       346 -10.2261     12.8228    128.7302   1.1908852526e+02   4.6773085677e+01    0.6192182    0.2762099  89.78  0.002656718    2.480    0.597
       347  -8.0277    220.5123    130.0254   6.7257597650e+01   1.0664544572e+01    0.2002057    0.1166184 -56.07 0.0006277604    2.312    0.568
       348  -8.1691    211.7863    129.3392   6.8676323879e+01   1.2591628111e+01     0.282733    0.1838939 -56.40  0.000996679    1.904    0.475
       349  -7.8979    204.5005    130.4874   7.0323145270e+01   1.3913475416e+01    0.1499392    0.1402351 -30.09 7.751952e-05    1.037    0.036
       350  -7.9818    192.6144    130.2773   7.2612916002e+01   1.6502346798e+01    0.2074163     0.140217 -29.51 0.0003785687    1.507    0.337
       351  -9.3502    152.6764    128.8377   8.1054766765e+01   2.5527349664e+01    0.5067918    0.2760649 -55.53  0.001138954    2.146    0.534
       352  -8.0502    153.6828    123.6204   7.9508735672e+01   2.6437937493e+01     0.285335    0.1958656 -22.39  0.001190655    1.827    0.453
       353  -8.0420      1.7510    130.5048   1.2218804773e+02   4.7108622802e+01    0.1528763   0.09877095  50.15 0.0006730264    1.703    0.413
       354 -10.4373     60.0240    125.1403   1.0527746332e+02   4.2973811361e+01    0.7653902    0.4312042  83.26  0.002476526    2.968    0.663
       355 -10.7869     45.0040    123.7575   1.0938150549e+02   4.5080020409e+01     1.071153    0.5428359  79.15   0.00388177    3.699    0.730
       356  -9.9847    118.0659    125.2258   8.8929805788e+01   3.3515218909e+01    0.6008008    0.4309138  89.64  0.001669108    2.025    0.506
       357  -8.4413    233.3359    125.6405   6.4033936814e+01   8.8548287503e+00    0.1468762    0.1074005 -63.61 0.0007039186    1.812    0.448
       358  -7.7443    228.4849    125.4801   6.4807079754e+01   9.8507925655e+00    0.1449121    0.1296725 -35.41 0.0001959756    1.065    0.061
       359  -8.9716    179.3147    124.7687   7.4015490202e+01   2.0514463329e+01    0.2994784    0.2429671 -76.88 0.0006535645    1.571    0.364
       360  -8.7322     84.4818    123.4036   9.7853276701e+01   3.9910463266e+01    0.4317788     0.297001 -14.38  0.001875859    2.288    0.563
       361 -10.3745     28.6033    122.6958   1.1393190429e+02   4.6951672044e+01    0.6700836    0.3258097  77.58  0.002663015    3.270    0.694
       362  -8.3595    243.6277    124.2544   6.2061410777e+01   7.0872887993e+00    0.1952223    0.1189998 -27.68 0.0003735154    1.544    0.352
       363  -8.9035    145.0497    124.3078   8.1769362442e+01   2.8164683159e+01    0.2143703    0.2011532  50.63  0.000325325    1.096    0.088
       364 -10.0784    130.9687    118.6635   8.3891277994e+01   3.2414205480e+01    0.6083356    0.3980338  88.54  0.002029433    2.990    0.666
       365  -9.5985    201.6149    122.3643   6.8898652359e+01   1.6063030052e+01    0.3029639    0.2612545  36.43 0.0006815378    1.222    0.182
       366  -9.1126    158.5933    121.7096   7.7865721308e+01   2.5763424642e+01    0.3855967    0.2748871 -73.75 0.0009128137    2.000    0.500
       367  -7.9196    195.0878    122.1601   7.0119293863e+01   1.7532620930e+01    0.2069016    0.1767215 -62.58 0.0004259442    1.315    0.240
       368  -8.6664    172.0508    121.7029   7.4814981202e+01   2.2759717998e+01    0.2559867    0.2107235 -56.68 0.0004348788    1.295    0.228
       369  -9.5022     71.0372    119.9832   1.0103488137e+02   4.2760079543e+01    0.3732009    0.2533398  86.09  0.001099629    1.970    0.492
       370  -8.1079    188.9079    124.0319   7.1827831598e+01   1.8533594107e+01    0.2388006    0.1886248 -78.41  0.000725812    1.697    0.411
       371  -9.9367    141.4781    118.5540   8.1185672038e+01   3.0203778211e+01    0.5042025    0.3125469 -61.87  0.001084385    2.047    0.512
       372  -9.8169      3.0780    117.2189   1.2042720092e+02   5.0151454608e+01    0.5299202    0.2407469  75.21  0.002375439    2.892    0.654
       373  -7.8711    231.2183    117.4339   6.2457018984e+01   1.0692590413e+01    0.1781976     0.141989  72.44 0.0006734096    1.607    0.378
       374  -7.5614    219.3228    116.3076   6.4185496235e+01   1.3362580186e+01    0.1483863    0.1129318   4.90 0.0007034893    1.645    0.392
       375  -8.2304    185.7073    116.1200   7.0482707634e+01   2.0801721161e+01    0.2495335    0.1827929 -53.39 0.0006472709    1.456    0.313
       376  -9.8859    109.3532    114.2949   8.8608347235e+01   3.7744092068e+01    0.5328873    0.3621117 -79.91  0.001615108    2.201    0.546
       377  -9.3833    109.8785    107.4088   8.6669684852e+01   3.9233479418e+01    0.4262941     0.287854  -5.66  0.001644191    2.513    0.602
       378  -8.6632     59.1639    115.3877   1.0363150994e+02   4.5472537436e+01    0.3075926    0.2000545  -8.75   0.00137519    2.504    0.601
       379  -8.9042    249.7482    114.4640   5.8899906973e+01   7.5322538615e+00    0.3530331    0.2108649 -59.78  0.001567649    2.355    0.575
       380  -8.3057    192.9535    115.1965   6.8788085634e+01   1.9346219563e+01    0.2308637    0.1998333 -62.09 0.0004708834    1.264    0.209
       381  -8.4955    167.4948    114.9156   7.4071337990e+01   2.5182838694e+01    0.2435188    0.1517028 -41.73  0.001019718    1.554    0.357
       382  -7.7395    153.2719    115.6200   7.7540200107e+01   2.8245949876e+01    0.1627833    0.1238761 -73.26 0.0006996889    1.697    0.411
       383 -10.1196     92.8926    112.8314   9.2960998316e+01   4.1068545625e+01    0.5166366    0.3683559 -77.63  0.001402646    1.772    0.436
       384  -8.9837     92.6540    105.9906   9.1312074900e+01   4.2722932850e+01    0.5268813    0.3437244  -7.50  0.002053541    2.722    0.633
       385  -9.9965     78.8706    112.5687   9.7062991241e+01   4.3406410973e+01    0.6064949    0.3918065 -85.01  0.001781581    2.301    0.565
       386  -8.8126     78.7992    105.4010   9.5370640865e+01   4.5131494225e+01    0.4033178    0.2400234  17.23  0.001598034    2.467    0.595
       387 -10.2873    122.1102    112.1863   8.4552983191e+01   3.5710061580e+01    0.5533178    0.3511836 -45.56   0.00192997    1.516    0.340
       388  -8.7120     26.8902    113.8090   1.1308346372e+02   4.9251746660e+01    0.1987368    0.1508013 -48.91 0.0007514917    1.275    0.216
       389 -10.5229    133.5833    109.7882   8.0878659244e+01   3.3839350871e+01    0.7279425    0.3619895 -47.09  0.002040609    1.971    0.493
       390  -9.9829     14.3516    111.3748   1.1644881761e+02   5.0806492534e+01    0.4307353    0.2286632  77.77  0.001933476    2.419    0.587
       391  -7.7822    199.7804    111.9985   6.6653788752e+01   1.8419439371e+01    0.2044342    0.1187616 -37.53            0    1.619    0.382
       392  -8.4955    174.7608    111.8851   7.1681567180e+01   2.4137482623e+01    0.2892946      0.20465 -56.59 0.0006708575    1.583    0.368
       393  -8.6252    159.1900    111.7805   7.5131913074e+01   2.7721660334e+01    0.2733703    0.2063745 -52.49 0.0005486139    1.369    0.269
       394 -10.2533     66.3950    109.5465   1.0017609256e+02   4.5942141871e+01    0.6810178    0.3458258 -57.82  0.002462404    1.756    0.431
       395  -8.0036    150.0000    110.0131   7.6831370545e+01   3.0173188445e+01     0.262325   0.08852232 -42.37 0.0004636267    2.883    0.653
       396  -9.6809    249.2221    108.0798   5.7515219709e+01   8.6744536471e+00    0.3689184    0.2755576 -28.31  0.001310447    1.217    0.178
       397 -10.6280    249.1487    102.4729   5.6235241087e+01   9.5988930245e+00    0.5001901    0.3852053  -4.73  0.002709641    1.571    0.363
       398  -9.1727     43.2319    109.5127   1.0735560075e+02   4.8744207912e+01    0.3006551    0.1428725  21.35  0.001315615    2.764    0.638
       399  -8.1200    189.3909    108.1842   6.7686188338e+01   2.1500412426e+01    0.2227683    0.1366139 -47.87  0.000499786    1.649    0.393
       400 -10.0278    119.2215    105.7920   8.3626676722e+01   3.7741400179e+01    0.4298746    0.2882898 -47.43  0.001535704    1.436    0.304
       401  -9.4133    139.8017    104.7178   7.7901603319e+01   3.3582422896e+01    0.4002825    0.3001871 -75.56 0.0009427891    1.789    0.441
       402 -10.4963     45.5571    102.3529   1.0519315264e+02   5.0223941614e+01    0.7623979    0.4373839  75.04  0.003085815    3.153    0.683
       403  -8.8955     46.0708     92.8756   1.0294970214e+02   5.2419938650e+01    0.4140154    0.2292935   7.03  0.001813489    2.819    0.645
       404 -10.6054     22.8751    102.7069   1.1250643235e+02   5.2244493855e+01    0.7072703    0.3780407  77.13  0.002752687    2.887    0.654
       405  -8.7479    166.8135    104.4505   7.1425871194e+01   2.7468030427e+01    0.3100066    0.2150372 -48.47 0.0006761548    1.452    0.312
       406  -9.4920    150.6328    103.1927   7.4811680956e+01   3.1463736377e+01    0.5094619    0.3204499 -63.19   0.00139598    2.179    0.541
       407  -9.2385      7.0625    103.6022   1.1755145290e+02   5.3122252733e+01     0.231913    0.1770226 -88.14  0.001045833    1.240    0.194
       408  -9.9888    128.4189    102.1950   8.0146584367e+01   3.6611143623e+01    0.3744445    0.2888368 -71.93 0.0007457274    1.620    0.383
       409  -9.0898    108.6851     92.3594   8.2812149593e+01   4.2833998829e+01    0.5927824    0.2795498  29.73  0.001992422    3.109    0.678
       410  -7.7041    175.5471    102.4278   6.8987574154e+01   2.5828553337e+01    0.1554061    0.1490511 -54.97 0.0001477416    1.049    0.047
       411  -8.4034    159.8298    101.0846   7.2071591511e+01   2.9772966815e+01    0.2448167    0.2103751 -69.08 0.0005501197    1.303    0.232
       412  -9.2318     82.1213    100.1090   9.3000447842e+01   4.5854158340e+01    0.3527435    0.2526201 -75.79 0.0008674376    1.767    0.434
       413 -10.2747     63.8118     96.2907   9.7874081635e+01   4.9452999656e+01    0.6647024     0.398231 -73.97  0.001917471    2.219    0.549
       414  -8.0940     91.1827     98.8016   8.9857148161e+01   4.4644741372e+01    0.2027769    0.1641784 -28.09 0.0003686347    1.296    0.229
       415  -9.3387     95.0586     97.0930   8.8210124570e+01   4.4352004821e+01    0.3366214    0.2616526 -62.14 0.0005939326    1.370    0.270
       416 -10.5690    109.0183     99.0234   8.4624084494e+01   4.1298174434e+01    0.7781401    0.4896345  71.64  0.001608315    2.888    0.654
       417  -8.6799    151.0462     95.4683   7.2534287441e+01   3.2953161483e+01    0.2340261    0.1326539  28.00 0.0008095569    2.668    0.625
       418  -7.5595    188.7077     94.3206   6.4139270360e+01   2.4268843034e+01    0.1568867    0.1178406 -67.63 0.0003566509    1.608    0.378
       419  -8.3076    176.3598     93.2808   6.6309769938e+01   2.7396447393e+01    0.2773133     0.185751 -47.63 0.0006045832    1.496    0.332
       420  -8.1251    164.8569     94.1895   6.9011725839e+01   2.9960254678e+01    0.2393775    0.2066216 -66.89 0.0004734394    1.271    0.213
       421  -9.2472    247.1072     93.2121   5.4370272574e+01   1.1498365526e+01    0.2736239    0.1513301  34.47  0.001161458    2.715    0.632
       422  -9.5136    139.0019     91.9624   7.4464588372e+01   3.6435348336e+01    0.4879264    0.3091336 -49.98  0.001416135    1.642    0.391
       423 -10.2194    123.7594     91.3859   7.8285945058e+01   3.9927133167e+01     0.586048    0.4384046  28.55  0.001560929    1.505    0.335
       424  -9.6807      5.0543     92.3065   1.1653442209e+02   5.5878935045e+01    0.3338545    0.1918304  65.24  0.001131571    2.321    0.569
       425  -8.0717    157.7632     91.7704   6.9909863660e+01   3.2114237207e+01    0.2136059    0.1829297 -72.81 0.0004460074    1.331    0.248
       426  -9.7616     34.9151     89.8724   1.0606987924e+02   5.4253357677e+01    0.5170357    0.2788165 -80.91  0.001684412    2.582    0.613
       427  -9.1710     23.1129     89.9947   1.1012394714e+02   5.5229320956e+01    0.3020149    0.2574379 -19.76     0.001519    1.340    0.254
       428  -8.0293    150.9860     89.0209   7.0680289060e+01   3.4252910642e+01    0.2468178    0.1892467 -68.76 0.0005952749    1.613    0.380
       429 -10.1806     86.5937     85.6887   8.7583307709e+01   4.8384205638e+01    0.7576684    0.4487669 -43.45  0.002002846    1.561    0.359
       430  -8.8628     66.6345     86.9881   9.4513142903e+01   5.1214056573e+01     0.520325    0.2427794  20.74  0.001919962    3.335    0.700
       431  -9.1759    248.7092     87.5583   5.2840754742e+01   1.2073261584e+01    0.2472696    0.1305105  52.55  0.001152092    2.158    0.537
       432  -9.9036     48.4016     84.1976   1.0004788851e+02   5.4173910997e+01    0.5180057    0.3434358  89.23  0.002115573    2.431    0.589
       433  -9.0761    125.6341     84.8324   7.5806717203e+01   4.0875955836e+01    0.5530261    0.2556198  32.15  0.001771692    3.256    0.693
       434  -9.7106    104.7365     83.2802   8.1249167747e+01   4.5556771365e+01    0.4714279    0.3192377 -66.84  0.001091188    2.073    0.518
       435  -8.6493    104.9792     77.0349   7.9216521094e+01   4.6797337445e+01    0.3842646    0.2500664  23.75  0.001415937    1.929    0.482
       436  -8.2141    157.9165     84.0830   6.7637001434e+01   3.3558640521e+01    0.2357304    0.2045461 -64.69 0.0004235862    1.250    0.200
       437  -8.8896    140.9384     83.0475   7.1318141772e+01   3.7771349422e+01    0.3481232    0.2178096 -48.40 0.0007239543    1.661    0.398
       438  -7.5562    170.5308     83.5172   6.4755447400e+01   3.0619943678e+01    0.1556812    0.1482467 -59.75  0.000125501    1.053    0.050
       439  -9.5554      9.9793     81.2075   1.1299316084e+02   5.8155069342e+01    0.3875475    0.2109389  63.93  0.001665893    2.949    0.661
       440  -8.0888    185.2818     82.6445   6.1592141662e+01   2.7203169812e+01    0.1603509    0.1147036 -64.35  0.000701615    1.662    0.398
       441  -9.6563     24.6312     80.4357   1.0761732005e+02   5.7320982254e+01    0.4518129    0.2605465 -85.04  0.001511628    2.414    0.586
       442  -9.1295     28.6234     71.1538   1.0395035046e+02   5.9082371593e+01    0.6042299     0.228111 -28.02  0.001844486    5.724    0.825
       443  -8.5056    150.0850     80.5209   6.8360978749e+01   3.6103459795e+01    0.3025975    0.2075804 -53.71  0.000830962    1.611    0.379
       444  -9.1450    119.2640     79.7711   7.5975771131e+01   4.3279877552e+01    0.4132885    0.2357449 -44.54   0.00142945    1.728    0.421
       445  -8.8897     74.4697     80.3383   8.9972036265e+01   5.1536062522e+01    0.3289869    0.2168373 -63.54 0.0009829578    1.819    0.450
       446  -7.8977    164.2747     87.6454   6.7272223134e+01   3.1358236662e+01    0.1611679    0.1201925 -66.94 0.0006030874    1.645    0.392
       447  -8.1261    166.8313     79.8156   6.4452597700e+01   3.2194376026e+01    0.2083374    0.1758252 -61.88 0.0004012083    1.270    0.212
       448  -7.9229    184.2061     78.0518   6.0510050958e+01   2.8271075168e+01    0.2073174     0.119265 -34.75 0.0005503579    1.700    0.412
       449  -9.4033    128.0657     75.3650   7.2204558270e+01   4.2202002028e+01    0.3814315    0.2686712 -60.40   0.00072355    1.769    0.435
       450 -10.0189     63.4062     73.4816   9.1733912991e+01   5.4654687449e+01    0.8074533    0.2895872 -57.10  0.002560771    3.483    0.713
       451  -8.6749     64.7488     63.0284   8.7910953051e+01   5.6639341188e+01    0.3239491    0.2038893  -6.82  0.001310835    2.258    0.557
       452  -7.8526    157.2765     76.6402   6.5562058617e+01   3.5092980654e+01     0.160331    0.1187437 -66.13  0.000471266    1.660    0.398
       453  -8.5117    140.3231     75.4274   6.9120878114e+01   3.9367969110e+01    0.2595337    0.1793029 -56.41 0.0007811908    1.689    0.408
       454  -8.4066    203.4741     73.9470   5.6034255969e+01   2.4316972297e+01    0.2256164    0.1410975 -33.13 0.0006468834    1.556    0.357
       455  -9.7397     82.2464     71.9037   8.4737632865e+01   5.2060578374e+01    0.6233014    0.2822793 -49.92  0.002260962    2.236    0.553
       456  -7.9981    163.4296     73.2873   6.3234023258e+01   3.4192457971e+01    0.2172135    0.1398778 -46.62 0.0009370706    1.581    0.368
       457  -7.8694    151.4922     73.4991   6.5897258243e+01   3.7060525481e+01    0.1537425    0.1490438 -63.22 0.0002952022    1.057    0.054
       458  -8.7896    115.4920     72.6436   7.4746392486e+01   4.5488750269e+01    0.3470384    0.1456181 -39.40  0.001201193    2.322    0.569
       459  -9.0598    105.9003     71.8003   7.7243314913e+01   4.7653742285e+01    0.3105203    0.2116488 -51.42 0.0008392126    1.595    0.373
       460  -8.4960     42.3422     72.4455   9.9122876686e+01   5.7479082906e+01    0.2241718    0.1508332 -72.31  0.001154055    1.829    0.453
       461  -7.8057    175.4858     72.5459   6.0591862841e+01   3.1357799760e+01    0.1498909    0.1480246 -48.07 0.0001423892    1.023    0.023
       462  -9.5160     95.0688     70.5302   8.0132883871e+01   5.0030815352e+01      0.60668    0.2355236 -48.37  0.002126954    2.759    0.638
       463  -9.5205     51.4378     69.7712   9.4963682696e+01   5.7020500188e+01    0.4245439    0.2505262 -69.51  0.001325205    2.470    0.595
       464  -8.6342    147.0281     68.4659   6.5347987049e+01   3.9032574951e+01    0.2844141    0.2034747 -50.27 0.0006624969    1.492    0.330
       465  -8.4771    138.7885     66.4821   6.6651676030e+01   4.1350327559e+01     0.298472    0.1859464 -51.69 0.0007639449    1.838    0.456
       466  -8.9086    121.5600     65.9774   7.0873043854e+01   4.5408768730e+01    0.3484154    0.2427412 -61.82 0.0009521485    1.917    0.478
       467  -7.6894    163.6807     65.7047   6.0897492010e+01   3.5432486354e+01     0.154167    0.1179379  21.65    0.0004179    1.611    0.379
       468  -8.9563    110.1468     63.8572   7.3332336791e+01   4.8275436394e+01    0.3125683    0.2286405 -54.76  0.000672175    1.607    0.378
       469  -8.8095     37.3213     64.4753   9.8778745582e+01   5.9726312408e+01    0.2555477    0.2062735 -77.00 0.0009546818    1.562    0.360
       470  -8.0806    158.1499     62.0904   6.0923815986e+01   3.7399351839e+01     0.211096    0.1752277 -63.75 0.0004100607    1.326    0.246
       471  -9.0052     16.6685     70.1661   1.0826147952e+02   6.0219161545e+01     0.259252     0.181813 -87.75  0.001016566    1.790    0.441
       472  -9.4167     97.6331     60.5107   7.5907740642e+01   5.1446730110e+01    0.3367406    0.2826329 -18.31  0.001438531    1.155    0.135
       473  -9.6322     73.4095     59.3467   8.3534322671e+01   5.6028756498e+01    0.3824967    0.2323571 -52.99  0.001016531    1.872    0.466
       474  -8.1439     89.0345     59.9872   7.8453503773e+01   5.3189490578e+01    0.2078131    0.1755533 -69.69  0.000667245    1.577    0.366
       475  -7.8369    146.9848     58.9979   6.2340751588e+01   4.0647725214e+01    0.1862193    0.1660411 -31.50 0.0005164302    1.128    0.113
       476  -9.9225     23.5433     56.6216   1.0204235114e+02   6.2635350895e+01    0.4222165    0.2749617 -86.73  0.001949786    2.675    0.626
       477  -8.2164    130.8363     58.0611   6.5816582561e+01   4.4664732907e+01    0.2286699     0.198621 -61.88 0.0005407035    1.311    0.237
       478  -9.5450      7.4057     57.1897   1.0886473712e+02   6.3614648466e+01    0.2673891    0.1907917 -81.44 0.0009833442    1.663    0.399
       479  -8.3175    140.0159     56.0354   6.2947700051e+01   4.2816677768e+01    0.2361594    0.1775735 -64.44 0.0005081819    1.655    0.396
       480  -9.1134    119.0407     55.1340   6.7842307791e+01   4.7856621548e+01    0.4507626    0.2094764 -44.84  0.001466336    2.365    0.577
       481  -9.3744     54.2018     55.2242   8.9211582980e+01   5.9659172281e+01    0.3063116    0.2090226 -59.45  0.001022104    1.797    0.444
       482  -8.7550     44.1641     55.6800   9.3325095550e+01   6.0811660339e+01     0.249237    0.1923607 -70.66 0.0008644276    1.761    0.432
       483  -8.5021    105.7834     53.4961   7.0954740327e+01   5.1017026027e+01    0.2554178    0.2316517 -48.91 0.0007180626    1.234    0.189
       484  -8.4717     74.5621     52.3181   8.0589824819e+01   5.7152289561e+01    0.3878241    0.2239532   1.94  0.001477899    3.184    0.686
       485  -9.4881     92.3851     50.7490   7.4019706560e+01   5.4198023196e+01     0.406848    0.2316937 -46.24  0.001148698    1.940    0.484
       486  -8.9427     93.1168     42.5502   7.0672840732e+01   5.5389826070e+01    0.3622859    0.2198856 -13.98  0.001268618    2.005    0.501
       487  -8.9029    144.8542     49.0417   5.9557095146e+01   4.2728016395e+01    0.2439235    0.1543545 -55.18 0.0005927423    1.937    0.484
       488  -8.4764    129.5461     49.0510   6.3052527018e+01   4.6409977244e+01    0.2165592     0.143018 -32.06 0.0004357909    1.530    0.346
       489  -8.7452    120.9298     47.7090   6.4726266552e+01   4.8616768333e+01    0.2440298    0.2031062 -27.24  0.000550518    1.205    0.170
       490  -8.3484    112.1621     46.7785   6.6711411002e+01   5.0729787858e+01     0.242816    0.1856749 -41.62 0.0006470795    1.385    0.278
       491  -8.9397     82.2085     46.5894   7.5776597585e+01   5.6816941597e+01     0.256543    0.2186133 -65.77 0.0006255035    1.625    0.385
       492  -8.3646     44.9530     44.6873   8.9126046601e+01   6.2842405959e+01    0.2349712    0.1667428 -46.08 0.0005750901    1.365    0.268
       493  -8.8808     16.5703     44.6940   1.0144998526e+02   6.5605593514e+01      0.21787    0.1781324 -62.57 0.0008334066    1.381    0.276
       494  -8.8277    132.7153     43.6534   6.0432607550e+01   4.6461522395e+01     0.273797     0.196448 -69.00 0.0006743079    1.926    0.481
       495  -9.0613     58.2777     42.8069   8.3023049374e+01   6.1396078546e+01    0.2795096    0.1943541 -55.87  0.001044252    1.919    0.479
       496  -9.5753      5.2818     42.3098   1.0582598170e+02   6.6808675942e+01    0.3393845    0.1958041 -76.47  0.001450174    2.433    0.589
       497  -9.3635     69.5203     41.5667   7.8271485662e+01   5.9858679047e+01    0.3429993    0.2293935 -51.50  0.001053388    1.900    0.474
       498  -8.5563    106.0146     41.5377   6.6466270835e+01   5.2866291303e+01    0.2660415    0.1840213 -45.36 0.0007291457    1.635    0.389
       499  -8.7967     36.7752     40.7165   9.1112260607e+01   6.4523672993e+01    0.2405367    0.1578651 -52.50 0.0007736843    1.625    0.385
       500  -8.7049     95.1894     37.8012   6.8180294698e+01   5.5689888115e+01    0.2374871    0.1791653 -40.11 0.0007799713    1.434    0.303
       501  -7.9411     80.5986     36.7856   7.2437555816e+01   5.8680109276e+01    0.1850233    0.1201485 -41.77  0.000513578    1.667    0.400
       502  -9.6054     26.1935     35.3732   9.3830547655e+01   6.6582946605e+01    0.3433657    0.2055746 -53.67 0.0009881506    1.738    0.425
       503  -8.3254    125.9770     35.5827   5.9137382352e+01   4.9182431140e+01     0.208659    0.1874888 -15.71 0.0001534761    1.137    0.121
       504  -8.7567    112.0393     34.7023   6.2243580162e+01   5.2510765825e+01    0.2301852    0.1884522 -41.04 0.0006516863    1.341    0.254
       505  -8.4450    119.2073     33.3184   5.9920291858e+01   5.1062480395e+01    0.2534699    0.1675816 -53.94 0.0006283169    1.969    0.492
       506  -7.8461    140.3033     41.6622   5.8064059436e+01   4.4910483387e+01    0.1487737    0.1114669 -66.25 0.0003416557    1.670    0.401
       507  -9.0784     48.5637     33.3338   8.3113616628e+01   6.4370431608e+01    0.2762879    0.1866499 -39.50 0.0008049337    1.414    0.293
       508  -8.8522     60.7228     32.5811   7.7884137270e+01   6.2718698099e+01    0.2341897    0.1905614 -37.11 0.0006175956    1.336    0.251
       509  -8.9198     72.2922     31.2969   7.3031523188e+01   6.0993413570e+01    0.2258926    0.1879413 -68.86  0.000603264    1.940    0.484
       510  -7.9636    139.2851     31.6649   5.4860471472e+01   4.6483085714e+01     0.143024    0.1073998 -63.69 0.0003653967    1.624    0.384
       511  -7.8560    133.8361     31.4025   5.5900472305e+01   4.7842373773e+01     0.199565    0.1200881  47.61 0.0004222977    1.562    0.360
       512  -8.9910     12.9117     30.3628   9.8273470594e+01   6.8613895719e+01    0.2684645    0.1479527 -55.76  0.001064612    1.786    0.440
       513  -8.2524    101.7414     29.7612   6.3092637031e+01   5.5426788362e+01    0.1766452    0.1624649 -60.11 0.0006247188    1.351    0.260
       514  -8.1219     41.9907     30.0021   8.4518652686e+01   6.5776253241e+01    0.1555558    0.1201493 -23.30 0.0004572505    1.075    0.070
       515  -8.9313     81.5240     27.5260   6.8269906154e+01   5.9831578158e+01    0.2627502    0.2032775 -53.59 0.0008922595    1.799    0.444
       516  -8.9115      3.7561     27.9140   1.0194921742e+02   6.9671519150e+01    0.1941901    0.1412122 -62.82  0.000713693    1.580    0.367
       517  -9.0273     91.6443     26.4008   6.4632407270e+01   5.7977479888e+01    0.2879497    0.2102087 -45.49 0.0009337505    1.675    0.403
       518  -7.8539    145.6956     26.3042   5.1795904454e+01   4.5549874122e+01    0.1409914    0.1055711 -67.78 0.0003133458    1.598    0.374
       519  -8.2394    104.2168     23.1408   5.9782561235e+01   5.5705915242e+01    0.1777486    0.1618982 -58.34 0.0005160577    1.355    0.262
       520  -8.9062     63.5240     21.0294   7.1701165438e+01   6.3930744908e+01     0.273899    0.1940126 -47.47 0.0009425032    1.935    0.483
       521  -8.9165     48.3466     21.9057   7.8164388985e+01   6.6172742242e+01    0.2083843    0.1866716  -4.92 0.0006348573    1.229    0.186
       522  -8.4583    120.9630     21.0642   5.4941174447e+01   5.2128868014e+01     0.208533    0.1629007 -67.13 0.0006572966    1.653    0.395
       523  -8.4339     19.2635     21.2263   9.1428436538e+01   6.9690144800e+01    0.1473282    0.1282724 -39.12   0.00106065    1.395    0.283
       524  -8.3071     11.8447     20.8289   9.5063985598e+01   7.0383162394e+01    0.1410018    0.1240059 -34.44 0.0004785039    1.329    0.248
       525  -8.8695     74.2306     19.5938   6.7229065906e+01   6.2222822946e+01    0.2407941    0.1998237 -52.87 0.0006937197    1.707    0.414
       526  -8.8020    132.0240     19.0125   5.1881795403e+01   4.9711714029e+01    0.2028867    0.1847111  40.95 0.0003088973    1.031    0.030
       527  -8.3699     87.7558     17.4542   6.1995232996e+01   5.9845116107e+01      0.22028    0.1490154 -33.77 0.0005509842    1.599    0.375
       528  -8.1648     38.6922     18.3418   8.0733455060e+01   6.8001545122e+01    0.1588507    0.1455921 -56.13 0.0007149797    1.754    0.430
       529  -8.0735    112.6433     16.8351   5.5210467122e+01   5.4511496478e+01    0.1777415    0.1191681 -34.35 0.0003398368    1.617    0.382
       530  -7.9577     30.0580     16.0694   8.3704256506e+01   6.9389068315e+01    0.1589554    0.1453952 -49.96  0.001115765    1.708    0.414
       531  -7.5529      1.6759     16.7199   9.8796717476e+01   7.1796891353e+01     0.116978   0.06180641 -27.28 0.0002205969    1.591    0.371
       532  -8.0595     97.3349     15.2604   5.8375097019e+01   5.8077913029e+01    0.1813439    0.1137929 -32.11 0.0006025058    1.700    0.412
       533  -8.1674     17.1588     14.1433   8.9306968709e+01   7.1024438491e+01    0.1435591    0.1223624 -28.19 0.0004844944    1.322    0.244
       534  -9.1085    232.7907    247.1340   8.8103219913e+01  -9.3068472266e+00    0.2717951    0.1708633 -37.79  0.001054756    1.972    0.493
       535 -10.1169    224.0383    244.4863   8.9209199098e+01  -7.7748104442e+00    0.4570105    0.2275577 -44.81  0.002391751    2.902    0.655
       536  -9.2566    211.0605    246.6888   9.1852699866e+01  -6.1845508376e+00    0.2666066    0.1859421 -56.33  0.001238422    2.594    0.615
       537  -9.0852    175.6485    247.7712   9.8474756627e+01  -1.0076334972e+00    0.2760643    0.2249073  87.08  0.001175806    1.974    0.493
       538  -8.7756    156.1056    248.1177   1.0216581372e+02   1.9638734289e+00    0.2275409    0.1808211  75.16 0.0009206749    1.686    0.407
       539  -8.7402    132.1573    248.1166   1.0665700370e+02   5.6589529899e+00    0.2212297    0.1583466  62.85 0.0008440117    1.482    0.325
       540  -8.3754    113.1305    248.7074   1.1027539035e+02   8.4315363801e+00    0.1929519    0.1470745  89.63  0.001019594    1.508    0.337
       541  -9.2104    242.8412    246.6433   8.6307639782e+01  -1.0602289866e+01    0.3470659     0.141265 -30.08  0.001791491    2.539    0.606
       542  -8.6638    218.5217    247.2979   9.0620139620e+01  -7.3342618323e+00    0.2637268    0.1096462 -36.28  0.001352362    2.693    0.629
       543  -8.1982    203.5286    248.4913   9.3476706220e+01  -5.3108899065e+00    0.1183532   0.09408035  22.97 0.0001118529    1.042    0.040
       544  -9.4805    147.0835    245.6681   1.0354775912e+02   3.7391294555e+00    0.2989224    0.2309171 -84.44  0.001294793    1.809    0.447
       545  -9.0973    120.0818    245.3474   1.0860892193e+02   7.9473578944e+00    0.2789288    0.1775191  74.87  0.001400046    2.085    0.520
       546  -8.4504     67.5911    245.2733   1.1828766257e+02   1.5409557068e+01     0.195454    0.1014638 -78.96 0.0009026403    2.084    0.520
