#   1 NUMBER                 Running object number                                     
#   2 MAG_AUTO               Kron-like elliptical aperture magnitude                    [mag]
#   3 X_IMAGE                Object position along x                                    [pixel]
#   4 Y_IMAGE                Object position along y                                    [pixel]
#   5 X_WORLD                Barycenter position along world x axis                     [deg]
#   6 Y_WORLD                Barycenter position along world y axis                     [deg]
#   7 A_WORLD                Profile RMS along major axis (world units)                 [deg]
#   8 B_WORLD                Profile RMS along minor axis (world units)                 [deg]
#   9 THETA_WORLD            Position angle (CCW/world-x)                               [deg]
#  10 FWHM_WORLD             FWHM assuming a gaussian core                              [deg]
#  11 ELONGATION             A_IMAGE/B_IMAGE                                           
#  12 ELLIPTICITY            1 - B_IMAGE/A_IMAGE                                       
         1  -8.5226    201.2215     11.8189   6.3624717552e+01   3.3606214750e+01    0.1757208    0.1365626  55.61 0.0004288786    1.339    0.253
         2  -8.2758    218.0522     10.9490   6.1632863118e+01   2.9708811813e+01    0.1557847    0.1277879 -86.35 0.0004729181    1.013    0.013
         3  -9.1443    229.3545      9.0942   6.0146105465e+01   2.7302213259e+01    0.2011843    0.1492561  71.58 0.0004743026    1.273    0.215
         4  -8.0563    211.4922      8.4885   6.1733561733e+01   3.1517214095e+01    0.1291705    0.1077348 -89.41 0.0003300313    1.011    0.011
         5  -8.4412    223.4902      5.5611   5.9915266506e+01   2.9032721033e+01    0.1265926    0.1030185 -85.95 3.124998e-05    1.013    0.013
         6  -9.6472    248.9141      3.8602   5.7433286167e+01   2.3539256617e+01    0.2301537    0.1479828 -60.78 0.0009789185    1.322    0.244
         7  -8.8657    240.4917      2.5183   5.7821320803e+01   2.5526175681e+01     0.124038   0.09719844 -78.85 8.900253e-05    1.008    0.008
         8  -9.1423     56.3774    247.0955   1.4321093572e+02   1.6965707496e+01    0.2237842    0.1314257  55.60 0.0008929794    1.367    0.269
         9 -10.8629    232.0633    235.1724   1.0904189201e+02  -9.6024462568e+00    0.8549469    0.4764878  -8.28  0.004058606    2.639    0.621
        10 -11.5946    223.1168    244.2487   1.1219086186e+02  -9.4151921547e+00     0.860641    0.7404874   0.26  0.005991924    1.141    0.124
        11  -9.8902    234.2610    250.5714   1.1123183170e+02  -1.1943116942e+01    0.5039911    0.1292769  40.77  0.001983061    3.417    0.707
        12 -10.3884    234.3636    244.9608   1.1028828928e+02  -1.1250141148e+01    0.5900031    0.3286038  15.24  0.003068986    2.119    0.528
        13 -10.6522    248.8581    249.5527   1.0850871806e+02  -1.3952599798e+01    0.4621182    0.2960382  -5.15   0.00268231    1.593    0.372
        14 -11.2067    243.3235    245.4142   1.0878072286e+02  -1.2647388720e+01    0.6302352    0.3407013 -15.80  0.003364035    2.224    0.550
        15 -10.8898    248.5471    241.2687   1.0716411643e+02  -1.2896469838e+01    0.4723282    0.2641011 -28.40  0.002159761    1.816    0.449
        16  -9.6568    212.9285    250.4250   1.1503696578e+02  -8.6248142642e+00    0.3553052    0.1434002  42.12  0.001358437    2.146    0.534
        17 -10.1635    212.1967    243.1051   1.1399840885e+02  -7.5087137811e+00    0.5946558    0.3443319  -5.25  0.002760221    2.880    0.653
        18  -9.9398    201.3480    249.2597   1.1697409853e+02  -6.5939561493e+00    0.4416836    0.2252651  26.09  0.002130899    2.210    0.548
        19  -9.4409    183.9313    250.4640   1.2038071540e+02  -3.8758060849e+00    0.3278379    0.1032713  41.70   0.00124043    2.630    0.620
        20 -10.8991    168.2971    248.5540   1.2302420417e+02  -9.4144623299e-01    0.5704001    0.2721536  37.32  0.002786273    1.868    0.465
        21 -10.7509    158.0918    245.5257   1.2452039933e+02   1.2869268492e+00    0.5268744     0.203225  46.20  0.002316716    2.202    0.546
        22  -9.6712    152.4868    250.0470   1.2619191333e+02   1.5137307206e+00    0.3426721    0.1516518  42.59  0.001645244    1.869    0.465
        23 -10.4000    142.6294    248.6554   1.2785197888e+02   3.4112765526e+00    0.4599087    0.2795756  32.68  0.002479791    1.751    0.429
        24 -10.0698    125.8903    249.9311   1.3112281136e+02   5.9934390717e+00    0.4483248    0.1872866  38.59  0.002048048    2.292    0.564
        25  -8.4525    110.4922    250.4426   1.3400306708e+02   8.4039198197e+00    0.1233388    0.0983716  59.53 0.0001670558    1.020    0.020
        26 -10.4493     63.7038    249.6382   1.4217631110e+02   1.5510202155e+01    0.5255141    0.1818287  43.43  0.002568279    2.465    0.594
        27 -10.3384     49.4984    250.0665   1.4458920926e+02   1.7313523539e+01    0.4637829    0.1762908  43.02  0.002448414    2.330    0.571
        28 -10.7163     44.5116    245.0946   1.4504561436e+02   1.8868504162e+01    0.4803933    0.1813204  47.69  0.002580156    2.151    0.535
        29  -9.7063     37.6720    241.3569   1.4590885503e+02   2.0414661538e+01    0.3223259     0.152566  58.02  0.001662588    1.717    0.417
        30 -11.6952     12.3466    228.4085   1.4921551738e+02   2.5745211522e+01     1.102194    0.3003124  42.70   0.00556497    3.036    0.671
        31 -11.1139      4.0571    224.8477   1.5035018246e+02   2.7268218859e+01    0.8990237    0.3027921  84.58  0.004067131    3.317    0.699
        32 -10.7002     33.4259    248.3855   1.4708393104e+02   1.9609804647e+01    0.5691509    0.1933064  50.12  0.003052433    2.282    0.562
        33 -11.2803     27.9487    242.2575   1.4756186816e+02   2.1391440360e+01    0.6355076    0.3195586  54.77  0.003966076    1.600    0.375
        34 -11.3585     20.7089    249.1947   1.4913731129e+02   2.0924898834e+01    0.8506893    0.2243411  41.75  0.004215004    3.204    0.688
        35 -11.7972      4.8412    245.0546   1.5133462989e+02   2.3373289230e+01    0.8100187    0.3715445  78.57  0.005128921    1.754    0.430
        36 -12.4520     12.9746    238.9467   1.4974614462e+02   2.3664823960e+01     1.534916    0.8369386  35.16  0.009839074    2.359    0.576
        37 -10.2250    179.2023    242.7741   1.2011941215e+02  -1.9132349972e+00    0.4002161    0.2013899  37.19  0.001982202    1.751    0.429
        38  -9.9336    134.6042    243.9022   1.2874770867e+02   5.5748528765e+00    0.4065914    0.2285737  53.87  0.002147021    1.600    0.375
        39 -10.0554    114.9833    243.6779   1.3240611277e+02   8.8797533739e+00     0.290977     0.195876  39.91  0.001128807    1.451    0.311
        40 -10.4313    149.8536    238.6144   1.2512527170e+02   3.8653924206e+00    0.4280913    0.2482472  44.10  0.002265252    1.461    0.316
        41 -10.5220     51.9703    239.3208   1.4333661319e+02   1.9010752263e+01    0.5039788    0.2480189  69.57  0.002767155    1.934    0.483
        42 -10.6095    123.8849    240.1981   1.3030885421e+02   8.0336125180e+00     0.560532    0.2246439  45.39  0.002542361    2.087    0.521
        43  -9.1060    171.5985    239.7016   1.2110455840e+02  -1.1140821216e-01    0.2777354     0.135969  32.64 0.0009006621    2.142    0.533
        44 -10.2814     81.6965    239.0379   1.3804216502e+02   1.4934865082e+01    0.5405856    0.1649543  42.82  0.002305794    2.810    0.644
        45  -9.0948    189.1106    237.4551   1.1741259178e+02  -2.7995020471e+00    0.2201676    0.1712427 -11.67 0.0008656697    1.534    0.348
        46  -9.7989     44.6087    236.7949   1.4439979432e+02   2.0434275309e+01    0.3768843    0.1719813  61.16  0.001947107    1.912    0.477
        47 -10.0514     70.9197    239.8783   1.4006355370e+02   1.6333745171e+01    0.3582492    0.1968693  54.95  0.002083297    1.504    0.335
        48  -9.4129    160.4892    235.4919   1.2261774609e+02   2.5323308371e+00    0.2799487    0.1920097   7.49  0.001369464    2.413    0.586
        49  -9.1510     92.2164    235.5927   1.3574304247e+02   1.4003170650e+01    0.3232057    0.1470762  36.64  0.001502025    2.441    0.590
        50  -9.5882    140.6982    234.7894   1.2636334024e+02   6.1287310028e+00    0.2839738    0.1537086  50.59  0.001418712    1.637    0.389
        51  -9.1692    195.5173    237.2394   1.1616208338e+02  -3.8684658617e+00    0.2486704    0.1978229   6.18  0.001526095    1.356    0.263
        52  -8.8715    203.9959    231.6748   1.1364008356e+02  -4.4780428967e+00    0.1914502    0.1503274  33.12  0.001167727    1.105    0.095
        53  -9.6777     61.2747    241.5026   1.4190743062e+02   1.7360298032e+01    0.3982412    0.1469979  50.25    0.0019802    2.211    0.548
        54  -9.4383     39.5825    230.3644   1.4476478124e+02   2.2307407232e+01    0.3242199    0.1885208  89.77  0.002022661    1.474    0.322
        55  -9.3227     60.5342    228.8079   1.4090916168e+02   1.9929756258e+01    0.3725394    0.1206977  46.79  0.001695134    2.575    0.612
        56  -9.7679    247.2176    226.1122   1.0473781467e+02  -1.0726224759e+01    0.3911773    0.2246247 -20.80  0.001840286    1.828    0.453
        57 -10.0284    248.5025    233.4031   1.0580763421e+02  -1.1887579173e+01    0.3739966    0.2718402 -34.05   0.00240176    1.530    0.346
        58  -8.5336    199.6620    224.4013   1.1323052236e+02  -2.5958469238e+00    0.2103193    0.1224477 -39.34   0.00106834    1.899    0.474
        59 -10.0609    239.5646    221.1900   1.0521084111e+02  -8.8483059311e+00    0.4213759    0.2383638 -32.96  0.002075278    1.787    0.440
        60  -8.2145    206.4560    223.4828   1.1176893124e+02  -3.6426215885e+00    0.1320891    0.1129662  19.35 0.0001443155    1.049    0.047
        61 -10.6161     14.6847    219.0217   1.4822119537e+02   2.7355252256e+01    0.8123928    0.2201152  59.10   0.00335195    3.922    0.745
        62  -8.6523     52.4699    222.0000   1.4175959887e+02   2.2368456117e+01    0.2450691   0.06117324  38.37 0.0009377287    3.959    0.747
        63  -9.2944    226.8773    219.2375   1.0717034764e+02  -6.4894157452e+00    0.3072131    0.2049345  22.03  0.001333351    1.471    0.320
        64 -10.5306    241.4802    238.6199   1.0795130246e+02  -1.1511122077e+01     0.490804    0.2850297  -8.09  0.001797705    2.131    0.531
        65 -10.2356    248.1230    214.3908   1.0243160745e+02  -9.2379558496e+00    0.4970427     0.287066 -33.66  0.002712757    1.704    0.413
        66  -8.3241    168.5086    216.0231   1.1795826565e+02   4.4913720252e+00     0.191218    0.1369299 -47.20  0.001022102    1.558    0.358
        67  -8.7327    240.1329    214.1371   1.0381022147e+02  -7.9229663732e+00    0.1642348    0.1454548 -35.15  0.001058746    1.345    0.257
        68  -9.2719     32.8210    214.5731   1.4470467695e+02   2.6290043674e+01    0.2648259   0.09233335  41.28  0.001299455    2.679    0.627
        69  -9.7042      3.0507    212.8546   1.4979538184e+02   2.9734173505e+01    0.2751412     0.162852  79.56  0.001883402    1.279    0.218
        70  -8.8604    233.3998    211.8246   1.0460207827e+02  -6.4683956705e+00    0.1841714     0.112898 -22.05 0.0009469443    1.752    0.429
        71  -8.4741    185.5775    212.2443   1.1387275371e+02   1.9886473270e+00    0.1882068    0.1290074 -29.12 0.0009573771    1.712    0.416
        72  -8.9852    214.5307    209.7520   1.0774814753e+02  -2.8807793979e+00    0.2483785    0.1267996 -33.33  0.001136249    2.123    0.529
        73  -8.9295    236.6044    208.8497   1.0345712452e+02  -6.5544086207e+00    0.2492333    0.1565979 -48.08  0.001284923    2.012    0.503
        74  -8.0160    192.4718    207.5433   1.1165028467e+02   1.5257086385e+00     0.138245    0.1237843  23.17 0.0001001075    1.045    0.043
        75  -8.5164    246.4494    205.7345   1.0109382726e+02  -7.7095256479e+00    0.1750362    0.1116818 -21.20 0.0009415742    1.565    0.361
        76  -8.9092    124.0126    206.0069   1.2555855687e+02   1.4626523505e+01    0.1970115    0.1712661  68.68            0    1.042    0.040
        77  -8.6547      2.0317    206.0048   1.4953575544e+02   3.1213093589e+01    0.1901693   0.09301892  72.09  0.001136168    1.762    0.432
        78  -8.4997    227.2172    205.5607   1.0456237365e+02  -4.4444429240e+00    0.1852052    0.1146822  28.13 0.0005780897    1.617    0.382
        79  -9.8967     12.3595    204.1133   1.4758718140e+02   3.0627436153e+01    0.3903343    0.1429187  57.51  0.001967117    2.580    0.612
        80  -9.3094    237.0982    197.0828   1.0110074920e+02  -4.8141353458e+00    0.3782839    0.1743255 -35.95  0.001701878    2.134    0.531
        81  -8.9369    231.8594    195.2484   1.0170125091e+02  -3.6053787456e+00      0.30566    0.2179669 -65.40  0.001454732    2.392    0.582
        82  -8.5580    209.9322    195.9567   1.0600819311e+02   2.7258284535e-01    0.2065369    0.1737404  89.76 0.0006304201    1.717    0.417
        83  -8.6441    224.6113    194.8401   1.0297322322e+02  -2.2426084204e+00    0.1892202    0.1238933 -47.68 0.0009455244    1.758    0.431
        84  -8.9900     20.2968    195.6370   1.4546608131e+02   3.1622623079e+01    0.1257499   0.06755488  74.54 0.0007032471    1.715    0.417
        85  -8.3034    228.6352    200.7784   1.0337975449e+02  -3.9301238332e+00    0.1767626     0.121208 -42.14 0.0006931251    1.572    0.364
        86 -10.4031    247.1704    192.5146   9.8391832069e+01  -5.8126245830e+00    0.4224496       0.3173 -21.27  0.001898639    1.237    0.192
        87  -8.6093    237.6643    187.8623   9.9165858009e+01  -3.4281634421e+00    0.2712422     0.115655 -30.63  0.001083347    2.559    0.609
        88  -9.4896    250.0277    183.4991   9.6084277530e+01  -4.8733552749e+00    0.2623434    0.1712032 -20.04  0.001370868    1.559    0.358
        89  -9.3877    249.9226    177.8210   9.4946092366e+01  -3.9408372814e+00    0.3911055    0.1786602 -29.47  0.001661091    2.282    0.562
        90  -9.2292    241.1634    149.3456   9.0428369413e+01   2.5201228559e+00     0.254513     0.236248 -62.30  0.000981776    1.216    0.178
        91 -10.0301    243.3415    139.2400   8.7831854580e+01   3.8853870267e+00    0.4006315    0.2500694 -71.25  0.001344983    3.050    0.672
        92  -9.0832    235.8386    130.1674   8.7063835029e+01   7.0352359296e+00    0.2115059    0.1887305 -59.97 0.0005413879    1.168    0.144
        93  -9.0521    192.1036    118.4062   9.2377824699e+01   1.8994655286e+01    0.2851227    0.2206084 -51.28 0.0005606052    1.292    0.226
        94  -7.8435    226.6825    117.2744   8.5650621981e+01   1.1349455008e+01    0.1457421    0.1126112 -74.77 0.0003002581    1.567    0.362
        95  -8.3691    209.3701    114.2190   8.8005172384e+01   1.5811053186e+01    0.2217397    0.1331749 -48.72 0.0007749822    1.657    0.397
        96  -9.0820    236.6597    107.6473   8.1757909428e+01   1.0917789179e+01    0.2172119    0.1727791  11.34  0.001017867    1.705    0.414
        97  -8.1965    197.2272    106.9903   8.8508390161e+01   2.0025407470e+01    0.2026915    0.1244322 -40.38 0.0003955101    1.586    0.370
        98 -10.4989    247.2784    103.1759   7.9110558511e+01   9.4363314521e+00    0.3983756     0.257524 -56.47  0.001297467    1.595    0.373
        99  -8.7083    214.3146    104.8853   8.4835093438e+01   1.6424676452e+01    0.2103497    0.1826733 -37.82 0.0004753328    1.134    0.118
       100  -9.4156    228.8562    104.0419   8.2168590977e+01   1.3275990376e+01    0.2335493    0.2105464  75.08  0.000466902    1.168    0.144
       101  -8.7990    205.3098     98.8548   8.4951503167e+01   1.9646301450e+01    0.3801773    0.2365456 -20.30  0.001449692    2.253    0.556
       102  -7.9727    188.3854    100.7158   8.8636722852e+01   2.3335389043e+01    0.1621567    0.1200282 -83.46  0.000700846    1.740    0.425
       103  -9.5822    234.1841     94.7606   7.9143138836e+01   1.3728618164e+01    0.1933935    0.1730139  -3.65  0.001066396    1.360    0.265
       104  -9.4459    245.1402     93.8947   7.7318866773e+01   1.1481711823e+01      0.22578    0.1768558 -64.73 0.0005717584    1.280    0.219
       105  -8.7235    150.5211     92.9696   9.4747993443e+01   3.3861605710e+01    0.2342563    0.1518983 -39.33 0.0006936144    1.550    0.355
       106  -9.9183    245.0312     88.1195   7.6022160134e+01   1.2480928810e+01    0.3576055    0.1720033 -29.11  0.001415097    2.504    0.601
       107  -9.3090    250.1323     88.1636   7.5327374059e+01   1.1379248897e+01    0.2010599    0.1891916 -24.54 0.0006702219    1.218    0.179
       108  -9.1285    227.3750     88.2008   7.8640023274e+01   1.6401655311e+01    0.2203489    0.1208281 -47.75 0.0009516085    1.731    0.422
       109  -9.9120    244.9736     80.9379   7.4400813857e+01   1.3685822115e+01    0.2618837    0.1875012 -55.70 0.0006863754    1.296    0.228
       110 -10.0234    249.5475     77.1346   7.2940343504e+01   1.3312226537e+01    0.3784436    0.2882883  20.63  0.001940689    2.056    0.514
       111 -10.9605    240.2699     75.9612   7.3904200586e+01   1.5537098087e+01    0.4283065    0.3102724 -62.23  0.001647749    1.344    0.256
       112  -9.6031    239.5357     68.0791   7.2197773738e+01   1.6964411511e+01    0.2667437    0.2271352 -50.89 0.0004640133    1.100    0.091
       113  -8.3980    219.9709     68.7868   7.5079232208e+01   2.1372499711e+01    0.1820366     0.112818  62.61 0.0003586746    1.623    0.384
       114 -10.0940    245.5753     66.0306   7.0964109967e+01   1.5940326448e+01    0.3145024    0.2071237 -60.28  0.001176418    1.463    0.317
       115  -8.0624    176.4813     67.4726   8.2041949023e+01   3.2206560187e+01     0.147826    0.1423939  64.16 0.0002020503    1.046    0.044
       116  -9.3202    250.4139     64.7672   7.0091659632e+01   1.5076737042e+01    0.1823503    0.1248527 -30.20 0.0008280816    1.623    0.384
       117  -9.0872    220.7024     64.3134   7.3887578544e+01   2.1911301432e+01    0.1488396    0.1007343 -68.56 0.0002755966    1.604    0.376
       118  -8.0312    132.3389     62.3214   9.0079053863e+01   4.3587762254e+01     0.152838    0.1107697  17.39  0.000344875    1.716    0.417
       119  -8.4885    174.2711     59.0634   8.0115070818e+01   3.4098558103e+01    0.1991608    0.1896178 -66.45 0.0006007527    1.061    0.058
       120  -9.8693    236.8047     56.8628   6.9984341353e+01   1.9312363010e+01    0.2725602    0.1777173  -9.55  0.001183095    2.791    0.642
       121  -9.4850    246.3735     55.5852   6.8546426355e+01   1.7354779005e+01    0.2796638   0.07777561 -47.22 0.0009570221    3.296    0.697
       122 -10.9386    249.0267     37.5186   6.4340861067e+01   1.9344837032e+01    0.3657215    0.3065264 -38.14  0.001312233    1.341    0.254
       123  -9.3734    229.5486     37.2186   6.6368845490e+01   2.3792252525e+01    0.2420572    0.1992439  65.44 0.0006878743    1.266    0.210
       124  -9.0044    218.3444     34.0915   6.6954859195e+01   2.6843920169e+01     0.191763    0.1556796 -58.54 0.0005857559    1.161    0.138
       125  -8.4188    104.4624     34.4945   8.7991350416e+01   5.3635490540e+01    0.1318107    0.1191202  20.19 8.137008e-05    1.029    0.029
       126  -8.1576    164.4188     32.5042   7.4316768138e+01   4.0232815453e+01    0.1371754    0.1263614  74.25  0.000238871    1.030    0.029
       127  -9.9514    242.1702     37.8223   6.5115952683e+01   2.0826536277e+01    0.2099224    0.1525352 -69.66 0.0006700791    1.241    0.194
       128  -7.8691    157.3350     31.7151   7.5335983704e+01   4.2054820537e+01    0.1391599     0.103297 -77.73 0.0003174124    1.623    0.384
       129  -7.7802    142.3009     29.6705   7.7565153492e+01   4.5893082626e+01    0.1355018    0.1036867 -70.86 0.0002424671    1.645    0.392
       130  -9.8343    249.3611     22.6566   6.1194310008e+01   2.1215457069e+01    0.2301619    0.2059644 -83.47  0.001561961    1.182    0.154
       131  -8.6554    220.4648     23.5863   6.4262766554e+01   2.7672838835e+01    0.1317678    0.1114187 -86.05 7.826157e-05    1.016    0.015
       132  -8.6993    206.2110     20.1855   6.5073338781e+01   3.1472661327e+01    0.1859463    0.1705984  67.62 0.0005446753    1.186    0.157
       133 -10.5600    241.0183     18.3316   6.1049481406e+01   2.3592225959e+01    0.2857159    0.2111164  65.04  0.001098148    1.411    0.291
       134  -9.3992    226.8245     17.9221   6.2318139784e+01   2.6869398737e+01    0.1825381      0.16211  72.35 0.0007157396    1.226    0.185
       135  -9.5736     89.9536    247.9574   1.3744443988e+02   1.2040701690e+01    0.3420323    0.1750172  69.59  0.001722542    2.210    0.548
       136  -9.9234     75.9781    248.3142   1.3994657685e+02   1.4034010386e+01    0.3646128    0.1887585  50.81  0.001833874    1.572    0.364
       137  -9.5439     96.3013    244.5664   1.3595128912e+02   1.1690112849e+01    0.3362228    0.1557547  47.59  0.001730591    1.785    0.440
       138 -10.5092    194.1613    244.4953   1.1756754289e+02  -4.7191659159e+00    0.6300608    0.2807541  32.44  0.002862484    2.254    0.556
       139  -9.7546    202.5647    240.5803   1.1537588403e+02  -5.5580724073e+00    0.4267799    0.2676878   1.30  0.002116261    2.394    0.582
       140  -8.8234     82.2014    246.9699   1.3872687951e+02   1.3376698462e+01    0.2211245    0.1405815  50.31  0.001101788    1.331    0.249
