#   1 NUMBER                 Running object number                                     
#   2 MAG_AUTO               Kron-like elliptical aperture magnitude                    [mag]
#   3 X_IMAGE                Object position along x                                    [pixel]
#   4 Y_IMAGE                Object position along y                                    [pixel]
#   5 X_WORLD                Barycenter position along world x axis                     [deg]
#   6 Y_WORLD                Barycenter position along world y axis                     [deg]
#   7 A_WORLD                Profile RMS along major axis (world units)                 [deg]
#   8 B_WORLD                Profile RMS along minor axis (world units)                 [deg]
#   9 THETA_WORLD            Position angle (CCW/world-x)                               [deg]
#  10 FWHM_WORLD             FWHM assuming a gaussian core                              [deg]
#  11 ELONGATION             A_IMAGE/B_IMAGE                                           
#  12 ELLIPTICITY            1 - B_IMAGE/A_IMAGE                                       
         1 -11.8706     95.9842     57.4386   7.0128701184e+01   5.2450837213e+01     1.173536     0.532692 -47.52  0.004527068    2.631    0.620
         2 -10.0964    236.4630     16.9820   3.3992248429e+01   2.5358650510e+01    0.2643784    0.1785927 -70.64  0.001060273    1.285    0.222
         3  -9.7946     51.3300     21.4944   7.1926488218e+01   6.5901010182e+01    0.4835231    0.1641893 -38.53  0.002023449    3.063    0.674
         4 -11.7199    111.7149     19.3871   5.1789596165e+01   5.4298651270e+01    0.5078503    0.4689873  53.97  0.002818492    1.091    0.084
         5 -11.0882    149.9263     18.4187   4.4102459740e+01   4.5317189832e+01    0.2945131    0.2802349  56.49 0.0005237998    1.091    0.084
         6 -11.0186    156.8174     10.4367   4.0676847847e+01   4.4429539412e+01    0.7640114    0.4084086   4.77  0.003165988    3.429    0.708
         7 -10.0706     86.9371     16.5431   5.7110660096e+01   5.9995879048e+01    0.3458953    0.2303006 -41.51  0.001799276    1.849    0.459
         8 -11.1007     56.7548     14.1615   6.6302671665e+01   6.5944446608e+01    0.5576715    0.3268233   8.40   0.00200616    1.971    0.493
         9 -10.7600    102.1065     15.8680   5.2756983668e+01   5.6817008726e+01    0.4113394    0.2769948  30.27   0.00132219    1.468    0.319
        10 -10.7896     22.6082     15.4921   8.2731332335e+01   7.0515413311e+01    0.5935812    0.4910536 -89.31  0.003402903    3.243    0.692
        11 -10.3204     23.4705      2.4611   7.5630866153e+01   7.2171403900e+01     0.316244    0.1304677  31.05  0.001670417    2.284    0.562
        12  -9.6228      4.5142      7.0094   8.8907795808e+01   7.3454000899e+01    0.2312069    0.1910484   3.52  0.001002215    1.338    0.252
        13 -10.5697      5.7888      2.1433   8.5658632302e+01   7.4053191134e+01      0.56446    0.2887155   7.47   0.00333505    1.974    0.494
        14 -10.5373     16.1203      8.3073   8.2749344532e+01   7.2222596283e+01    0.2483415    0.1852257  15.34 0.0007489561    1.321    0.243
        15 -11.0975     12.8620      6.3236   8.3600569756e+01   7.2822382259e+01    0.4100081    0.2542684 -25.15  0.002173949    1.303    0.233
        16 -10.4024     10.2800     14.9575   8.9258909066e+01   7.1769798208e+01    0.3041811    0.2862887 -62.71  0.001890344    1.786    0.440
        17 -11.9431    183.9501     12.7388   3.7931868550e+01   3.7666611902e+01    0.7457254     0.397047  61.33  0.003790912    1.713    0.416
        18 -12.4204    122.2317     11.3445   4.6654322091e+01   5.2647442158e+01    0.6150207    0.2940169  56.68 0.0004672951    1.749    0.428
        19 -11.5382    127.2302      4.8244   4.3484851335e+01   5.2035348452e+01    0.3508829    0.2518249  50.26 0.0003916232    1.230    0.187
        20 -10.1941    216.4630      7.9132   3.3637512503e+01   3.0673696282e+01    0.2915425    0.1891401 -50.51  0.001191711    1.392    0.281
        21 -10.6642    210.5145      9.8229   3.4576967530e+01   3.1802794408e+01    0.3708658    0.2463493 -65.96  0.001630415    1.369    0.269
        22 -10.4834    212.7277      5.7302   3.3455583379e+01   3.1729737690e+01    0.3404402    0.2105394 -27.95  0.001667471    1.846    0.458
        23 -11.1352     46.8607      9.8068   6.8253670578e+01   6.8052670475e+01    0.4058301     0.266417   8.27  0.001706337    1.439    0.305
        24  -9.4856     92.7502     10.2914   5.2920309660e+01   5.9391342541e+01    0.3012711    0.1615045  47.50 0.0005485203    1.573    0.364
        25 -10.2304     85.5420      9.4856   5.4542529423e+01   6.0985594481e+01    0.3922605    0.1965138  52.11  0.001448861    1.737    0.424
        26  -9.0552     33.8532     10.6358   7.4619105092e+01   6.9832534486e+01    0.1713394    0.1234721  -7.40 0.0007599251    1.152    0.132
        27  -9.7222     78.6220      7.3807   5.5640546055e+01   6.2592497369e+01    0.3602101    0.2320129  14.41  0.002019294    1.624    0.384
        28  -8.8736    237.6682      8.6949   3.2179538160e+01   2.6031478891e+01    0.1069453    0.0877642  48.46 0.0007037937    1.660    0.398
        29  -9.2873    102.4079      8.0443   4.9642894391e+01   5.7482854061e+01    0.3572292    0.1432516  43.35  0.001224896    2.236    0.553
        30 -10.2790    107.1177      4.7926   4.7346007683e+01   5.6700246113e+01    0.3560002    0.2333685 -41.14  0.001336441    1.830    0.454
        31  -9.1899     65.0934      5.4808   5.9114882185e+01   6.5383162727e+01    0.1786759    0.1447506  13.84 0.0006688517    1.072    0.067
        32 -10.7267     90.0533      3.3150   5.0738317088e+01   6.0575531945e+01     0.385354    0.2676333  76.25  0.001553311    1.810    0.448
        33  -9.8954     85.1095      1.3100   5.1173102958e+01   6.1781130558e+01     0.283995    0.1413007  65.79 0.0005088043    2.260    0.558
        34 -10.9813     38.5212      4.9613   6.9489781051e+01   6.9863303686e+01    0.2604825    0.1632174  35.71 0.0008983422    1.515    0.340
        35  -8.9523     42.0091      1.4801   6.6091272933e+01   6.9712869520e+01    0.1598187    0.1233573  18.31 0.0003197083    1.072    0.067
        36  -9.4142    247.2286      3.6485   3.0525838190e+01   2.4618831254e+01    0.2713906   0.05748919 -53.60 0.0009653284    4.367    0.771
        37  -9.5269     52.0863      2.1871   6.2278561493e+01   6.8007218276e+01    0.3133511    0.1212522  42.29  0.001516843    2.202    0.546
        38  -9.0436     34.3566      1.9988   6.9872805742e+01   7.0792176813e+01    0.1599196    0.1167369  -4.73 0.0004147506    1.142    0.124
        39 -10.1569     17.7270      3.6518   7.9421017307e+01   7.2683266440e+01     0.280196    0.2626302 -42.04  0.002113865    1.875    0.467
        40  -8.4669    241.6927      1.6849   3.0489469114e+01   2.5947062024e+01    0.1015868   0.08635997  50.29 0.0007027901    1.627    0.386
        41  -8.5019    228.5386      1.5029   3.1332331749e+01   2.8710718937e+01    0.1199828   0.09417014 -72.70   0.00022782    1.013    0.013
        42  -8.7406    195.4955      1.5258   3.3961537462e+01   3.6058112560e+01    0.1245898    0.1038414 -85.59 0.0001797851    1.006    0.006
        43  -8.2166    137.6947      1.3497   4.0650362660e+01   4.9827087572e+01    0.1305788   0.08986983 -66.36 0.0007041837    1.703    0.413
        44  -9.9102     24.7810      7.3134   7.7513315677e+01   7.1403213103e+01    0.2252294    0.1621262   1.60 0.0007811577    1.115    0.103
        45  -9.1648     65.1240      1.3265   5.7130368257e+01   6.5754520693e+01    0.1663864    0.1044624  57.45 0.0009378652    1.754    0.430
        46  -8.8377      1.7867    115.9957   1.1748277114e+02   5.0860427027e+01      0.23934    0.1214905 -64.07 0.0004076976    1.508    0.337
        47 -10.0117      2.1243    112.0191   1.1689958485e+02   5.1797609012e+01    0.2029595    0.1720421  79.50 0.0005468045    1.246    0.197
        48  -9.4418     46.0471    113.2280   1.0297929987e+02   4.7981897348e+01    0.1872946     0.177336 -45.08 0.0008615606    1.095    0.087
        49  -9.1964     32.0306    113.3156   1.0757205455e+02   4.9355005887e+01    0.1740582    0.1590343 -56.60 0.0002797221    1.082    0.076
        50  -9.9410     50.2318    111.7395   1.0130489442e+02   4.7879383503e+01    0.2235565     0.177583  34.24  0.000564348    1.406    0.289
        51 -10.3079    241.4986    111.4915   5.4215890239e+01   1.0546125394e+01    0.2236856    0.1241135  40.08  0.001036853    2.273    0.560
        52  -8.5801     99.8139    109.4171   8.4879919980e+01   4.0983199570e+01    0.2051878    0.1488147  24.00  0.000463752    1.573    0.364
        53  -9.3674     34.6124    107.8764   1.0573657720e+02   5.0453421234e+01    0.3523775    0.1222054 -67.27 0.0008218023    2.786    0.641
        54 -10.2640      6.6544    108.3374   1.1499643198e+02   5.2431055190e+01    0.2778134    0.2305477  89.15 0.0009953339    1.214    0.176
        55  -9.8082      8.1468    103.6354   1.1384606674e+02   5.3472990745e+01    0.2812592    0.1465733 -69.45  0.001467136    1.550    0.355
        56 -10.7070     15.4910    140.5227   1.1635771495e+02   4.3996594579e+01    0.2188121    0.1871654  80.39 0.0007368017    1.143    0.125
        57 -10.2392     61.0348    106.7207   9.6621091244e+01   4.7774638206e+01    0.2536523     0.183686 -48.21 0.0002418543    1.245    0.196
        58 -10.7267     79.8822    103.5838   8.9622512529e+01   4.5781930781e+01    0.3610241    0.2840576  -4.25  0.001040355    1.517    0.341
        59  -8.9532     16.5721    104.2420   1.1114245647e+02   5.2793501639e+01    0.1872966   0.09424464 -57.51   0.00032193    1.562    0.360
        60 -10.8766     20.3227    109.4004   1.1073366068e+02   5.1275207764e+01    0.3806544    0.2429975  41.53  0.001256915    1.835    0.455
        61  -9.0642    108.4266    103.2121   8.0635300685e+01   4.0767912767e+01    0.2784242    0.1892325  27.11 0.0005607373    1.689    0.408
        62 -10.2268     45.2244    101.8712   1.0090679289e+02   5.0844346537e+01    0.2745906     0.238471  73.90  0.000538321    1.356    0.262
        63  -9.1114     11.9120    101.7736   1.1231032253e+02   5.3692101088e+01    0.1986799    0.1414986 -51.45 0.0006439514    1.202    0.168
        64  -8.3973     94.6847    101.2708   8.4279646858e+01   4.3799720329e+01    0.1457449    0.1205358  78.76 0.0001688917    1.556    0.357
        65  -9.5136     58.6244    100.2916   9.5922421594e+01   4.9633239454e+01    0.1418066     0.108575  69.62 0.0007022018    1.733    0.423
        66 -10.0406     53.4289     98.2783   9.7239286863e+01   5.0762715839e+01    0.4230231    0.2266288 -64.74  0.001851623    1.957    0.489
        67  -9.8215     39.1524     98.1514   1.0221904203e+02   5.2370496831e+01    0.3651264    0.1791431 -17.05  0.001116862    3.920    0.745
        68 -10.1997     69.2422     96.4093   9.1303885766e+01   4.9088971192e+01    0.2730657     0.271565  17.44 0.0009119226    1.117    0.105
        69  -9.9015     79.3657     94.9291   8.7487034531e+01   4.7872892721e+01    0.3734889    0.2581523 -16.45  0.001697018    1.852    0.460
        70 -10.3320     16.1186     95.1100   1.0975038518e+02   5.5009730019e+01    0.2490095    0.2079769  67.00 0.0005722416    1.430    0.301
        71 -10.0816     35.0010     89.9095   1.0189354900e+02   5.4724847658e+01    0.2790512    0.1910661  -2.51  0.001172516    1.760    0.432
        72  -9.8085     34.6106     95.2447   1.0320670710e+02   5.3502056731e+01     0.256707    0.1512975 -25.72   0.00123094    2.034    0.508
        73  -9.9203    116.5627     93.5700   7.5532378004e+01   4.1228393942e+01    0.2812594    0.2502501 -89.07 0.0005144576    1.338    0.253
        74 -10.3419     87.5691     90.0248   8.3386910506e+01   4.7591534958e+01    0.5923163    0.3109041 -61.10   0.00143262    2.622    0.619
        75  -9.9166    109.5338     88.7061   7.6141752871e+01   4.3703995936e+01    0.3433141     0.144645 -38.65  0.001201774    2.473    0.596
        76  -8.8793    125.9873     91.5606   7.2318879316e+01   3.9636436473e+01    0.2332026    0.1515511  45.54 0.0007239903    1.556    0.357
        77  -8.5655     94.3006     90.6967   8.1411565806e+01   4.6234499563e+01    0.1448883    0.1211231  88.35 0.0003069035    1.589    0.371
        78  -9.8494    139.2976     87.6625   6.7705172723e+01   3.7445239603e+01    0.4155937    0.2244887 -49.08  0.001296444    1.985    0.496
        79 -10.5103     56.9839     88.7868   9.3595818398e+01   5.2536306941e+01    0.2830954     0.182393 -52.72  0.000408412    1.409    0.290
        80  -9.8176     47.9182     89.0308   9.6948736105e+01   5.3583352324e+01    0.2070696    0.1770393 -38.56 0.0003499432    1.043    0.042
        81 -10.8253    121.5444     86.9425   7.2169245039e+01   4.1544871056e+01     0.756618    0.3370955  42.47  0.002575587    2.294    0.564
        82  -9.3416    131.2205     86.7653   6.9507716300e+01   3.9449983149e+01    0.2165717    0.2083484 -60.15 0.0005030907    1.085    0.079
        83  -9.8980    102.4070     86.6301   7.7667787193e+01   4.5564548367e+01    0.3028759     0.142531 -49.04  0.001140775    2.198    0.545
        84  -9.8891     28.3719     85.4449   1.0335130260e+02   5.6356303603e+01     0.243738    0.2138934  77.56 0.0008305356    1.396    0.284
        85 -10.2355     76.1827     83.3869   8.5268079967e+01   5.0959133703e+01    0.3048496       0.2803 -60.14 0.0004985395    1.206    0.171
        86 -10.4297     71.4550     83.0858   8.6830877953e+01   5.1768950761e+01    0.3069023     0.250961 -70.95 0.0007105106    1.507    0.336
        87  -9.7901     39.1495     84.9194   9.9175990061e+01   5.5477645185e+01     0.263337     0.175786 -33.85 0.0009477673    1.446    0.308
        88  -9.2101     80.1468     80.9435   8.3166395481e+01   5.0832346454e+01    0.2142976     0.196567 -29.12 0.0002915553    1.031    0.030
        89  -8.9192     46.3036     83.3230   9.6083897163e+01   5.5075452562e+01    0.1443588   0.09175166 -29.89   0.00070306    1.637    0.389
        90  -9.5410     81.9890     84.9043   8.3734621924e+01   4.9671259696e+01    0.2585053    0.2051319 -51.57 0.0003433461    1.276    0.216
        91 -10.8547    114.7896     81.1334   7.2304291953e+01   4.4157559685e+01    0.7074184    0.3476236  45.15   0.00217853    2.047    0.512
        92  -9.6996    108.8683     80.8127   7.3932079594e+01   4.5460160749e+01    0.2643397    0.2169424  34.38 0.0007826869    1.228    0.186
        93 -10.6195    104.3492     78.5843   7.4591468920e+01   4.6827667975e+01    0.4081282    0.2972988 -38.77  0.001039079    1.348    0.258
        94 -10.5662    107.6535     75.7020   7.2682629397e+01   4.6719901179e+01    0.4451366    0.2815927  -3.74  0.001332235    2.744    0.636
        95 -10.3227     54.9221     80.6661   9.2134739566e+01   5.4632962296e+01    0.3445585     0.238345 -42.46  0.001758621    1.283    0.221
        96  -9.9491    103.7063     72.8612   7.2956340831e+01   4.8078512271e+01    0.3881452    0.3094578 -77.59 0.0003344715    1.777    0.437
        97  -9.9065     90.5083     61.7722   7.3402754816e+01   5.2758464314e+01    0.4038438    0.2986399  66.55  0.001943111    1.951    0.487
        98  -9.1222    107.4986    246.5290   1.0673932007e+02   8.8595580072e+00    0.1246925    0.1032081  48.09 4.092113e-05    1.003    0.003
        99 -10.8465     98.3124     75.6388   7.5521393604e+01   4.8613379645e+01    0.5252764    0.4177355  84.44  0.001548098    1.863    0.463
       100 -12.1058     97.1628     69.3844   7.3843817443e+01   5.0052618538e+01    0.3328326    0.2890606 -47.87 0.0004687686    1.240    0.194
       101 -11.0230    101.2754     67.6951   7.2000060155e+01   4.9547855277e+01    0.3097584    0.2764077 -50.97 0.0006646293    1.240    0.193
       102 -10.2022     49.4187     77.2432   9.3247141822e+01   5.6071049070e+01    0.4830943    0.2323972 -53.08  0.001693646    1.877    0.467
       103 -10.2836     55.8892     74.0881   8.9856756918e+01   5.5941279335e+01    0.4840718    0.2818315  -5.75  0.001449508    2.681    0.627
       104  -8.8190     22.2506     80.0524   1.0447694741e+02   5.8085008859e+01    0.1891263    0.1406077 -51.65 0.0009163378    1.098    0.089
       105  -9.4664      7.2548     80.0919   1.1024106590e+02   5.9042347647e+01    0.2282474     0.144821 -45.26 0.0009399492    1.312    0.238
       106  -9.4870    154.7928     79.1351   6.1563101023e+01   3.5437811083e+01    0.2796895    0.2130842  44.93 0.0003389442    1.332    0.250
       107 -11.2073     78.1911     75.0660   8.2012825328e+01   5.2391556630e+01    0.4752355    0.2984264  20.13 0.0009904271    1.909    0.476
       108 -10.1937     74.6778     75.3192   8.3326974691e+01   5.2917905429e+01      0.25695    0.2442153 -75.94 0.0007026654    1.275    0.216
       109  -9.2300      4.5135     75.5043   1.1042030596e+02   6.0225081342e+01    0.2214887    0.1426017 -57.68 0.0005950687    1.203    0.169
       110  -9.4945      2.3660     73.2422   1.1082550531e+02   6.0836861689e+01    0.2134124    0.1414616 -30.27 0.0005393663    1.467    0.318
       111 -10.4060     45.6379     72.6222   9.3390282796e+01   5.7522638482e+01    0.3822988    0.2231713 -43.82  0.000719553    1.484    0.326
       112  -8.0496     24.8944     73.8296   1.0197486611e+02   5.9281829668e+01    0.1544795    0.1380906 -73.39            0    1.279    0.218
       113 -11.2200    136.4701     69.8605   6.3032525174e+01   4.1415719194e+01    0.5289932    0.3122734  44.86  0.001773576    1.686    0.407
       114  -9.3753     59.4635     66.4893   8.6113601340e+01   5.7039162839e+01    0.2480568    0.2391732 -38.24 0.0008667241    1.205    0.170
       115  -9.1088     61.9910     64.0000   8.4324262281e+01   5.7175438173e+01    0.2165404    0.1814405 -14.29 0.0004252977    1.107    0.097
       116  -8.6001     30.6222     72.2702   9.9276709218e+01   5.9138960646e+01     0.120818   0.09861466  62.78 0.0006995128    1.688    0.408
       117  -9.5465    151.9944     73.2681   6.0463429141e+01   3.7149410208e+01     0.213968    0.2003694  51.41  0.001153731    1.061    0.057
       118  -9.2687     17.8562     70.6221   1.0404118010e+02   6.0522007185e+01     0.225064    0.1324509 -49.41 0.0007953338    1.343    0.255
       119  -8.7419     76.8158     70.4121   8.0995952399e+01   5.3567989536e+01    0.1962869    0.1310205  20.35 0.0007160128    1.690    0.408
       120 -10.5223    154.1655     67.4766   5.8275299488e+01   3.7622223663e+01     0.390009    0.2933568  87.52  0.001843163    1.658    0.397
       121 -10.3003     64.0155     70.7678   8.5764110408e+01   5.5507872120e+01    0.4219998    0.2828282  35.78  0.001575622    1.596    0.374
       122 -10.1355    119.8195     68.8584   6.7007866262e+01   4.5389940779e+01      0.40334    0.2309631  39.07  0.001278136    1.811    0.448
       123  -9.4913     89.7189     67.7734   7.5709580885e+01   5.1791013273e+01    0.2382104    0.2295444 -51.48  0.001093666    1.189    0.159
       124  -9.9622     70.7858     66.4132   8.1840954539e+01   5.5350627736e+01    0.4066948      0.22147 -46.85 0.0002604715    1.802    0.445
       125 -10.1110     74.3679     63.1821   7.9446570606e+01   5.5393546768e+01    0.5245879    0.2768115  41.01  0.002355776    1.989    0.497
       126 -10.7003    110.5800     64.9358   6.8308553225e+01   4.8107303985e+01    0.4247568    0.3430717 -60.23  0.001115483    1.504    0.335
       127  -9.0880     49.3017     65.1155   8.9659558702e+01   5.8668239020e+01    0.1939059    0.1530837 -41.76  0.001122774    1.153    0.133
       128 -10.5709     43.0991     62.8642   9.1464617831e+01   5.9871429166e+01    0.3735786    0.3259507 -84.28  0.001929025    1.600    0.375
       129  -9.2995      3.8329     64.8849   1.0851908061e+02   6.2613591979e+01    0.2034443    0.1541726 -65.53 0.0004188445    1.236    0.191
       130 -10.8328      3.8739     59.5048   1.0728794890e+02   6.3772544016e+01    0.2864457    0.1850151 -50.65  0.000262932    1.181    0.153
       131 -11.5876      7.9023     56.6834   1.0483535487e+02   6.4157174816e+01    0.2309091    0.1702085 -42.29 0.0002713718    1.057    0.054
       132  -8.9391    203.0547     64.0189   4.8638960490e+01   2.6505312708e+01    0.2189046    0.1741169  18.25  0.001131918    1.745    0.427
       133  -8.8734    187.3125     63.8631   5.1043105383e+01   3.0223432101e+01     0.240974    0.1830972  77.65 0.0007084401    1.384    0.278
       134  -9.7220     33.3396     63.4254   9.5692305216e+01   6.0787734658e+01    0.2815127    0.2205613 -22.30  0.001726278    1.173    0.147
       135 -12.2381    150.6662     57.5053   5.6011492306e+01   4.0079592358e+01    0.5313658    0.4189952 -61.19 -0.0003614077    1.414    0.293
       136 -10.0648    144.2565     53.5734   5.6153279384e+01   4.2231662151e+01    0.2794204    0.2453556  18.71 0.0007984094    1.252    0.201
       137  -9.3854     66.9664     63.1310   8.2148451081e+01   5.6595924315e+01    0.2094445    0.1816423 -15.62 0.0003937458    1.038    0.037
       138  -9.0735     17.0446     63.1223   1.0251522745e+02   6.2211858832e+01    0.1723518     0.145828  75.14 0.0007028387    1.633    0.388
       139  -8.5319    172.5189     62.4837   5.3218613085e+01   3.3995300798e+01    0.1445792    0.1384163 -84.30 7.019143e-05    1.000    0.000
       140  -9.3176     51.3055     60.0390   8.7199529546e+01   5.9438376633e+01    0.2912932    0.1736897  48.99  0.001163121    2.430    0.588
       141  -9.1358    122.7966     59.1777   6.3046131775e+01   4.6390753916e+01    0.2056416    0.1674666  20.14 0.0004712985    1.332    0.249
       142 -10.6510     59.6294     57.9493   8.3172245423e+01   5.8697814582e+01    0.4489374    0.3004952  11.68  0.001630377    1.677    0.404
       143  -9.9439    160.2181     56.7750   5.3876077292e+01   3.7872216236e+01    0.2959619    0.2541293  18.62 0.0006443579    1.362    0.266
       144  -9.9622    162.6515     52.7587   5.2234967910e+01   3.7883039699e+01    0.4046499    0.2399947 -35.16  0.001853917    1.723    0.420
       145  -9.0800     34.6710     57.8836   9.3433738568e+01   6.1799436375e+01    0.1793302    0.1396133 -43.02 0.0004346271    1.148    0.129
       146  -9.9391    200.0551     55.9482   4.7026629110e+01   2.8419320651e+01    0.3817748    0.2458383  16.79  0.001559859    3.058    0.673
       147 -10.1895    206.7344     52.2661   4.5183795931e+01   2.7405668396e+01    0.4654624    0.2523419 -29.95  0.001417843    1.988    0.497
       148  -9.8380    202.7417     51.2560   4.5465859001e+01   2.8473807780e+01    0.3961659    0.2073934 -54.01  0.001479658    1.991    0.498
       149  -9.2091    184.8007     56.3094   4.9423595149e+01   3.1980458197e+01    0.2908594    0.2012542 -23.22  0.001418576    1.689    0.408
       150  -9.7324     69.8165     55.3370   7.8351731789e+01   5.7608484634e+01    0.4265513     0.333818   4.42  0.002380847    1.289    0.224
       151  -9.2090    222.4731     56.0084   4.4089337595e+01   2.3323556189e+01    0.2314283    0.1686713  46.71  0.001264447    1.662    0.398
       152  -9.5162    112.2335     55.7397   6.4725149985e+01   4.9316490976e+01    0.2504016    0.2163396  83.88  0.000685068    1.451    0.311
       153 -10.5854     80.9826     53.6964   7.3740749270e+01   5.5968615692e+01    0.5424159    0.3546833 -16.98  0.002616025    1.754    0.430
       154  -9.3167     26.5517     56.4972   9.6529806321e+01   6.2852333713e+01     0.206334    0.1206311  18.87 0.0005892281    1.869    0.465
       155 -10.1367    174.0383     53.9305   5.0546638783e+01   3.4934514869e+01    0.4417223    0.1498442 -39.88  0.001573883    2.805    0.643
       156  -8.9042     85.4134     54.7403   7.2605469693e+01   5.4969480246e+01    0.1989257    0.1273765 -25.21  0.000945601    1.645    0.392
       157  -9.1722     22.7873     53.8405   9.7391181203e+01   6.3714478735e+01     0.153695    0.1414463 -56.70 0.0003655541    1.306    0.234
       158  -9.1557     43.9161     52.8214   8.7795377081e+01   6.1770952809e+01    0.2003201    0.1533341 -16.05 0.0008296107    1.200    0.166
       159 -10.2539    126.6876     50.3831   5.9139158745e+01   4.6882134034e+01    0.2829703    0.2485244   6.90  0.000262472    1.213    0.176
       160  -8.9280     29.5439     52.2129   9.3856876392e+01   6.3440850677e+01     0.262336   0.08526612 -45.21  0.001091734    2.461    0.594
       161  -9.8206     28.1553     41.3316   9.0740880692e+01   6.5655398652e+01    0.2815368    0.2349955 -82.24            0    1.996    0.499
       162  -9.7819     28.5901     48.1780   9.2946629460e+01   6.4321166186e+01      0.36542    0.1840382 -40.96  0.001844027    1.651    0.394
       163  -9.5656     25.1921     48.4259   9.4582788263e+01   6.4586556929e+01    0.2126961     0.194141 -53.45 0.0006823899    1.339    0.253
       164  -8.7556    116.1917     51.3513   6.2138207321e+01   4.9135640199e+01    0.2316467    0.1820705 -71.83 0.0004020908    1.730    0.422
       165  -9.5673    112.0234     49.7115   6.2691146702e+01   5.0317593337e+01    0.3328023    0.2309513  39.59  0.001657565    1.390    0.281
       166 -10.6227    106.3129     50.3886   6.4526542412e+01   5.1459319428e+01    0.3011608    0.2716728 -73.69  0.001691152    1.380    0.275
       167 -10.0844     17.8907     50.5645   9.8614718257e+01   6.4762157266e+01    0.3421262    0.1989074   1.83  0.001574419    1.923    0.480
       168  -9.3112    212.5972     49.7695   4.3819154569e+01   2.6420447264e+01    0.2393761    0.1806989  73.27 0.0009429391    1.321    0.243
       169 -10.3854     56.1456     42.0806   7.8678605311e+01   6.2058070347e+01    0.3794983     0.249223   8.70  0.001064213    1.680    0.405
       170  -9.3079     55.4354     49.7592   8.1900739933e+01   6.0823535326e+01      0.23496    0.1384401 -32.54 0.0009850462    1.592    0.372
       171 -10.2689     59.1065     47.7808   7.9683705009e+01   6.0638003332e+01    0.3176065    0.2759753  -3.50  0.001969633    1.037    0.035
       172 -10.3689     42.6237     45.7006   8.5790464643e+01   6.3258138804e+01     0.335455    0.1810354 -48.93  0.001371055    1.886    0.470
       173  -9.4897     49.2414     49.5523   8.4379395718e+01   6.1712139244e+01    0.2383666    0.1694397 -18.02 0.0006603762    1.347    0.258
       174  -9.6755     45.9280     47.1554   8.4901131235e+01   6.2580594847e+01    0.1966456    0.1741022  13.50 0.0002679213    1.214    0.176
       175 -10.8017      5.7185     48.2793   1.0359898682e+02   6.6015945742e+01    0.2595178     0.144265 -38.81  0.000199239    1.425    0.298
       176  -8.7083    121.9987     48.6949   5.9728160282e+01   4.8219869428e+01    0.1986842    0.1796298  46.30 0.0004848564    1.059    0.056
       177  -8.8583     73.5123     49.5490   7.4859028113e+01   5.8004705462e+01    0.1391102    0.1201819  -0.61 0.0001645219    1.043    0.041
       178  -8.9475    233.0074     48.0155   4.1057742013e+01   2.2174404778e+01    0.2102403    0.1285675 -62.83 0.0004229013    1.609    0.378
       179 -10.8037     97.0619     80.8158   7.7551685782e+01   4.7810745387e+01    0.3552016    0.2897176  21.30            0    1.285    0.222
       180  -9.6578     89.0318     48.0608   6.8955190636e+01   5.5386305818e+01    0.2032782    0.1872825   7.43 0.0003564694    1.040    0.038
       181  -9.8375     84.6248     47.4169   7.0169838546e+01   5.6339989436e+01    0.3552925    0.2619964   2.77  0.001690876    1.492    0.330
       182  -8.9206     10.9266     47.9081   1.0105171359e+02   6.5780703217e+01    0.1422331    0.1334105 -43.68  0.001030831    1.277    0.217
       183  -9.9337    152.0325     47.4855   5.2673638483e+01   4.1239676116e+01      0.28786    0.1930512  45.34 0.0009331317    1.503    0.335
       184  -9.2274    155.5161     45.5326   5.1413354147e+01   4.0663953582e+01    0.2536528    0.1301239  59.00 0.0008776874    1.831    0.454
       185 -11.2293    142.5208     44.3325   5.3601328969e+01   4.3992545375e+01    0.4782015    0.4308102 -15.36  0.002731991    1.204    0.169
       186 -10.4257    167.2365     43.3066   4.8675470662e+01   3.8101465373e+01    0.3906677    0.2444087  61.63 0.0009603249    1.510    0.338
       187  -9.7528    163.0733     42.4753   4.9142681956e+01   3.9233012631e+01    0.2121831    0.2063823 -59.15 0.0003427602    1.079    0.074
       188  -9.3992     20.0865     43.8441   9.5439215791e+01   6.5910821741e+01    0.1726164    0.1595868 -34.42 0.0007866751    1.271    0.213
       189  -9.0763     10.7540     43.2116   9.9708887823e+01   6.6722642009e+01    0.1655124    0.1046199 -32.59 0.0003314503    1.292    0.226
       190  -9.0871    218.9857     41.6868   4.1139448787e+01   2.6091051693e+01    0.1874283    0.1564407 -86.52  0.001129006    1.117    0.105
       191  -9.0706     99.4686     41.3329   6.3216017419e+01   5.4281794671e+01    0.3326961    0.2223411 -87.71  0.001107416    3.442    0.709
       192 -10.3818     35.6034     39.6198   8.6635456521e+01   6.5176130335e+01    0.3408593    0.2483589 -37.57  0.001373592    1.250    0.200
       193  -9.1556    151.8645     41.2193   5.0784343142e+01   4.2144873817e+01    0.2107261    0.1846596 -80.35 0.0006442281    1.200    0.167
       194  -9.6237     63.3035     40.7546   7.5298852103e+01   6.1166367719e+01    0.2248485    0.1852982   7.52 0.0006403905    1.093    0.085
       195 -10.4251     61.7743     37.0899   7.4418111175e+01   6.1993201290e+01    0.4908896    0.2501038 -13.54  0.001903096    3.272    0.694
       196 -10.3477    112.2597     38.9135   5.8792995871e+01   5.1829220172e+01    0.3332718    0.2725737 -60.63  0.001815809    1.530    0.346
       197  -8.3260     77.2924     40.6864   7.0096586801e+01   5.8764584171e+01    0.1219964     0.110088 -74.21 0.0002397114    1.593    0.372
       198  -9.8377     48.5919     37.7118   8.0097737521e+01   6.3868416567e+01    0.3159243    0.2485517 -68.51   0.00174631    2.250    0.556
       199 -10.0199     33.9217     34.7500   8.5502365610e+01   6.6212529828e+01    0.3060979    0.1779745 -19.33  0.001258943    1.761    0.432
       200  -8.9288    182.1252     38.1445   4.4918101010e+01   3.5161864909e+01    0.1865913    0.1459033 -64.72 0.0003703103    1.277    0.217
       201  -9.4455    183.9704     35.3887   4.3915870842e+01   3.5069948601e+01    0.2922445    0.2156988 -28.80   0.00159145    1.490    0.329
       202 -11.2294    108.7997     43.3044   6.1296277589e+01   5.1983554597e+01    0.2690734    0.2374202  43.01 0.0002461509    1.087    0.080
       203  -9.6592     34.3696     46.1719   8.9627435864e+01   6.4118052701e+01    0.2136891    0.1743147  19.88   0.00133893    1.332    0.249
       204  -8.7404    133.7811     38.4029   5.3520243160e+01   4.6894402232e+01    0.2062789    0.1180601  48.22 0.0007466783    1.633    0.388
       205  -9.2135     77.6487     35.2896   6.7820650553e+01   5.9498142453e+01    0.3050364    0.2280166  69.55 0.0005989517    2.120    0.528
       206 -10.3833     83.0000     35.9958   6.6293219410e+01   5.8380969638e+01     0.394359    0.2302338 -48.88  0.001820847    2.340    0.573
       207 -10.9581     78.9313     31.2582   6.5741663680e+01   5.9818071488e+01    0.3697107    0.3151051  79.78  0.001384467    1.759    0.431
       208  -9.6919    127.6081     36.5853   5.4266091879e+01   4.8597170601e+01     0.259817     0.236987  76.70 0.0009603098    1.161    0.139
       209  -9.4555     70.1587     36.8263   7.1118215039e+01   6.0625420350e+01    0.1961176    0.1441423   9.19  0.001089821    1.362    0.266
       210  -9.1451    170.4410     35.7389   4.5992508430e+01   3.8310129612e+01     0.247372    0.1267758 -36.40  0.000989193    1.967    0.492
       211  -9.5035    215.4016     34.5293   3.9852960781e+01   2.7828356960e+01    0.4031272    0.1731706 -58.70  0.001649364    2.711    0.631
       212  -9.7040    192.9571     33.7857   4.2302171618e+01   3.3122412658e+01     0.394127    0.2026326  45.29  0.001736574    2.404    0.584
       213 -12.0450     76.1395    219.7401   1.1036093984e+02   1.8584066056e+01    0.6575553    0.6332351  62.84  0.003167063    1.199    0.166
       214 -11.7955    238.0197     32.3500   3.7127686419e+01   2.3181952608e+01    0.5881828    0.3548043 -77.05  0.003243822    1.689    0.408
       215 -11.0890    239.5253     22.5436   3.4915347161e+01   2.4068897717e+01    0.3262423    0.2344009 -68.77 0.0006975877    1.182    0.154
       216  -8.6163     99.0013     34.0170   6.0592711829e+01   5.5390400979e+01    0.1623444    0.1461174  22.38 0.0003845019    1.013    0.013
       217 -10.0543    115.0446     32.1032   5.5639292569e+01   5.2084716512e+01    0.2389359    0.2189799  -0.71 0.0003861626    1.129    0.114
       218 -10.0774    110.4758     29.5344   5.5835458852e+01   5.3436470887e+01    0.3104495    0.2642826  47.82  0.001034187    1.087    0.080
       219 -10.5703     62.9463     30.8968   7.1380333529e+01   6.2728113667e+01    0.5765138    0.2147644  31.95  0.002203963    3.167    0.684
       220 -10.9416     48.0781     28.6033   7.6494831943e+01   6.5375924822e+01    0.3218618    0.2501175  35.15 0.0003868206    1.436    0.303
       221  -8.9584    221.3010     30.9647   3.8411471044e+01   2.6959769379e+01    0.1716712    0.1445282 -60.37 0.0002794566    1.069    0.065
       222  -9.1298    151.0317     30.7164   4.7703265304e+01   4.3678305385e+01    0.2014209    0.1681584  61.60 0.0008510562    1.101    0.091
       223  -9.4646    124.7565     30.3175   5.2750765648e+01   5.0050230985e+01    0.2237022    0.1985304  78.09 0.0006603636    1.208    0.172
       224  -9.5076     29.4930     30.6080   8.5933151783e+01   6.7401551346e+01    0.2483881    0.1048623 -43.99 0.0008987762    2.147    0.534
       225  -9.1279     21.4914     30.1288   8.9710627467e+01   6.8287674743e+01    0.2733073   0.09611627 -45.51 0.0008201477    2.398    0.583
       226  -9.3993     21.8663     26.0717   8.7855038968e+01   6.8936541867e+01    0.2752902    0.1521606 -27.63 0.0008342275    1.588    0.370
       227 -10.7485    237.2076     26.1999   3.5882688761e+01   2.4113897582e+01    0.3253449    0.2372455 -64.70 0.0009021346    1.159    0.138
       228  -9.8124    216.0483     28.3511   3.8339419856e+01   2.8453067903e+01    0.2286897    0.2096234   5.54 0.0008663695    1.472    0.321
       229  -9.4836    106.8952     35.0440   5.8796867460e+01   5.3540994975e+01    0.2032719    0.1802382  29.63 0.0002673175    1.032    0.031
       230 -10.2409    183.6060     26.0725   4.1478063952e+01   3.6290518476e+01    0.3959011     0.277316  37.11  0.001329037    1.801    0.445
       231  -8.7910     86.3860     34.1897   6.4474066640e+01   5.7968891389e+01    0.1755199     0.122637 -38.18  0.000766925    1.571    0.364
       232 -10.2179     15.7627     28.1877   9.1880041163e+01   6.9128407980e+01     0.373952    0.1800441 -23.06  0.001913765    2.158    0.537
       233  -8.5167    172.2786     28.2971   4.3620432895e+01   3.8771013395e+01    0.1301961   0.09975395  36.65 0.0002015307    1.536    0.349
       234  -9.8157    206.5737     26.0920   3.8793321380e+01   3.0879014339e+01    0.2448263    0.2205416 -50.90 0.0007851854    1.169    0.145
       235  -9.9417     81.0179     26.1693   6.2949033749e+01   6.0078184687e+01    0.2928474    0.2614374 -82.06   0.00107833    1.632    0.387
       236  -9.7169     76.9678     23.5460   6.3182232964e+01   6.1186356572e+01    0.2359501    0.1429843  39.60 0.0006972192    1.487    0.328
       237  -9.7872     43.0586     29.2773   7.9006167448e+01   6.5970851612e+01    0.3049018    0.1482021 -36.53 0.0001652223    1.906    0.475
       238  -8.6104      2.2892     27.6547   9.8845513059e+01   7.0175555540e+01   0.09623232   0.08907012 -86.16 0.0007024514    1.655    0.396
       239  -9.9295    120.7571     25.9352   5.2105374996e+01   5.1498903219e+01    0.3955171    0.2195197  54.25  0.001563988    1.596    0.373
       240  -9.5601     55.8429     25.4632   7.1844221402e+01   6.4652550432e+01    0.2591155    0.1504663 -14.14  0.001317178    1.912    0.477
       241 -10.6253    226.7476     22.9009   3.6082599576e+01   2.6744295316e+01    0.4002178    0.2354515  77.94  0.002225651    1.633    0.388
       242  -9.6205    222.7560     20.3979   3.5884461954e+01   2.7908892811e+01    0.2236986    0.1845125  73.73 0.0006267557    1.248    0.198
       243 -10.3540     30.5231     23.2742   8.2274998595e+01   6.8463295305e+01    0.4158625    0.2515059 -22.68   0.00230384    1.484    0.326
       244  -9.6080     29.2794     18.3162   8.0625081453e+01   6.9352156769e+01    0.2179508    0.1388301 -12.10 0.0004318152    1.445    0.308
       245  -9.1111     30.5045     15.4979   7.8671152867e+01   6.9608539288e+01    0.1785685    0.1338334 -43.87 0.0006753351    1.757    0.431
       246 -11.7002     69.3680    217.3767   1.1157206162e+02   2.0004216495e+01     0.563821    0.5138831  65.80  0.002942484    1.116    0.104
       247  -9.0078    249.6515     23.3336   3.4278590584e+01   2.1903923993e+01    0.1332372   0.06948283 -63.27  0.000704825    1.773    0.436
       248  -9.8731    218.7436     22.3133   3.6685490140e+01   2.8572282017e+01    0.3180405    0.1631665 -66.43  0.001534783    2.078    0.519
       249  -9.7249    179.3109     22.7761   4.1147481067e+01   3.7701618340e+01    0.2369746    0.2225436  67.77 0.0009293249    1.134    0.118
       250 -10.3761    164.8494     21.7439   4.2829382413e+01   4.1325511642e+01    0.3866254    0.2204745  50.04  0.001368615    1.744    0.426
       251  -8.8866    159.3546     22.7716   4.3943153839e+01   4.2554002384e+01    0.1887883    0.1592485  79.52 0.0007021332    1.099    0.090
       252  -8.3990    155.3129    214.7091   9.2324259459e+01   7.2084627346e+00    0.1317638     0.103323  63.23 0.0003104837    1.589    0.371
       253  -8.4366     98.5329     23.5373   5.6674592072e+01   5.6778462118e+01    0.1328736    0.1185886  33.17 0.0004862485    1.030    0.029
       254  -9.4291      8.0376     22.8554   9.3890843040e+01   7.0647025468e+01    0.1911532    0.1437085  -3.75 0.0005826788    1.231    0.187
       255 -10.0793      2.3066     21.6061   9.6585627090e+01   7.1246585410e+01    0.2398303    0.2253281 -24.08  0.001451532    1.418    0.295
       256 -10.0814    142.0329     21.5445   4.6405871442e+01   4.6906846195e+01    0.2645176    0.2188499  50.89 0.0005358048    1.131    0.116
       257  -8.5897     92.1585     22.4011   5.8000285461e+01   5.8266408638e+01    0.1668657    0.1211063  60.56 0.0007092323    1.504    0.335
       258  -9.6351    205.9560     21.1261   3.7664905982e+01   3.1600825875e+01    0.1868947    0.1599562 -83.88 0.0002800122    1.029    0.028
       259  -9.0683     91.2813    214.6134   1.0646204561e+02   1.7503147971e+01    0.1808324    0.1208392  29.73 0.0007167268    1.592    0.372
       260  -9.5932    154.6072     18.2227   4.3312953944e+01   4.4197454723e+01    0.2381636    0.1858356  64.87 0.0006741548    1.145    0.127
       261  -9.9894      1.3989    185.1852   1.2357185838e+02   3.4506971902e+01    0.3359042   0.08912486 -76.12  0.001386727    2.993    0.666
       262  -9.5678    119.3242     18.8400   4.9899339955e+01   5.2600565646e+01    0.2442123    0.1732345  52.91  0.000603896    1.239    0.193
       263  -9.2667     13.3687    174.2976   1.2011761418e+02   3.6034894857e+01    0.1201296   0.08375719 -46.95 0.0001460429    1.731    0.422
       264 -11.1197      6.8576    168.6390   1.2118452240e+02   3.7891414744e+01    0.2752737    0.1943016  55.08 0.0007294185    1.392    0.281
       265 -11.1831      7.2728    163.5978   1.2068282833e+02   3.9048570007e+01     0.232343    0.2154972  -8.07 0.0009101102    1.460    0.315
       266 -11.6501      9.0585    155.2121   1.1952356496e+02   4.0914307194e+01    0.4202844     0.221921 -57.62  0.001306427    1.745    0.427
       267 -11.2243      3.0810    152.7809   1.2080735825e+02   4.1924644913e+01    0.3790202    0.2645195 -50.10  0.002357339    1.548    0.354
       268 -10.7387     25.3931    152.5555   1.1504455340e+02   4.0218610684e+01    0.3030571    0.1808474  78.39 0.0009806252    1.765    0.434
       269 -10.2324     21.0194    153.5346   1.1629923561e+02   4.0362319481e+01    0.1700721     0.127397  29.52  0.000610102    1.569    0.363
       270  -9.3118     32.0616    147.2934   1.1261862130e+02   4.0901159781e+01    0.1726671    0.1582509  84.85 0.0003775787    1.106    0.096
       271 -10.6809     11.6615    145.0724   1.1787780665e+02   4.3172687837e+01    0.2316097    0.2030298  73.17 0.0002953727    1.173    0.147
       272  -9.2189     77.3299     16.4139   5.9997776223e+01   6.1940969202e+01    0.1678867    0.1170354  55.89 0.0009388962    1.567    0.362
       273 -10.6176     39.4348     15.9764   7.4596876368e+01   6.8379474218e+01    0.2334375    0.1571184  21.93  0.001451028    1.340    0.254
       274 -10.8938      3.7802    142.2607   1.1968790214e+02   4.4401838093e+01    0.3633035     0.269733 -39.18   0.00219828    1.588    0.370
       275  -9.3184     36.3766    142.0978   1.1072603261e+02   4.1775260241e+01    0.2338806    0.1871731 -14.68 0.0007828823    1.618    0.382
       276 -10.3421     21.4558    141.9429   1.1488011682e+02   4.3172680880e+01    0.2088905    0.1912489  49.85 0.0003928832    1.250    0.200
       277 -12.6986    232.5601    126.8193   5.8993056222e+01   9.5985693214e+00     1.316233    0.6073018  60.41   0.00502478    3.391    0.705
       278  -8.8236     77.9936     12.7562   5.8193137746e+01   6.2196346731e+01    0.1741241    0.1423948  30.98 0.0003175381    1.043    0.041
       279 -12.8529    220.0354    133.6962   6.2648593367e+01   1.0762223041e+01     2.089804     1.167983  59.07  0.008979633    2.433    0.589
       280 -12.6231    221.2569    115.7069   5.8321325072e+01   1.3771690375e+01     1.629036     1.043141 -23.38  0.007599649    1.775    0.437
       281 -10.6505     12.0128    139.4876   1.1719647893e+02   4.4508348503e+01     0.219349    0.1608086 -20.32   0.00130359    1.818    0.450
       282 -10.6936     28.7612    138.7561   1.1243364628e+02   4.3330450244e+01    0.4037333    0.2126197 -56.89  0.001111992    1.650    0.394
       283  -9.4630     19.5224    136.8271   1.1480556462e+02   4.4591539550e+01    0.2646261     0.107733 -71.04  0.001170013    2.027    0.507
       284 -10.6090     15.9268    131.7098   1.1520593198e+02   4.6127811594e+01    0.3953535    0.2009433  83.55  0.001748585    2.329    0.571
       285 -10.2662     12.1038    128.8808   1.1596583631e+02   4.7095711539e+01     0.235532    0.1683702 -65.62 0.0004228991    1.151    0.131
       286  -9.1281      1.2152    133.9896   1.1958212988e+02   4.6556013189e+01    0.1710466   0.08126824 -75.33 0.0005840675    1.664    0.399
       287  -9.1042     30.2143    133.2007   1.1125418973e+02   4.4582438456e+01    0.1767869    0.1407207  74.31 0.0004671897    1.306    0.234
       288  -9.5760      4.4030    131.2068   1.1841777483e+02   4.7034138996e+01     0.186074   0.09923113 -86.16  0.000955485    1.702    0.412
       289  -9.0642     80.3251    129.0771   9.5462414587e+01   3.9513816692e+01    0.2050923    0.1744885 -58.44 0.0003183122    1.101    0.092
       290 -10.6143     28.6192    125.3591   1.1058954618e+02   4.6675827489e+01    0.4191293    0.2625029 -46.21  0.001490623    1.559    0.359
       291  -9.5240    144.1138     14.2207   4.3730355280e+01   4.7148466005e+01    0.2029663    0.1585536  47.30 0.0004915305    1.237    0.192
       292  -9.8761     23.7578    125.2947   1.1205286180e+02   4.7102012653e+01    0.2261534    0.1776314 -80.50 0.0005271368    1.147    0.128
       293 -10.1919     48.0458    125.1493   1.0458008216e+02   4.4795113730e+01    0.4224156    0.2605195 -52.41  0.002098939    1.451    0.311
       294 -10.3931      8.5171    122.8905   1.1629465562e+02   4.8795704776e+01    0.3292059     0.151695 -57.87  0.001647235    1.744    0.427
       295  -9.1418     94.0163    122.7198   8.9930308111e+01   3.8844016713e+01    0.2017717    0.1969263 -32.51  0.000544811    1.040    0.039
       296  -8.8221     73.5244    122.0336   9.6026498222e+01   4.2283091412e+01    0.2143423    0.1369108 -58.43 0.0009861809    1.462    0.316
       297  -9.0290     69.2044     19.2316   6.3979347550e+01   6.3160264349e+01    0.2346578    0.1545604 -33.15 0.0007999514    1.648    0.393
       298  -8.3874     61.9900    119.9617   9.9204466439e+01   4.4397542317e+01    0.1726785    0.1500642 -57.97 0.0003542098    1.041    0.040
       299  -9.2387     69.9082    118.8145   9.6456983860e+01   4.3600775838e+01    0.2243663    0.1894755 -37.09 0.0006198269    1.189    0.159
       300  -9.6490     57.9677    117.7009   1.0001839428e+02   4.5474958696e+01    0.2448684    0.1845922 -58.11 0.0005762982    1.187    0.158
       301  -8.7956     98.5660    117.2704   8.7254417780e+01   3.9356066259e+01    0.2032454     0.139914 -41.04 0.0004048487    1.444    0.307
       302 -10.2129     25.5348    116.2676   1.1014863231e+02   4.9186122220e+01      0.30076    0.1890092  34.06  0.001197513    1.818    0.450
       303  -8.8940     38.3927    124.8264   1.0751080016e+02   4.5896293696e+01    0.2000827    0.1057208 -56.53 0.0006118508    1.604    0.377
       304  -9.9995     39.3257    115.2240   1.0554655548e+02   4.8191141944e+01    0.3327318     0.205085  64.85  0.001553178    2.205    0.547
       305 -10.3035     11.1425    115.0136   1.1449006503e+02   5.0543930888e+01    0.2650487    0.1912895 -49.12 0.0007687701    1.292    0.226
