#   1 NUMBER                 Running object number                                     
#   2 MAG_AUTO               Kron-like elliptical aperture magnitude                    [mag]
#   3 X_IMAGE                Object position along x                                    [pixel]
#   4 Y_IMAGE                Object position along y                                    [pixel]
#   5 X_WORLD                Barycenter position along world x axis                     [deg]
#   6 Y_WORLD                Barycenter position along world y axis                     [deg]
#   7 A_WORLD                Profile RMS along major axis (world units)                 [deg]
#   8 B_WORLD                Profile RMS along minor axis (world units)                 [deg]
#   9 THETA_WORLD            Position angle (CCW/world-x)                               [deg]
#  10 FWHM_WORLD             FWHM assuming a gaussian core                              [deg]
#  11 ELONGATION             A_IMAGE/B_IMAGE                                           
#  12 ELLIPTICITY            1 - B_IMAGE/A_IMAGE                                       
         1 -11.4854      5.2575     35.4270   9.9130989758e+01   6.8556488476e+01    0.8106319    0.3604355 -58.46  0.004190458    2.183    0.542
         2 -11.4951     14.7265     38.5890   9.5454960983e+01   6.7311840004e+01    0.6266372     0.413522 -58.68  0.002045518    1.694    0.410
         3 -10.5208     56.2383     33.6438   7.4497908771e+01   6.3307571597e+01     1.144851    0.4563535  49.85   0.00416868    4.186    0.761
         4 -10.7906     41.1999     22.0103   7.5846992009e+01   6.7219604904e+01    0.4945667    0.2636708 -42.79  0.002479248    2.149    0.535
         5 -11.6174    105.5674     21.1343   5.3364118232e+01   5.5349018222e+01    0.4018277    0.2924831  73.06 0.0004102717    1.610    0.379
         6 -11.3842    106.6435     30.2950   5.6532433965e+01   5.4056328483e+01    0.5499706     0.361344 -25.95  0.001886207    1.621    0.383
         7 -10.3201     40.4131     17.1823   7.3946009515e+01   6.7992348554e+01    0.8872028    0.3683956  20.57  0.003403473    3.881    0.742
         8 -11.1766     34.9505     28.6405   8.1698141696e+01   6.7036018587e+01    0.5805105    0.4044082   7.03   0.00133178    1.346    0.257
         9 -10.6506     26.4136     21.7249   8.2816347262e+01   6.9103399069e+01    0.4366209    0.2495109 -12.20   0.00215334    1.840    0.456
        10 -11.5175     18.6457     28.4012   8.9646147788e+01   6.8805359374e+01    0.5160322    0.3579527 -46.68 0.0007169067    1.485    0.327
        11 -11.7443    166.5903     17.1682   4.0838734392e+01   4.1228170432e+01    0.5491827    0.3504148   3.35   0.00266087    2.424    0.588
        12 -10.2161    174.1570     12.2988   3.8530866851e+01   3.9894844035e+01    0.4491553    0.3290551  50.94  0.002610663    1.420    0.296
        13 -11.1454    217.7353     18.7483   3.5572615746e+01   2.9063332486e+01    0.7899804    0.3427234  84.10  0.003510624    2.554    0.608
        14 -10.0255    210.8905     15.0803   3.5360582891e+01   3.1005754616e+01    0.4478964    0.2339468  86.48  0.001555439    1.921    0.479
        15 -10.7120    173.1672     23.9028   4.1829573207e+01   3.8903082503e+01    0.6647722    0.3991306  71.68   0.00337257    1.546    0.353
        16 -11.7646      2.0275     25.1201   9.7207466552e+01   7.0633467280e+01    0.2641805    0.1498098 -50.39 0.0006190264    1.546    0.353
        17 -12.1286    117.0045     22.1795   5.1073370848e+01   5.2631729754e+01    0.3150536     0.252583  42.95 0.0004950541    1.129    0.115
        18 -10.8247     61.2055     17.2494   6.5327187575e+01   6.4703212051e+01    0.7135233    0.3369387  24.05  0.003105745    2.690    0.628
        19 -10.2645     67.7208     16.0120   6.2398438273e+01   6.3678255177e+01     0.347793    0.3134358 -28.04  0.002232665    1.358    0.264
        20  99.0000      5.5585      8.3132   8.7977692370e+01   7.3132532888e+01    0.4322292    0.2490505   1.97  0.002757124    1.643    0.391
        21  -8.9922     23.4947      1.5154   7.4238733692e+01   7.2194988595e+01    0.1568303    0.1193072 -20.24 0.0006336421    1.301    0.231
        22 -11.5767      6.7661     15.7944   9.0744784815e+01   7.1880501546e+01    0.4791337    0.3763256  -8.81   0.00226944    1.146    0.127
        23 -10.8582     13.5986     11.5629   8.4891899142e+01   7.1943433246e+01    0.4692922    0.2470007 -10.22  0.001937962    2.054    0.513
        24 -11.3040     15.5415      3.6969   7.9780602423e+01   7.2840701142e+01    0.4136056     0.230612  -3.13  0.001118196    1.829    0.453
        25 -11.6197     24.9285      6.9345   7.6386688335e+01   7.1353444861e+01     0.213613    0.1751589  -0.37            0    1.183    0.155
        26 -11.7962     20.7800      6.4610   7.8342438885e+01   7.1902574019e+01    0.3656156     0.228647   4.89  0.002334916    1.451    0.311
        27 -10.3359    197.9710     17.7605   3.7267719975e+01   3.3674652131e+01    0.5106066    0.2883161  80.87  0.002628282    1.695    0.410
        28 -11.5106    231.7048     15.9263   3.3762780078e+01   2.6346354358e+01    0.5220549    0.2919983 -60.34   0.00276857    1.599    0.375
        29 -10.5163     16.6878     17.5346   8.5998547956e+01   7.0750569040e+01    0.4655254    0.1982841  16.68  0.001784322    2.643    0.622
        30  -9.9150    117.0458     15.1461   4.8540580694e+01   5.3339813997e+01    0.3419608    0.2028494  43.49 0.0009492694    1.550    0.355
        31  -8.8059    112.3829     14.7522   4.9396878602e+01   5.4453973826e+01    0.2327962    0.1849344  -2.08  0.001376719    1.391    0.281
        32 -10.8493    244.9255     12.2608   3.2016464095e+01   2.4011326977e+01    0.4466857    0.2850809  32.30   0.00230475    3.237    0.691
        33 -10.8899    248.6868      4.0705   3.0151270248e+01   2.4150344683e+01    0.3453749    0.2790959 -13.56  0.001397278    1.846    0.458
        34  -9.2564    152.8127     12.5568   4.1426131627e+01   4.5035171187e+01    0.3603813    0.2005994 -82.46  0.001242753    2.358    0.576
        35 -10.6774    145.7734     12.2444   4.2386257758e+01   4.6771303431e+01    0.5361798    0.2728094  79.40  0.002286712    2.163    0.538
        36 -10.1857     99.0355     12.9554   5.1822304464e+01   5.7624865378e+01    0.3557807     0.260635 -71.03  0.001912053    2.046    0.511
        37  -9.3027     98.2745      6.9978   4.9656558826e+01   5.8329872294e+01    0.2550947    0.1683927  12.21 0.0008700451    1.705    0.414
        38  -9.7976     32.6462     12.6892   7.5424411686e+01   6.9638040957e+01    0.2253858    0.1875292 -28.21  0.001015198    1.426    0.299
        39  -9.5611    218.9621     11.8697   3.3923758980e+01   2.9555445700e+01    0.2788216    0.1879045 -43.95  0.001695442    1.399    0.285
        40 -10.4239    133.0891     12.7217   4.4627068793e+01   4.9781710606e+01    0.2027507    0.2003739   6.87 0.0003163123    1.137    0.120
        41  -8.6893     88.5095      6.4704   5.1881698880e+01   6.0484015738e+01    0.2270881    0.1894412  51.64 0.0008356059    1.157    0.136
        42  -9.6740     88.9528     12.8699   5.4420315118e+01   5.9802475483e+01    0.2538748    0.2127617  43.48  0.001113829    1.094    0.086
        43  -9.4507     90.7741      8.9801   5.2326913951e+01   5.9781291200e+01     0.394614    0.1666396  34.56  0.001537291    2.566    0.610
        44  -8.6406     81.3865      1.6573   5.1741443096e+01   6.2372876550e+01    0.2844234    0.1571995  60.14  0.001168613    1.771    0.435
        45 -10.0847     78.9272     11.5512   5.6759238076e+01   6.1990712364e+01    0.2743812    0.2042907 -16.46 2.925336e-05    1.397    0.284
        46  -8.8579     74.4052      7.8091   5.6497799039e+01   6.3246674028e+01    0.2371608    0.1463925  35.01  0.001048368    1.406    0.289
        47 -10.5664     74.1310      2.7258   5.4294455329e+01   6.3752790904e+01    0.3363535    0.3031668  18.85  0.001396747    1.145    0.127
        48 -10.3772     69.3993      2.0311   5.5432189452e+01   6.4737829806e+01    0.3429478    0.1621573  41.16  0.001101596    1.762    0.433
        49  -8.7181     49.3681      7.7580   6.5445124839e+01   6.7768729013e+01    0.1984331    0.1534429  70.44 0.0007379083    2.476    0.596
        50 -10.1863     55.9833     11.5337   6.4648998574e+01   6.6255568356e+01    0.2652643    0.1911796 -15.01 0.0006802744    1.328    0.247
        51  -9.6665     52.5494     10.6838   6.5593592100e+01   6.6926044653e+01    0.4030587    0.1851098 -16.54  0.001886635    2.561    0.609
        52  -9.2303    198.6340      1.7063   3.3334084421e+01   3.5165189130e+01    0.1792081    0.1604634  73.42 0.0005601217    1.205    0.170
        53 -10.9606    191.9085      8.3314   3.5563632015e+01   3.6077381113e+01    0.5565618    0.3651075 -83.94  0.002221329    1.439    0.305
        54 -10.5330    194.5295      3.6817   3.4175035796e+01   3.5921933033e+01     0.493858    0.2329614  71.85  0.001973659    1.855    0.461
        55 -10.4667     42.5464     10.0015   6.9473902243e+01   6.8583092255e+01    0.3215268    0.1809141  30.19 0.0006789799    1.599    0.375
        56 -10.3920     39.2259      3.8767   6.7820694329e+01   6.9771995696e+01    0.3101496    0.2495256  -8.12  0.002193794    1.193    0.162
        57 -10.6092    208.5728      3.6436   3.2939675367e+01   3.2721609049e+01    0.4110669    0.3224597 -58.78  0.001588802    1.166    0.142
        58 -10.0124    212.5930      8.8889   3.3793402925e+01   3.1286259980e+01    0.4073653    0.2516368  50.33  0.002269482    1.964    0.491
        59 -10.3301    218.4495      2.7241   3.1952670759e+01   3.0622852195e+01    0.3108143    0.2278098  62.97  0.001175991    1.466    0.318
        60  -9.3276    128.3175      8.5478   4.4072352424e+01   5.1296009231e+01    0.2663654     0.229724  62.75  0.001675131    1.033    0.032
        61  -9.5215    120.0712      9.3122   4.5856381668e+01   5.3172458706e+01    0.2755632    0.1904585 -15.11 0.0004072609    1.661    0.398
        62 -10.5362    201.9744      8.1154   3.4551443947e+01   3.3769602472e+01    0.3244653    0.2347585 -80.77  0.001986903    1.226    0.184
        63 -10.6755    182.4872     17.9679   3.9046234700e+01   3.7309477922e+01    0.5237262    0.3414901  25.43  0.001336047    2.356    0.576
        64 -11.0339    237.2865      2.8536   3.0642957332e+01   2.6595975764e+01    0.5830891    0.2066316  78.56  0.002721229    2.713    0.631
        65  -8.8048    108.7760      1.3645   4.5198326530e+01   5.6430384942e+01    0.2615573    0.1267488  48.07 0.0007736989    1.729    0.422
        66  -9.7940    111.9492      4.5078   4.5724559543e+01   5.5459060433e+01    0.2193949    0.1975628  26.37  0.000502172    1.135    0.119
        67 -10.9178    116.1626      1.9241   4.3975090193e+01   5.4691072750e+01    0.3977104    0.1601631  63.64 0.0005515981    2.107    0.525
        68  -8.9024     69.5179      7.2384   5.7797655672e+01   6.4247242733e+01    0.1629074    0.1143967 -13.01  0.000790984    1.445    0.308
        69  -9.7225     61.7598      5.1103   5.9433627733e+01   6.5896205823e+01    0.2394545    0.1991825 -14.72 0.0008808378    1.291    0.226
        70 -10.9306    160.3745      2.8064   3.7573841594e+01   4.4092487379e+01    0.4603344    0.2612226  64.57  0.001934027    1.502    0.334
        71  -9.4353    152.9576      4.0413   3.8875026716e+01   4.5772125799e+01    0.1962745    0.1770666 -44.35 0.0008103842    1.235    0.190
        72 -10.1929     30.9621      3.2179   7.1359834127e+01   7.1025847374e+01    0.2542008    0.1864639 -40.06 0.0006822646    1.909    0.476
        73  -9.8013    106.8130      6.0500   4.7363060803e+01   5.6503494541e+01    0.3433112     0.268606 -51.74  0.001377883    1.587    0.370
        74 -11.0626    179.7274      2.1156   3.5222305524e+01   3.9532962205e+01     0.285799    0.1888174  79.29 0.0005857578    1.319    0.242
        75  -8.3152    142.2413      3.7502   4.0278812920e+01   4.8375612180e+01     0.223986   0.07085091  57.27 0.0008982407    2.463    0.594
        76 -10.4079     90.4766      1.9175   4.9489797922e+01   6.0439916147e+01    0.3947677    0.1893323  62.67  0.001311052    2.017    0.504
        77  -9.3914      2.6420      2.8748   8.7031435825e+01   7.4162411842e+01    0.2273266    0.1213563 -18.37 0.0009261827    1.644    0.392
        78  -9.1504     50.2639      1.9077   6.2138565571e+01   6.8216108426e+01    0.2341098    0.1367156  35.18 0.0007842917    1.449    0.310
        79 -10.1829    224.4252      8.3791   3.2719747378e+01   2.8737081049e+01    0.4085166    0.1740813 -39.33  0.002076662    2.086    0.521
        80  -8.3034    185.9539      1.0000   3.4322184980e+01   3.8169030023e+01    0.2014941   0.06209362  72.96 0.0004244002    2.839    0.648
        81  -9.1665     48.9688    115.7402   1.0194680975e+02   4.7020949661e+01    0.1885721    0.1764154 -48.67 0.0004459255    1.074    0.069
        82  -9.3016    201.5598    249.6817   8.8084777378e+01  -5.7384961964e+00    0.2153319    0.1534081  19.04 0.0006153634    1.156    0.135
        83  -8.7083    122.1097    112.1874   7.8601268555e+01   3.5893639527e+01    0.2144182    0.1894412  87.48 0.0005326245    1.320    0.242
        84  -9.1345     62.8411    110.7688   9.6361456264e+01   4.6518712697e+01    0.2428735    0.1713887 -47.87 0.0002697201    1.290    0.225
        85  -9.1752      3.4550    102.9433   1.1470664060e+02   5.3927910388e+01    0.2322179    0.1334977 -75.94  0.001000139    1.498    0.332
        86  -9.2404      6.7471     89.2310   1.1144068018e+02   5.6984339999e+01    0.2599609     0.175018 -62.32  0.001013724    1.178    0.151
        87 -10.2687      5.7006     98.2685   1.1327059785e+02   5.4916815064e+01    0.4001709    0.2759448  15.19  0.002445895    1.784    0.439
        88  -9.3392      6.5236     94.5132   1.1239822598e+02   5.5758676598e+01    0.2111022    0.1605415  20.50  0.001343435    1.607    0.378
        89 -10.6789      7.3396    107.9555   1.1415141873e+02   5.2510215392e+01    0.4531628    0.2913747 -50.00  0.001970094    1.368    0.269
        90  -9.5165      2.3996    109.1964   1.1589296295e+02   5.2490923132e+01     0.280893     0.197176  81.69 0.0009680461    1.495    0.331
        91  -9.9958     94.5464    118.0223   8.8085628972e+01   3.9821397008e+01     0.499544    0.2888328 -27.65  0.001869692    2.521    0.603
        92 -11.1956     37.1564    105.8710   1.0390128624e+02   5.0697582286e+01     0.890097    0.2869927 -57.36   0.00344433    2.421    0.587
        93  -9.2003     33.8563     97.8273   1.0340515400e+02   5.2953204306e+01    0.2364075    0.2040749  82.89 0.0008656181    1.345    0.256
        94 -10.2516     43.5784     88.2318   9.7708383856e+01   5.4231834851e+01    0.3463883    0.2327919  21.84  0.000555169    1.670    0.401
        95 -10.2670     32.9883     91.9815   1.0246277414e+02   5.4420504641e+01    0.7728418     0.313456 -38.87  0.003116384    2.631    0.620
        96  -9.7400     27.3869     91.8810   1.0447573567e+02   5.4936717770e+01    0.2788414     0.215975  46.06 0.0004598472    1.574    0.364
        97 -10.1127     47.2437     92.3849   9.7394749594e+01   5.2857299016e+01    0.5161247    0.1630259 -50.30  0.001910791    2.580    0.612
        98  -9.2843     48.0040     88.1865   9.6072008352e+01   5.3744261128e+01    0.1830347    0.1624884 -37.17  0.001089991    1.028    0.027
        99 -10.4893     21.9977     87.7047   1.0557975401e+02   5.6345672737e+01    0.4065104    0.2325926  29.70   0.00215565    2.025    0.506
       100 -11.2031     30.3525     85.4501   1.0196678827e+02   5.6181597448e+01    0.4683195    0.3281385 -46.19  0.002676228    1.201    0.167
       101 -10.3879    117.5042    106.7244   7.8415991879e+01   3.8067615473e+01    0.4550529    0.2799383 -31.30  0.001357382    1.881    0.468
       102 -10.8431     93.6354    104.7301   8.4962128700e+01   4.3120019667e+01    0.4995434    0.4139192  53.44  0.001333134    1.346    0.257
       103 -11.6476     88.8899    103.6269   8.6155735484e+01   4.4211450694e+01    0.2973188    0.2464268 -52.99 0.0002358001    1.179    0.152
       104  -9.6637     84.7308    102.3259   8.7135800134e+01   4.5223193655e+01    0.2780073    0.2235786 -47.26 0.0002410006    1.171    0.146
       105  -9.6037     70.5264    103.5388   9.2097146142e+01   4.7178080661e+01    0.4649208    0.1625391  46.79  0.001438762    4.071    0.754
       106  -9.5015     63.1398    104.5214   9.4805311539e+01   4.7990002899e+01    0.2776644    0.2115969 -16.12  0.001039923    1.533    0.348
       107  -9.3341     51.3114    104.6581   9.8835010265e+01   4.9462697786e+01    0.2756959    0.1327472 -64.63 0.0009437301    2.110    0.526
       108 -10.1579     49.0311    101.1556   9.8828006030e+01   5.0573350409e+01    0.4378707    0.2703556 -32.90  0.001710392    1.765    0.433
       109  -9.6842    105.7777     91.0211   7.7373134689e+01   4.3875240400e+01    0.6799814     0.345094  57.91  0.002346528    3.037    0.671
       110 -10.5689    101.1806    102.6675   8.2085066083e+01   4.2203159182e+01     0.644039    0.3664145  34.04   0.00266474    1.905    0.475
       111  -9.7052    101.0526     98.6695   8.1011982151e+01   4.3126841770e+01    0.3184991    0.2578702 -29.39 0.0009220267    1.260    0.207
       112 -10.3132    110.1795     99.4194   7.8494386231e+01   4.1174152300e+01    0.4954932    0.2506813  43.73  0.001402967    2.034    0.508
       113 -10.9347    108.8411     95.5372   7.7779371173e+01   4.2291028965e+01    0.4677649    0.4139777  17.04 0.0005086036    1.186    0.157
       114  -8.4282    134.4417    103.4304   7.2906100293e+01   3.5185020955e+01    0.1549403    0.1507248 -71.52 1.584415e-05    1.070    0.066
       115  -8.9553    149.1225    100.8685   6.8520946480e+01   3.2431737842e+01    0.2341098    0.2132885 -70.84  0.000510428    1.181    0.153
       116  -9.6474    123.8781     98.5459   7.4358971758e+01   3.8519095283e+01    0.4830445    0.3263705  -3.17  0.001870212    2.428    0.588
       117  -9.7994     72.1605     99.7007   9.0572644970e+01   4.7840050676e+01    0.2596548    0.1935895 -63.08  0.001294056    1.413    0.292
       118  -9.5958     43.0948     98.4898   1.0029596648e+02   5.1871518030e+01    0.4495695    0.2468276 -67.36   0.00205989    1.870    0.465
       119  -9.6405     16.6273     98.9061   1.0963382206e+02   5.4088284956e+01    0.3855236     0.168547 -41.27  0.001761261    2.235    0.552
       120 -10.4774    117.5890     98.0640   7.5974588728e+01   3.9952236304e+01    0.2669866    0.2429555  35.41  0.000241572    1.117    0.105
       121  -9.4629     77.7566     98.5859   8.8413841293e+01   4.7232283683e+01    0.2996792    0.1936632 -50.40  0.001397348    1.448    0.310
       122  -9.0372     86.9220     96.4328   8.4824442004e+01   4.6201995826e+01    0.3162144     0.183719 -32.88  0.001307434    1.950    0.487
       123  -9.0361     12.8426     95.9084   1.1042918993e+02   5.5052875471e+01    0.3031625     0.152903 -74.24  0.001476503    1.876    0.467
       124  -8.7699    141.2982     96.6517   6.9257727714e+01   3.5069775525e+01    0.1598105     0.124123 -77.22 0.0002835964    1.682    0.406
       125  -8.8078    130.2079     96.1584   7.1969539694e+01   3.7648483255e+01      0.23456    0.2082885  -3.97 0.0007290052    1.228    0.185
       126  -8.6667     63.3042     96.3950   9.2731523397e+01   4.9893021778e+01    0.1905898    0.1322215  43.00 0.0009389816    1.634    0.388
       127  -9.1222    156.1853     95.8584   6.5480171558e+01   3.1814003035e+01    0.4859675    0.2091071 -44.80   0.00172674    2.319    0.569
       128  -8.2661     73.6663     95.2783   8.8892429996e+01   4.8636492879e+01    0.1405809    0.1153157  74.60 0.0003153959    1.607    0.378
       129  -9.0324     59.0000     94.9577   9.3860664219e+01   5.0810076527e+01    0.2433009   0.07427377 -55.22 0.0008065016    2.971    0.663
       130  -9.7125     22.5341     94.8630   1.0682090494e+02   5.4620920430e+01    0.2562911    0.2277169  20.12 0.0005446051    1.330    0.248
       131  -8.5052    166.7537     94.3909   6.2743000054e+01   2.9640383715e+01    0.2075608    0.1426688  40.75 0.0002834933    1.564    0.361
       132  -9.6321     52.1598     90.8748   9.5248446598e+01   5.2628551182e+01    0.4221387    0.1485631 -50.67  0.001608258    2.386    0.581
       133  -9.0486      1.9865     92.8121   1.1370686806e+02   5.6395893488e+01     0.174898    0.1469347  89.33 0.0006858127    1.273    0.215
       134  -9.1106    116.9725     91.4830   7.4240266642e+01   4.1479522348e+01    0.2303454    0.1517709  43.00 0.0004113201    1.540    0.350
       135 -11.2060     86.2248     87.7253   8.2551672449e+01   4.8257018851e+01    0.4309919    0.3369224 -37.79 0.0004598774    1.215    0.177
       136  -9.0189     70.3250     86.9412   8.7721552554e+01   5.1034481032e+01    0.2097849    0.1960872 -61.17 0.0005840408    1.177    0.151
       137 -10.6404     80.8694     83.6892   8.3135334423e+01   5.0052623742e+01    0.3747131    0.3137489   7.65 0.0008292146    1.264    0.209
       138 -10.8195     73.7016     80.9926   8.4790349831e+01   5.1809708543e+01    0.6274781    0.3995948 -53.00  0.002203809    1.605    0.377
       139 -10.3439    123.1574     87.0181   7.1189344750e+01   4.1068201805e+01    0.3697276    0.2976467  66.69 0.0009915129    1.460    0.315
       140 -11.0386    128.9998     85.4107   6.9139204628e+01   4.0097379224e+01    0.4981769    0.3852561   9.38  0.001351992    1.627    0.385
       141  -8.8325     97.5662     87.8005   7.8932311242e+01   4.6163546053e+01    0.2331901    0.1877022 -88.94  0.001107184    1.750    0.428
       142  -8.8673     94.0307     87.7300   8.0026736072e+01   4.6844688452e+01    0.1988223    0.1843514  12.50  0.000195014    1.084    0.078
       143  -9.8734     16.6504     87.1641   1.0744831698e+02   5.6857087922e+01     0.346037     0.205899 -54.03  0.001248487    1.332    0.249
       144  -8.7730      1.4888     88.0908   1.1313529567e+02   5.7520053663e+01    0.1892077   0.09395135 -63.52 0.0004664324    1.529    0.346
       145  -9.7502     65.2592     86.0065   8.9241632403e+01   5.1993150644e+01    0.3578205    0.2646523 -28.51  0.001027988    1.358    0.264
       146 -10.5037    155.2193     84.0961   6.2384259251e+01   3.4293044063e+01    0.3657014    0.2670605 -33.81 0.0009535007    1.398    0.284
       147 -10.9858    150.2809     80.5504   6.2471495490e+01   3.6114353844e+01     0.510642    0.2817461  54.96  0.001485978    1.856    0.461
       148 -10.0881    117.9090     83.4169   7.1553341972e+01   4.2927654988e+01     0.354249    0.2629765 -26.83    0.0016702    1.440    0.306
       149 -10.8130     45.6297     68.9504   9.1633237470e+01   5.8273949359e+01    0.5451379    0.3289444 -29.60 0.0009961308    1.674    0.402
       150 -10.7083     56.7598     82.0119   9.1189987894e+01   5.4056271678e+01    0.5887955    0.3375778 -19.24  0.002462656    2.500    0.600
       151 -12.7430     53.0451     74.8457   9.0508956444e+01   5.6105549902e+01    0.5192853    0.2885527 -51.64 0.0006139684    1.670    0.401
       152 -10.0262     42.4195     81.2245   9.6352573965e+01   5.5956982084e+01    0.6731406    0.2121311  39.25  0.002404543    3.857    0.741
       153 -10.3281    142.9322     80.8198   6.4265966401e+01   3.7790151408e+01    0.2963905    0.2471124 -73.07 0.0008898215    1.408    0.290
       154 -10.0501     48.1084     82.4557   9.4531473330e+01   5.5036383573e+01     0.552016    0.2440316  45.69  0.001306748    3.206    0.688
       155 -10.1575     20.3828     79.7087   1.0446768205e+02   5.8308095492e+01    0.3041219    0.2516928 -34.06  0.001958299    1.129    0.115
       156  -9.1086      2.5917     80.5370   1.1144159292e+02   5.9204113788e+01    0.1881959    0.1636972  21.36 0.0008524565    1.429    0.300
       157  -9.9954    167.1224     79.8085   5.8636788290e+01   3.2244923263e+01    0.2967032    0.1956503 -21.72  0.001282815    1.869    0.465
       158  -8.8859    106.0000     78.9837   7.3632843533e+01   4.6311294777e+01     0.254406   0.08392091 -42.25 0.0008096045    2.992    0.666
       159 -12.1726     79.5545     70.0066   7.9270083046e+01   5.3104072477e+01    0.3446599    0.2684449  19.47 9.287535e-05    1.330    0.248
       160 -10.1150     81.9016     75.4314   8.0223688813e+01   5.1606539266e+01    0.5317781    0.3376037  16.10  0.002346315    2.040    0.510
       161 -11.0915     94.3888     72.3029   7.5082318519e+01   4.9934561045e+01    0.7731165    0.4539778 -31.63   0.00284463    1.801    0.445
       162 -10.4217     88.4291     72.6774   7.7142035069e+01   5.0987599367e+01    0.5374617    0.3146176 -30.42  0.002350401    1.848    0.459
       163  -8.6001    129.6586     77.7389   6.6637980994e+01   4.1425517987e+01    0.1535489    0.1169119  18.24 0.0006968803    1.591    0.371
       164  -9.3339    110.8393     76.7450   7.1496199558e+01   4.5744886825e+01     0.291673    0.2209214 -43.70  0.001133083    1.336    0.251
       165  -9.9379    184.9410     75.9513   5.4204535993e+01   2.8675719116e+01    0.2196296    0.2071286 -63.20 0.0003673118    1.009    0.009
       166  -9.9316     68.9870     74.4842   8.4463265434e+01   5.3926580353e+01    0.2507947    0.2027895 -34.96 0.0004517872    1.134    0.118
       167  -9.8137     63.7443     74.7680   8.6467177062e+01   5.4655052368e+01    0.4959465    0.3245229  33.97  0.002501842    1.624    0.384
       168  -9.0886     28.5878     75.6106   1.0027697854e+02   5.8570417589e+01    0.2896716      0.16283 -40.90  0.001497323    1.547    0.354
       169  -9.1902     18.2276     73.1559   1.0381394807e+02   5.9938960303e+01     0.414488    0.1386164 -54.76  0.001801589    2.200    0.546
       170  -8.2745    215.6750     75.6932   4.9243090941e+01   2.1675297987e+01     0.133964    0.1103172  15.88 0.0003494162    1.648    0.393
       171 -11.0502    170.3369     73.2293   5.6158236711e+01   3.2617718441e+01    0.5015323    0.2658087  52.64  0.002098456    1.873    0.466
       172  -9.3914    173.3384     69.1152   5.4441772115e+01   3.2583792444e+01     0.258654    0.1932029  45.29 0.0008992658    1.414    0.293
       173 -10.1016    145.9570     70.7947   6.0558172908e+01   3.8882302686e+01    0.5620265    0.3323706  26.04  0.001376235    2.630    0.620
       174 -10.9374    144.2433     66.3846   5.9605957320e+01   4.0043754315e+01    0.4362872    0.2877325  43.54  0.001382878    1.537    0.350
       175 -10.1688    137.4728     72.4781   6.3061363581e+01   4.0587029531e+01    0.4574906    0.1954909 -34.15  0.001643815    2.499    0.600
       176  -9.7712    199.2867     72.0287   5.0791316990e+01   2.5968731899e+01    0.2991998    0.2407036 -11.48 0.0009152308    1.558    0.358
       177  -8.8842    152.6614     73.1879   5.9778978985e+01   3.6867240103e+01    0.2415369    0.1880829 -59.90  0.001003015    1.424    0.298
       178  -9.2980    186.1170     70.8106   5.2629665908e+01   2.9251141830e+01     0.398889    0.1570032 -51.05  0.001339096    3.096    0.677
       179  -8.5873    111.6166     71.2013   6.9492874551e+01   4.6631111547e+01    0.2161243    0.1388802 -27.38 0.0009510427    1.709    0.415
       180 -10.2560    102.3272     70.0604   7.1867656964e+01   4.8786043103e+01    0.2974586    0.2534472  32.89 0.0005025562    1.159    0.137
       181  -9.0578     64.6955     69.9002   8.4579170411e+01   5.5525203945e+01    0.1966063    0.1593502 -41.92  0.000419394    1.179    0.152
       182  -9.4141     15.8123     59.9111   1.0148676749e+02   6.2981219318e+01    0.1856136    0.1534518 -26.45  0.000632808    1.118    0.106
       183 -10.2105    115.7494    248.5390   1.0488764923e+02   7.1986942771e+00    0.2335441    0.2017758  41.84 0.0007436342    1.057    0.054
       184 -12.0604     31.5228     64.4253   9.6046924800e+01   6.0731468170e+01    0.8967094    0.6131174   5.40  0.005129024    1.604    0.377
       185 -10.6444     30.8417     52.8493   9.2755645298e+01   6.3161113758e+01    0.6574408    0.2300989  31.66  0.002822381    3.067    0.674
       186 -10.7501     17.2959     46.3680   9.6821428239e+01   6.5626736869e+01    0.3907621     0.301828   4.33  0.002597418    1.340    0.254
       187  -8.3408    192.3024    248.3269   8.9640432065e+01  -4.2301954267e+00    0.1249145   0.08245676   3.40  0.000286085    1.643    0.391
       188  -9.9109     14.2317     55.1234   1.0086667408e+02   6.4089940455e+01    0.4526181    0.2170891 -43.86  0.001537137    1.632    0.387
       189 -11.1342      8.4361     51.1725   1.0238922917e+02   6.5274881736e+01    0.4334579     0.371422  -8.58  0.001110488    1.244    0.196
       190  -9.7776     11.8328     45.4938   9.9128454107e+01   6.6195889443e+01    0.2974248    0.1736417 -56.06  0.000830579    1.568    0.362
       191  -9.9155     25.0236     48.1023   9.3801575156e+01   6.4639941392e+01      0.28788    0.2406076 -42.68  0.001083732    1.198    0.165
       192  -9.4833     27.0814     44.3058   9.1546314157e+01   6.5172210112e+01    0.2137618     0.154582 -27.01  0.000353137    1.149    0.130
       193 -10.6052     23.1590     58.2663   9.7820900484e+01   6.2763103289e+01     0.424722    0.3549785  77.56  0.002345048    1.783    0.439
       194 -10.0781     25.0822     54.2774   9.5767813694e+01   6.3413580623e+01    0.3450497    0.2100824 -53.68  0.001190417    1.514    0.340
       195 -10.7446     10.5723     69.2031   1.0600468557e+02   6.1316564180e+01    0.2501373     0.165371 -39.21 4.131738e-05    1.280    0.219
       196 -11.2222      2.2618     66.8036   1.0889164974e+02   6.2291490302e+01    0.4308143    0.1623288 -57.42  0.001845592    1.895    0.472
       197  -9.0569      9.1485     61.4050   1.0475539157e+02   6.3093381700e+01    0.3455934     0.212596 -32.83  0.002049268    1.446    0.308
       198 -10.6698      3.8011     59.9401   1.0670801749e+02   6.3699632333e+01     0.464803    0.2572852 -32.27  0.002181706    1.638    0.390
       199 -10.5220    119.3547     68.0929   6.6322546358e+01   4.5508047241e+01    0.4249642    0.3209898  23.74  0.000758317    1.486    0.327
       200  -8.6703    157.1743     68.5813   5.7462172263e+01   3.6571672100e+01    0.2116257    0.1339113  44.63 0.0007931412    1.635    0.388
       201 -10.6709    135.2922     65.4716   6.1409350649e+01   4.2315572894e+01    0.4398368    0.3918352  44.94   0.00209906    1.096    0.088
       202  -9.1566     59.0719     66.8415   8.5711680866e+01   5.6966433160e+01    0.3243796    0.2080815  -1.11   0.00152346    2.032    0.508
       203  -9.5447    105.5780     65.7266   6.9450176335e+01   4.8910839513e+01    0.4502414    0.2501854  59.75  0.001784338    2.435    0.589
       204 -10.4933     83.0139     63.6900   7.5948197582e+01   5.3706193692e+01    0.5020029    0.3184781 -59.59  0.002086011    2.292    0.564
       205  -9.4616     75.0771     66.0302   7.9516535435e+01   5.4646694048e+01     0.208464    0.1881227 -16.22 0.0003496193    1.018    0.018
       206 -11.5032     97.1915     63.7802   7.1344247257e+01   5.0981513300e+01    0.2860599    0.2626083 -11.28   0.00026114    1.042    0.040
       207  -9.8132     66.3155     62.8857   8.1647571045e+01   5.6674320410e+01    0.3807405    0.2762094 -58.11  0.001015446    1.715    0.417
       208  -8.8664     70.9185     60.1882   7.9010069545e+01   5.6452102609e+01     1.338325    0.4899413 -39.40  0.004331737    2.660    0.624
       209 -10.3440     63.3934     54.5364   7.9819987449e+01   5.8699115562e+01     1.024982    0.6742125 -81.26  0.003176485    6.446    0.845
       210  -9.4046    163.0204    246.5229   9.5114086599e+01   3.8617271331e-01    0.1964625    0.1052314  35.06 0.0004495602    1.569    0.362
       211 -11.2292     50.6387     28.0807   7.4432453648e+01   6.4989738045e+01    0.5859283    0.3744329  61.33  0.002583541    3.695    0.729
       212  -8.3150     26.7037    245.6826   1.2184985082e+02   1.9373642574e+01    0.0945226    0.0836303 -57.26 0.0006568885    1.609    0.379
       213 -12.8819     61.8903     44.1525   7.6499372307e+01   6.0747906700e+01     0.441701    0.3541465 -43.94 0.0006201107    1.425    0.298
       214 -10.4274     68.9747     48.0070   7.5282104150e+01   5.8946496668e+01    0.3187953    0.2559299 -51.66  0.001799038    1.555    0.357
       215 -10.4032     67.8168     44.1760   7.4240811194e+01   5.9776811283e+01    0.6453082    0.5125937 -87.55  0.003288188    2.432    0.589
       216  -8.8177     15.6019     63.9349   1.0263358739e+02   6.2139362334e+01    0.3272029    0.1737342  -4.25  0.001137997    2.325    0.570
       217  -9.6283    193.9298     60.6093   4.8679878231e+01   2.9013409937e+01    0.3287231    0.2024782 -33.09  0.000468789    1.659    0.397
       218  -9.3487    160.3740     61.1082   5.4625242773e+01   3.7014073739e+01    0.2955555    0.1967859 -46.65  0.001390056    1.541    0.351
       219  -9.6251    162.8905     57.4702   5.3079168564e+01   3.6967651912e+01    0.3539502    0.2232393 -20.83 0.0009597212    1.961    0.490
       220  -8.3760    110.2423     62.6300   6.7053153264e+01   4.8466388727e+01    0.1430301    0.1136536 -64.40 0.0006932735    1.616    0.381
       221 -10.0016    203.4923     63.6374   4.8031942766e+01   2.6320912984e+01     0.465958    0.2835256 -84.56  0.001433919    2.254    0.556
       222  -9.6701    141.1840     60.2478   5.8398770637e+01   4.1783366132e+01    0.2930481    0.2210844  35.03  0.001067236    1.418    0.295
       223  -9.4401     53.4639     60.6822   8.5862776297e+01   5.8972207461e+01    0.3148859    0.2535939 -63.94  0.001044226    1.610    0.379
       224  -8.0838     53.5473     49.5265   8.1881567745e+01   6.1065396734e+01     0.179575    0.1216597  40.34 0.0001467903    1.697    0.411
       225  -8.7391     56.9464     49.7383   8.0586319967e+01   6.0538260082e+01    0.1830402    0.1566639   0.96 0.0003873459    1.069    0.065
       226  -8.7681     53.0318     54.2765   8.3817265862e+01   6.0263143331e+01     0.286394    0.2064129 -10.48 0.0008690385    1.418    0.295
       227  -8.5210     56.2873     52.7359   8.1952455556e+01   6.0091144318e+01    0.1789505    0.1116153 -31.68 0.0002710512    1.500    0.333
       228  -8.4414    240.8636     59.7877   4.2405536484e+01   1.8733586484e+01     0.180785    0.1266362 -60.55 0.0003947368    1.307    0.235
       229  -9.5099    151.5666     60.4925   5.6222236687e+01   3.9247591966e+01    0.3074514    0.1412967  56.45  0.001067396    2.116    0.527
       230 -11.1037     39.5611     57.8098   9.0615302374e+01   6.1258472984e+01    0.2857145    0.2295168 -38.96 0.0008467469    1.122    0.109
       231  -9.9104    171.1362     58.6721   5.1912855586e+01   3.4777192021e+01    0.3847099    0.2437624 -57.20  0.001178211    1.781    0.438
       232  -9.3526    167.0997     56.4766   5.2013577051e+01   3.6093456786e+01    0.2325981    0.1975875 -38.73 0.0002982418    1.202    0.168
       233  -9.8041    171.9787     53.2941   5.0247095046e+01   3.5379964776e+01    0.2477459    0.2278549 -44.54 0.0003138239    1.113    0.102
       234  -9.9590    175.0513     50.1623   4.8853038629e+01   3.5086871207e+01    0.2953827    0.2624717  35.73 0.0009826017    1.270    0.213
       235 -10.2448    105.2811     57.9040   6.6873516297e+01   5.0335937126e+01    0.2648296    0.2245231 -21.97 0.0003024384    1.184    0.155
       236  -9.9593    135.9188     56.6194   5.8453038332e+01   4.3612707354e+01    0.5130256     0.319556  31.90  0.001640626    1.945    0.486
       237  -9.4989    128.2817     57.5025   6.0558687125e+01   4.5266961132e+01    0.3396612    0.1763764  57.54 0.0007212249    1.998    0.499
       238  -8.5011     85.5915     57.4859   7.2901464967e+01   5.4356417891e+01    0.1397494    0.1290962  -6.59 -4.714115e-05    1.043    0.041
       239  -8.3057     48.6623     57.6911   8.6787652785e+01   6.0189612946e+01    0.1405824   0.09147078 -16.27 0.0007043395    1.682    0.406
       240  -8.7434    242.3265     56.0272   4.1426635512e+01   1.8973851935e+01    0.1787136    0.1390772 -49.82 0.0002269346    1.102    0.092
       241  -8.9078    144.4194     56.0056   5.6362290568e+01   4.1675743839e+01    0.2180985    0.1433658 -32.66 0.0006538075    1.587    0.370
       242  -9.7223    150.8075     54.4046   5.4531112177e+01   4.0374927402e+01    0.4719687    0.2453923  63.14  0.001952379    2.004    0.501
       243  -9.8852    132.7968     44.6716   5.5283739022e+01   4.6129628618e+01     1.039468    0.2628502  58.52   0.00304258    4.061    0.754
       244 -10.3804    127.1836     39.2271   5.4728724556e+01   4.8201989009e+01    0.4691909    0.3433123 -65.83  0.002070134    1.786    0.440
       245  -9.2779    134.1770     27.8369   4.9427268260e+01   4.7946107009e+01    0.3882671    0.2183901 -14.22  0.001447849    2.307    0.566
       246 -11.1219    118.0443     52.6645   6.1537731030e+01   4.8380752633e+01    0.7037894     0.463469  40.15 0.0006556505    1.493    0.330
       247  -9.9479    127.6737     48.2617   5.7652804642e+01   4.6825509136e+01    0.4006878    0.2637528 -42.61  0.001931385    1.628    0.386
       248 -10.3190    136.3264     37.3520   5.2122197435e+01   4.6269198881e+01    0.4783055    0.4165033  84.32  0.002707749    1.225    0.184
       249 -10.6797    131.7141     35.5114   5.2483347371e+01   4.7608926950e+01    0.4811199    0.3263311 -44.39  0.001015189    1.625    0.385
       250 -10.4935    123.6997     47.9962   5.8520915196e+01   4.7790873851e+01    0.4664892     0.266164 -46.27  0.001805044    2.000    0.500
       251 -10.0062    125.9766     45.0218   5.6967712605e+01   4.7689942688e+01     0.270689    0.2351065  69.01 0.0003369492    1.211    0.174
       252  -9.3739    191.5381     54.2576   4.7382513669e+01   3.0527614740e+01    0.2639062    0.2290072 -26.48  0.001013629    1.280    0.219
       253  -8.8801     98.5284     54.9001   6.7837912086e+01   5.2249764632e+01    0.2021348    0.1379022 -34.13 0.0004376151    1.477    0.323
       254  -9.6803     93.7329     54.2587   6.9096855138e+01   5.3329978093e+01     0.382751    0.2620252  -1.48  0.001219539    1.867    0.465
       255 -10.1930     32.0646     47.8993   9.0531672050e+01   6.3995901655e+01    0.2603996    0.1919286  35.37 0.0008851377    1.655    0.396
       256  -9.3921     45.3276     55.1806   8.7306695265e+01   6.1096227934e+01    0.2457993    0.1850617  14.13 0.0008228662    1.349    0.259
       257  -8.7846     42.5517     44.4391   8.4616460235e+01   6.3438796919e+01    0.2164075    0.1847809 -49.58 0.0004698742    1.430    0.301
       258 -10.1030     38.4187     46.7063   8.7272150106e+01   6.3523164180e+01    0.3735105    0.2671243  32.76  0.001961725    1.588    0.370
       259 -10.0515     42.3336     51.4479   8.7270870388e+01   6.2174795525e+01     0.471821    0.1758452 -41.81  0.000911209    2.361    0.576
       260 -10.1291     46.7552     47.7105   8.4033203192e+01   6.2314590750e+01    0.2976549    0.2261606   3.95 0.0005632066    1.276    0.216
       261  -8.5795      1.2912     55.3235   1.0670429648e+02   6.4799992070e+01    0.1288254   0.06442378 -39.55 0.0006140783    1.612    0.379
       262 -10.0453     83.1942     52.2769   7.1824409508e+01   5.5703094002e+01    0.3683119    0.3400965 -21.31  0.001498494    1.125    0.111
       263  -9.6376    164.2674     51.8385   5.1186689593e+01   3.7473998660e+01    0.2779219      0.22007  66.45 0.0003303862    1.225    0.184
       264 -10.5493    154.0871     49.0180   5.2246180044e+01   4.0369379621e+01    0.4214939    0.3459018  85.71  0.001406747    1.302    0.232
       265  -9.9003    180.9523     48.1466   4.7356865608e+01   3.3942114675e+01    0.3897311    0.2084579 -57.36  0.001647922    2.212    0.548
       266  -8.6305     96.7701     48.9956   6.6249992535e+01   5.3566088206e+01    0.2058156    0.1736655  11.11 0.0002747178    1.169    0.144
       267 -10.7034     93.9837     44.9824   6.5623951733e+01   5.4757263435e+01    0.2728428     0.223602 -12.36 0.0003263541    1.223    0.183
       268 -10.0440     90.7759     40.8929   6.5076185029e+01   5.6017386881e+01    0.4554097     0.371169 -62.44  0.002490099    1.705    0.413
       269  -9.3256     88.4011     48.6799   6.8766881235e+01   5.5298201685e+01    0.2661944    0.2280343  83.46  0.001291051    1.674    0.402
       270  -8.2457    224.5354     48.5386   4.1691500347e+01   2.3792069274e+01    0.1302801    0.1151539 -65.72 0.0005323486    1.041    0.040
       271  -8.9583    106.9187     52.9546   6.4675261043e+01   5.0796825599e+01    0.2124919     0.195258  22.13 0.0003078049    1.020    0.020
       272  -8.4323     76.9164     44.5093   7.1066320558e+01   5.8131480574e+01    0.2005299     0.126791  38.48 0.0008984752    1.534    0.348
       273  -8.7047    234.7211     47.0053   4.0243670790e+01   2.1814294842e+01    0.1753635    0.1410542 -55.14 0.0002259871    1.070    0.066
       274 -10.3854    114.5412     46.1036   6.0186382773e+01   5.0162305221e+01    0.3174179    0.2414337 -30.10  0.000792425    1.368    0.269
       275  -8.4969    112.7973     41.3910   5.8976666925e+01   5.1227508759e+01    0.2068451    0.1322932  52.49            0    1.483    0.326
       276  -9.5973    164.3589     46.0225   4.9479562994e+01   3.8279955055e+01    0.3045708    0.1873154  51.47   0.00130118    1.589    0.371
       277  -9.2388     82.2975     44.4310   6.9184077373e+01   5.7145076103e+01    0.3061817     0.217231 -52.14  0.001561228    1.847    0.459
       278 -10.7228    103.2565     42.9728   6.2138804836e+01   5.3106371217e+01      0.63897    0.2965144  53.66  0.001134221    2.176    0.540
       279 -11.9402    103.7076     38.7100   6.0444179823e+01   5.3609672467e+01    0.3755715    0.2655649  54.82 0.0003155093    1.421    0.296
       280  -9.7665    244.6834     43.5072   3.8499206595e+01   2.0220020243e+01    0.2846625    0.2260852  11.10  0.001669494    2.072    0.517
       281  -9.1202    185.3745     44.0211   4.5580812463e+01   3.3446056694e+01    0.2798879    0.1726917  50.78   0.00135923    1.695    0.410
       282  -8.5274    149.8444     44.1484   5.1576524548e+01   4.2088266326e+01    0.1867419    0.1571774  35.69 0.0002729087    1.259    0.206
       283  -9.3266    142.6806     43.2825   5.2726541963e+01   4.3948058349e+01    0.5290716    0.1840178  45.08  0.001794038    3.117    0.679
       284  -8.2216    209.4866     43.4773   4.2249460277e+01   2.7852868561e+01    0.1354924    0.1167465 -70.87 0.0008098973    1.032    0.031
       285  -8.4135    199.9548     42.5555   4.3208434581e+01   3.0182737575e+01    0.1876145   0.09901048  44.46 0.0008065025    2.427    0.588
       286  -8.6619     32.5292     42.5039   8.8377993687e+01   6.4950489709e+01    0.2178943    0.1526957   2.45  0.001301822    1.416    0.294
       287 -12.0792     41.2655     38.2894   8.2797474158e+01   6.4672041982e+01    0.4997576    0.2754586   1.68 0.0005733636    2.535    0.605
       288 -10.7890    228.9818     38.6418   3.8970148930e+01   2.4159549095e+01    0.4338555     0.288894 -62.23 0.0009353046    1.375    0.273
       289  -9.3399    222.9524     39.9708   3.9895786425e+01   2.5298770054e+01     0.252578    0.1832467 -21.93  0.001413065    1.710    0.415
       290 -10.6543    190.7403     40.2918   4.3843980697e+01   3.2660906053e+01    0.2703812     0.251836  -7.85 0.0003539485    1.300    0.231
       291  -9.3299    186.1658     36.7958   4.3547226517e+01   3.4209600768e+01    0.2772526    0.1929038 -69.76 0.0007076646    1.517    0.341
       292  -8.6219     24.0713     39.6978   9.1307409957e+01   6.6311908501e+01    0.3280551    0.1117736 -39.18  0.001419495    2.530    0.605
       293  -8.2921     48.7108     40.7322   8.0526773817e+01   6.3275172565e+01    0.1279762   0.08748918  -7.05 0.0002059436    1.503    0.335
       294 -10.1870    177.2106     36.5958   4.4758469014e+01   3.6397405711e+01    0.4488253    0.2838879 -82.71  0.001624925    1.890    0.471
       295  -9.0188    157.9539     38.9539   4.8511633140e+01   4.0799210447e+01    0.2135233    0.2016258  77.27 0.0007123739    1.016    0.015
       296  -9.0428    120.6401     38.7456   5.6088581324e+01   4.9795636480e+01    0.2374851      0.17216 -42.84  0.001143469    1.521    0.342
       297  -8.7843     82.4873     38.4664   6.6805020626e+01   5.8007178737e+01    0.2529919    0.1626314  12.63  0.001056387    1.897    0.473
       298  -9.3041     86.0010     36.5351   6.4898886630e+01   5.7596563965e+01     0.604652    0.3059567  -2.23  0.001813315    5.377    0.814
       299 -10.6098     78.0775     34.3664   6.6652246543e+01   5.9433112810e+01    0.7554981    0.4107369  28.76  0.001022143    1.999    0.500
       300  -9.6847     83.9494     32.2171   6.3841303834e+01   5.8593609010e+01    0.5136897    0.2048224  49.74   0.00211551    2.445    0.591
       301  -9.7135     71.5705     29.7766   6.7025603602e+01   6.1270850753e+01    0.2219647    0.2079845  -6.62 0.0006751692    1.210    0.174
       302  -9.8221     74.2812     26.9775   6.4898571334e+01   6.1140387165e+01    0.3169863    0.2844862 -55.23  0.001554995    1.536    0.349
       303  -9.2752    238.6337     37.6801   3.7821463536e+01   2.2236217603e+01    0.2293343    0.1974757  27.47  0.001366582    1.693    0.409
       304 -11.4997    114.1036     32.4293   5.5436684668e+01   5.2111756911e+01    0.4493699    0.3730282 -62.34  0.000393655    1.491    0.329
       305  -8.7012      1.4467    244.0714   1.2620341328e+02   2.2232937927e+01    0.1509276   0.08409823 -87.05 0.0003709189    1.533    0.347
       306  -9.8038    202.7976    242.1006   8.6666688455e+01  -4.8490442453e+00    0.2124301    0.1451751  25.34  0.000468472    1.235    0.190
       307  -9.3495    101.4239     25.7064   5.6164600708e+01   5.5755418215e+01    0.2950863    0.1760088  35.41  0.001080899    1.650    0.394
       308  -8.9375     95.2652     35.6497   6.1706060131e+01   5.5829048307e+01    0.2461624     0.166746  36.45   0.00128089    1.385    0.278
       309 -10.2568    221.8147     34.1372   3.8679033745e+01   2.6304994924e+01    0.3174376    0.1913489  79.80  0.001000657    1.660    0.398
       310  -9.8804    209.6469     34.1523   3.9981014811e+01   2.9036488695e+01    0.3043531    0.2545064   0.58  0.001800676    1.666    0.400
       311  -8.7426    143.6039     35.2559   4.9996667135e+01   4.4776138375e+01    0.1917235    0.1803169  -6.54 0.0005221545    1.165    0.142
       312  -9.8006    142.4915     30.4736   4.8686645321e+01   4.5629942802e+01    0.3551255    0.2982518  30.87  0.001586372    1.277    0.217
       313  -9.2686    145.9705     29.2394   4.7659028722e+01   4.4929454905e+01    0.3186508    0.2069465  69.96   0.00091089    1.502    0.334
       314  -8.2867    189.6671    240.2974   8.8914827285e+01  -2.6663888766e+00    0.1157573    0.0943482  53.38 0.0007029831    1.645    0.392
       315  -8.5123     47.0135     34.5136   7.8731639306e+01   6.4531704199e+01    0.1738041    0.1154166  26.77 0.0004006901    1.469    0.319
       316  -9.2251    221.3743    237.3753   8.2418451666e+01  -6.7973574603e+00    0.1841692    0.1177302   1.50 0.0008852883    1.565    0.361
       317 -11.2758     24.9989     30.8864   8.7453838256e+01   6.7775062614e+01    0.3603882    0.3389496 -58.16  0.001156581    1.592    0.372
       318  -8.4502    139.6277    236.8324   9.8523829737e+01   5.6185919748e+00    0.1580463    0.1241507 -71.19 0.0007748728    1.636    0.389
       319  -8.5482     32.4061    232.5075   1.1996815243e+02   2.1331951501e+01    0.1172524   0.08960237  71.01 -0.0001245723    1.023    0.023
       320  -9.4452     21.6585     23.7846   8.6156783622e+01   6.9281559833e+01    0.1510763   0.09777327 -43.13 0.0004894242    1.541    0.351
       321  -9.5258    233.3316     31.1461   3.6898411783e+01   2.4186462778e+01    0.3116873    0.1737594  57.42  0.001660158    1.996    0.499
       322  -9.7424    187.5863     30.6732   4.1747640677e+01   3.4633826099e+01     0.572295    0.2779893  40.21  0.002288784    3.078    0.675
       323  -8.5417    194.3313     27.5936   4.0124378625e+01   3.3402367728e+01    0.3683593    0.1807651 -81.24  0.001464375    2.916    0.657
       324  -8.4858     44.1645     31.8484   7.8859116863e+01   6.5345048437e+01    0.1718149    0.1238711 -11.49 0.0004652669    1.254    0.203
       325  -9.9715    248.2279     30.7910   3.5528797923e+01   2.1146015951e+01    0.2584979    0.1976875 -78.70  0.001162779    1.168    0.144
       326  -9.8757    122.9978     29.7619   5.2420163577e+01   5.0376675716e+01    0.4782046    0.2802169  72.54  0.002164913    2.051    0.512
       327 -10.1070    163.9579     26.7860   4.3960823752e+01   4.0818275588e+01    0.4799265    0.3837155  65.24  0.001899461    1.147    0.128
       328  -8.7200    161.1526     22.3693   4.3098785983e+01   4.1998336480e+01    0.1964064    0.1516528  77.47 0.0004962684    1.205    0.170
       329  -9.4643    187.0043    231.4807   8.8037441562e+01  -9.0466659115e-01    0.1913909   0.09894343  16.62 0.0008101764    2.634    0.620
       330  -9.1218    177.7847    231.3984   8.9872869009e+01   5.3796927611e-01    0.1922281     0.108045  26.65 0.0009579682    1.696    0.410
       331  -9.3696    179.4726     13.1795   3.8138791817e+01   3.8531406830e+01    0.2706471    0.1525184  75.74 0.0008487444    1.625    0.385
       332  -8.6228     94.7793     30.1274   5.9712030831e+01   5.6650715700e+01     0.190065    0.1410227  28.42  0.001044713    1.285    0.222
       333 -10.4858    221.8495     27.5973   3.7189096990e+01   2.7110767247e+01    0.3885789    0.3188117 -47.77  0.002015362    1.189    0.159
       334  -8.9939    162.5002    225.5082   9.2081407722e+01   3.9638613058e+00    0.3217488    0.2161769  74.81  0.001417813    3.075    0.675
       335  -8.9777    223.8421    225.1365   7.9886140981e+01  -5.4131884236e+00    0.1758282    0.1493367   9.50 0.0005171516    1.147    0.128
       336  -9.5519    182.3057     28.3147   4.1808899693e+01   3.6183919478e+01    0.2907134    0.1798389  57.19  0.001004709    1.563    0.360
       337  -9.7261    207.9791     26.6416   3.8364794124e+01   3.0342780909e+01    0.1897469    0.1623881 -59.51 0.0004582304    1.098    0.089
       338 -10.0808    206.8913     22.4635   3.7481521663e+01   3.1083413794e+01    0.3570106    0.2191394  80.75  0.001931138    1.548    0.354
       339  -8.7820    132.0325    225.3300   9.8521505613e+01   8.9247808962e+00    0.1879793    0.1540666  39.53 0.0003970137    1.076    0.071
       340  -8.0274    140.2556     26.2911   4.7762545823e+01   4.6656204517e+01    0.1319307   0.09764633  32.27 0.0001988356    1.487    0.328
       341  -8.3168      1.5740    224.4554   1.2529017245e+02   2.6064038579e+01    0.1119188   0.08203825  74.97 8.732566e-05    1.008    0.008
       342 -10.0716    241.0244     25.1243   3.4947333455e+01   2.3313590656e+01    0.2717965    0.1475889  61.55  0.001493118    1.981    0.495
       343 -10.0852    230.8361     23.4774   3.5456335957e+01   2.5654756025e+01    0.4887773     0.209893  76.72  0.002307557    2.372    0.578
       344 -10.3654    153.6756     23.0040   4.4435739134e+01   4.3754472519e+01    0.2459919    0.2089893  54.31 0.0003232442    1.131    0.116
       345  -8.4472    124.8025     23.3825   4.9820679072e+01   5.0677408417e+01    0.1996319     0.124516  61.97  0.000281451    1.487    0.327
       346  -9.1963    196.5811    222.2341   8.4596713443e+01  -9.1429312245e-01    0.1788573    0.1133884 -25.00 0.0009482994    1.669    0.401
       347 -10.2495     62.3371     23.1544   6.7560376141e+01   6.3778810281e+01    0.5680696    0.2734827  35.38  0.002757363    1.960    0.490
       348  -9.1624     88.7368    220.9996   1.0734225434e+02   1.6470575395e+01    0.2275142    0.1714962  41.69 0.0005808772    1.220    0.181
       349  -8.7646    203.0576    217.7362   8.2542326353e+01  -1.2003430347e+00    0.1765963    0.1437381  15.67  0.000273126    1.072    0.067
       350  -9.4253    188.7915     22.2763   3.9421080582e+01   3.5331461044e+01    0.2626308    0.2157826   5.99  0.001541822    1.659    0.397
       351  -8.1153     85.6707     23.2694   5.9663730970e+01   5.9368927303e+01      0.11849    0.1048016 -88.48 0.0002037509    1.581    0.368
       352  -9.7175    132.0457     21.3622   4.7689251536e+01   4.9171615698e+01    0.2888971    0.2222307  61.73 0.0009127756    1.176    0.149
       353  -8.9981     94.7352     20.6867   5.6003551526e+01   5.7768342020e+01    0.2728598    0.1776139 -59.59  0.001239915    2.532    0.605
       354  -8.9086     91.3239     20.3342   5.6810463346e+01   5.8530931264e+01    0.2880223    0.1641298  25.04  0.001370608    2.007    0.502
       355  -9.0408    231.0206    209.1754   7.5716229104e+01  -4.0838962113e+00    0.1933156    0.1419131   0.21 0.0003951552    1.234    0.190
       356  -9.3997     35.0867    201.0766   1.1702922929e+02   2.7738112856e+01    0.2105495    0.1192885  64.96  0.001009731    1.676    0.403
       357  -8.5177    120.3783    199.2359   9.7216587969e+01   1.6120355902e+01    0.1817168    0.1344613 -71.08 0.0005229245    1.552    0.356
       358  -9.2035      6.7326    193.7101   1.2254854686e+02   3.2158854218e+01    0.3437779   0.07744618 -66.40   0.00137339    3.402    0.706
       359  -8.6934      5.7251    182.9505   1.2204077391e+02   3.4673541631e+01     0.166739    0.1222317  88.20 0.0001793777    1.076    0.071
       360  -9.1452     55.1849    181.3132   1.1035642129e+02   2.9985732881e+01    0.2142921    0.1658595 -65.99 0.0004632021    1.244    0.196
       361 -10.1316     17.9524    174.4930   1.1860012708e+02   3.5593147083e+01    0.2353909    0.1790144 -12.09  0.001197934    1.991    0.498
       362  -9.7512      7.1731    174.6648   1.2111377118e+02   3.6467710872e+01    0.1919432    0.1284578  59.62  0.001184174    1.402    0.287
       363  -9.3604    149.4203     20.2965   4.4293737418e+01   4.5082307403e+01    0.1807966    0.1224358 -40.77 0.0009562449    1.581    0.368
       364 -10.6305      7.9976    166.7175   1.2029466916e+02   3.8267251355e+01    0.4056359    0.2007299  15.33   0.00201931    2.900    0.655
       365  -9.7629    144.5624     17.4439   4.4199959052e+01   4.6557108139e+01    0.3002468    0.2010052  50.46 0.0009379518    1.391    0.281
       366 -10.7285     15.5241    165.2104   1.1835215255e+02   3.8012555318e+01    0.3217302    0.2176603 -28.22   0.00179626    2.166    0.538
       367 -11.9691     30.6916    154.8904   1.1341532904e+02   3.9152057422e+01    0.6855899    0.3590209  53.54  0.003058022    2.069    0.517
       368 -10.4752     24.5735    162.9136   1.1588545124e+02   3.7765909283e+01    0.2207391    0.1957301  43.55 0.0002993646    1.287    0.223
       369  -8.2897    103.4943     16.4288   5.2077919200e+01   5.6299728462e+01    0.1348373    0.1115463  37.50 6.891607e-05    1.069    0.064
       370  -9.3398    225.9452     16.6340   3.4386317198e+01   2.7502318287e+01    0.2254405    0.1501937 -48.86 0.0006613202    1.334    0.251
       371 -12.0235     37.3755    159.4534   1.1220597490e+02   3.7354166344e+01     0.803059     0.406459  40.05  0.003892765    2.021    0.505
       372  -9.9561      1.6189    158.2324   1.2113688164e+02   4.0749616018e+01    0.2577704    0.2065683 -70.20   0.00145222    1.177    0.150
       373  -8.5033    139.0042     13.7537   4.3950808760e+01   4.8263520380e+01    0.2484931    0.1426619  56.57   0.00110586    1.506    0.336
       374 -10.1922      2.1310    153.4195   1.2061338934e+02   4.1858515611e+01    0.3603962    0.1757778 -84.50  0.000952913    1.744    0.427
       375  -9.5002    249.2151    153.5926   6.1625459074e+01   1.9896784560e+00    0.1709042    0.1203148  25.05 0.0003524608    1.633    0.388
       376  -9.2794     45.9249    151.3603   1.0884498957e+02   3.8438878818e+01    0.2158223    0.1650318 -81.30 0.0003902977    1.199    0.166
       377 -10.2447     20.0052    151.3453   1.1583234054e+02   4.0992795691e+01    0.3671699    0.2189612 -47.14  0.001952794    1.813    0.448
       378 -10.9834     12.5031    150.7991   1.1773577280e+02   4.1733634738e+01    0.3756153    0.2696244  -5.38  0.002211397    2.000    0.500
       379 -10.1573     13.3981    145.2602   1.1693092519e+02   4.3013358263e+01    0.3481293    0.1709187 -62.48  0.001541997    1.677    0.404
       380 -10.6826     18.8010    140.6363   1.1494419394e+02   4.3723728660e+01    0.4075785    0.2885527   4.77  0.001353421    1.911    0.477
       381 -10.3432      4.5986    146.8966   1.1940826070e+02   4.3253132890e+01    0.3639236    0.2077219  69.90  0.001387779    1.806    0.446
       382  -8.5654    230.3033    147.7024   6.3503125518e+01   6.2184968064e+00    0.1306537    0.1067189 -64.42 0.0003011067    1.583    0.368
       383  -9.2575     54.1486    146.1526   1.0576882531e+02   3.8784082565e+01    0.2023289    0.1730649 -52.86  0.000314967    1.167    0.143
       384 -10.0053      4.0607    140.5396   1.1894399901e+02   4.4823059172e+01    0.5032224    0.1846774  46.16  0.002010943    2.990    0.666
       385  -8.9000     75.5178     13.0316   5.8466011275e+01   6.2516697871e+01    0.2066559    0.1825648  87.71  0.001303421    1.645    0.392
       386  -9.2995     41.6705    139.0626   1.0824370206e+02   4.1987473308e+01    0.2438236    0.1747012  64.09 0.0006842483    1.538    0.350
       387  -9.1764    236.1100    136.8628   6.0180539109e+01   7.0689739395e+00    0.2045145    0.1763651 -53.72 0.0005107346    1.268    0.211
       388  -9.0861    230.6836    137.0020   6.1105532950e+01   8.0343307524e+00    0.2010949    0.1627106 -32.91  0.000533661    1.084    0.077
       389  -8.9637     74.9961    135.7424   9.7870166785e+01   3.8608129590e+01    0.3722175     0.164811 -44.07  0.001106325    2.450    0.592
       390 -10.2565     34.4908    136.5630   1.0995512333e+02   4.3343820935e+01     0.279224     0.246514  36.88 0.0009439184    1.296    0.228
       391  -9.5612     14.7208    135.9686   1.1553264835e+02   4.5188921590e+01    0.2648084     0.135902 -30.34  0.001197769    2.859    0.650
       392  -8.1624     49.7083    135.3069   1.0528865987e+02   4.2041308749e+01    0.1396752    0.1011078  75.01 0.0001980441    1.578    0.366
       393 -11.2589      3.3600    130.7302   1.1813689640e+02   4.7241049293e+01    0.7803527    0.1851637 -65.10  0.003043404    2.802    0.643
       394  -8.0935    248.6522    134.2705   5.7655735389e+01   5.2972741921e+00    0.1261132   0.09997044 -66.11 0.0003013508    1.622    0.383
       395 -11.0365     42.8265    131.8469   1.0676774456e+02   4.3676306757e+01    0.4850191    0.4201951 -44.38  0.001989424    1.194    0.162
       396  -9.2148     45.9792    127.6853   1.0511047534e+02   4.4378070379e+01    0.2540391    0.1792697 -64.48 0.0006476219    1.245    0.197
       397 -11.9068     28.7059    132.0013   1.1099112926e+02   4.5022663446e+01    0.2383932    0.2118279 -85.94 0.0002997485    1.089    0.081
       398  -9.3714     61.9636    131.4463   1.0092899498e+02   4.1501609101e+01    0.2654066    0.1889291 -80.54 0.0006821449    1.521    0.342
       399  -8.2860     55.5884    132.5092   1.0304677911e+02   4.2044332085e+01    0.1422537    0.1256796 -71.53  0.000152536    1.038    0.037
       400  -9.8267     20.2444    131.4488   1.1339328104e+02   4.5875709131e+01    0.2377684    0.1456076 -69.01  0.000459933    1.342    0.255
       401  -9.9264     10.5490    130.2414   1.1604380247e+02   4.6891848519e+01    0.5559247    0.1490283 -49.09  0.002033402    3.600    0.722
       402 -10.6589     34.0457    127.5466   1.0872798060e+02   4.5639966988e+01    0.4710024    0.1948101 -66.70   0.00190953    2.073    0.518
       403  -9.2574     88.6078    128.0563   9.2213434051e+01   3.8392164025e+01    0.2307743    0.2059397  56.78 0.0003635194    1.195    0.163
       404  -8.5268     59.4889    125.4699   1.0053435804e+02   4.3321413678e+01    0.1441124    0.1292289 -56.43 0.0008096311    1.030    0.029
       405  -9.3641     71.9207    123.6389   9.6307831795e+01   4.2078716208e+01    0.2624412    0.2025643 -67.85 0.0004266207    1.286    0.222
       406  -9.0965    123.7845    121.0479   8.0444418692e+01   3.3530844663e+01    0.2265988    0.2098306 -84.77 0.0004396848    1.179    0.152
       407  -9.8119     20.0582    109.1681   1.1020400091e+02   5.1366301329e+01    0.2697611    0.2009378 -41.05  0.001154723    1.320    0.243
       408 -11.5391     21.2137    119.5705   1.1144876594e+02   4.8730815566e+01     0.733134    0.3943126 -88.13  0.003413473    2.134    0.531
       409  -9.7115     13.7048    113.3306   1.1288805266e+02   5.0806211861e+01    0.2433121    0.1680643  69.73 0.0009252812    1.678    0.404
       410  -9.4859     13.8573    109.8405   1.1232550918e+02   5.1643522647e+01    0.2527906    0.1580006 -76.10 0.0002957469    1.426    0.299
       411  -8.6985    237.1888    120.6247   5.6441496240e+01   9.6788313365e+00    0.1849384    0.1272546  37.02 0.0009554203    1.735    0.424
       412  -9.0186     67.8058    118.7654   9.6541303508e+01   4.3872940150e+01    0.1959274    0.1870911  45.20 0.0005230361    1.139    0.122
       413  -9.4434     71.0475    117.0186   9.5128037918e+01   4.3840745488e+01    0.4246224    0.2685252  80.10  0.001213896    2.743    0.635
       414  -9.9050     42.9152    119.1054   1.0453415310e+02   4.6852709856e+01    0.2965075     0.197254  36.90 0.0009773945    1.674    0.403
       415  -9.3323     54.5177    117.9868   1.0060989668e+02   4.5808538451e+01    0.2380449    0.2099206  27.48 -7.299305e-05    1.268    0.211
       416 -10.8496     28.9277    116.8718   1.0860140033e+02   4.8758198931e+01    0.3538378    0.2708731 -77.88  0.001255634    1.224    0.183
       417 -10.3955      3.6480    116.5762   1.1643838242e+02   5.0647355970e+01    0.2846356    0.2225239 -53.72  0.001852669    1.193    0.161
       418  -9.3726     83.2598    116.1696   9.1093314509e+01   4.2173549486e+01    0.3333664    0.2780637 -51.76  0.001735274    1.124    0.111
       419  -8.3650     76.8153    116.6797   9.3229317750e+01   4.3063999934e+01    0.1932463    0.1330297  43.05 0.0004204125    1.570    0.363
       420  -9.1835     62.5245    115.4216   9.7498325765e+01   4.5420674016e+01    0.2939703    0.2011708 -83.45 0.0008913644    1.854    0.461
