#   1 NUMBER                 Running object number                                     
#   2 MAG_AUTO               Kron-like elliptical aperture magnitude                    [mag]
#   3 X_IMAGE                Object position along x                                    [pixel]
#   4 Y_IMAGE                Object position along y                                    [pixel]
#   5 X_WORLD                Barycenter position along world x axis                     [deg]
#   6 Y_WORLD                Barycenter position along world y axis                     [deg]
#   7 A_WORLD                Profile RMS along major axis (world units)                 [deg]
#   8 B_WORLD                Profile RMS along minor axis (world units)                 [deg]
#   9 THETA_WORLD            Position angle (CCW/world-x)                               [deg]
#  10 FWHM_WORLD             FWHM assuming a gaussian core                              [deg]
#  11 ELONGATION             A_IMAGE/B_IMAGE                                           
#  12 ELLIPTICITY            1 - B_IMAGE/A_IMAGE                                       
         1 -15.4715     55.4853     70.9246   2.9157412689e+02   6.5570850628e+00     0.106655   0.07536184  28.54   0.00379834    1.397    0.284
         2 -15.1217     84.4021     66.7235   2.9121557593e+02   6.4487975324e+00    0.1280932   0.05632239 -28.42  0.008690653    4.179    0.761
         3 -15.2867    119.4694     54.6098   2.9073991184e+02   6.3960718343e+00   0.06300366   0.04018416   2.33  0.002636494    1.876    0.467
         4 -15.6953    146.7352     30.6225   2.9028497940e+02   6.5185547120e+00    0.1320354   0.05465261  25.70   0.01124258    2.377    0.579
         5 -14.8486    122.5020     36.8083   2.9060092666e+02   6.5798997574e+00   0.05034944   0.03086142  -7.91  0.003140133    2.153    0.536
         6 -15.5785      6.9533     69.7332   2.9212808389e+02   6.8309687934e+00   0.07621707   0.04858043 -61.12  0.004123299    1.565    0.361
         7 -14.9685    166.2495     30.3092   2.9005792846e+02   6.4165557550e+00   0.05267902   0.04090188   6.43  0.003016117    1.353    0.261
         8 -13.9030     67.2212     48.0870   2.9130539900e+02   6.7509522586e+00   0.05975606   0.02696946 -59.38  0.005344833    2.136    0.532
         9 -13.7996    187.4674     12.8517   2.8971098932e+02   6.4978388273e+00   0.03866277   0.02566986 -32.85  0.003544342    1.639    0.390
        10 -15.0717    190.7774     25.3717   2.8974609142e+02   6.3392628337e+00   0.08224762   0.05598446  86.29  0.008332971    1.994    0.498
        11 -12.9197    222.9408     21.4054   2.8935207944e+02   6.2094782542e+00   0.01880987   0.01530028 -21.01 0.0008284914    1.290    0.225
        12 -15.2571     42.3478      8.2797   2.9136073657e+02   7.3323704972e+00   0.09534858   0.06309679 -44.32  0.007613084    1.500    0.333
        13 -13.7822      8.1418      3.3160   2.9172752206e+02   7.5717661474e+00   0.06256752   0.03405658  42.11  0.006012624    1.942    0.485
        14 -14.0785     25.8655     32.6038   2.9169322788e+02   7.1473509949e+00   0.05857704   0.03655181  78.30  0.005394597    2.472    0.596
        15 -15.1771      8.3396     29.3304   2.9187685722e+02   7.2781724455e+00   0.06355889   0.04370718  41.24  0.006913483    1.510    0.338
        16 -15.2917     13.7787     20.4762   2.9176234475e+02   7.3485940560e+00   0.06659187   0.04288266 -35.06  0.005751787    1.670    0.401
        17 -14.2531     24.8461     14.0462   2.9159682640e+02   7.3615252402e+00   0.04115873   0.02386797  29.06  0.004153203    1.684    0.406
        18 -15.2784    217.0641     15.8870   2.8938749435e+02   6.3033249268e+00    0.1154587   0.04735205 -55.43    0.0099699    2.267    0.559
        19 -13.1456    242.2891     35.9910   2.8921458375e+02   5.9406968830e+00   0.04194554   0.01602467  30.29  0.003175046    2.456    0.593
        20 -15.8576     99.8017     12.8174   2.9072298293e+02   6.9720748234e+00   0.07555126    0.0425851  19.09  0.003226736    1.857    0.461
        21 -12.9489    202.3278     10.9666   2.8952856842e+02   6.4384843680e+00   0.02082335   0.01801429  77.41  0.001920165    1.325    0.245
        22 -12.3267    162.4104      8.8079   2.8997644355e+02   6.6789219752e+00   0.01895697   0.01196295  37.68  0.001957008    1.597    0.374
        23 -11.8978    125.9516      8.6912   2.9039673813e+02   6.8773263752e+00   0.01343537   0.01047891 -35.12  0.001223815    1.302    0.232
        24 -12.5456    121.3583      4.3141   2.9042420201e+02   6.9513150285e+00     0.022147   0.01052863  42.29  0.001967346    2.248    0.555
        25 -11.6437     67.8427      3.7102   2.9103921097e+02   7.2466216189e+00    0.0133663   0.01075803 -34.99  0.001545194    1.251    0.200
        26 -12.0886     26.5726      3.8469   2.9151735979e+02   7.4669260221e+00   0.01317272   0.01111418   3.88 0.0009729647    1.210    0.174
        27 -11.6501    243.9936      2.4649   2.8899857769e+02   6.3078549054e+00    0.0130793  0.009910214 -58.89 0.0009465495    1.314    0.239
        28 -12.5440     80.8807      1.9795   2.9087835275e+02   7.1958650508e+00   0.02876298   0.01187747  18.00  0.002282022    2.831    0.647
        29 -11.5400     59.3762      1.8491   2.9112624901e+02   7.3130987253e+00   0.01412642   0.01111816 -66.63  0.001615943    1.321    0.243
        30 -11.3653     62.4865      1.5118   2.9108830868e+02   7.3001548075e+00   0.01172151  0.009095035  27.91 0.0007733927    1.277    0.217
        31 -12.9215    232.1504      2.6290   2.8913597732e+02   6.3703193806e+00   0.03520273   0.01902754   9.36  0.002416674    2.301    0.565
        32 -11.7356    153.7806      8.0337   2.9007152988e+02   6.7343056987e+00    0.0111734  0.009239492  19.87 0.0003701965    1.203    0.169
        33 -11.1496    211.3209    190.6610   2.9047449227e+02   4.3690397228e+00  0.006819895  0.004883976  61.51 0.0007050229    1.715    0.417
        34 -13.4959     54.9346    247.0675   2.9260328681e+02   4.5759251079e+00   0.05337272   0.02818266   4.95  0.004579314    2.590    0.614
        35 -14.1629     26.9575    244.9604   2.9291342968e+02   4.7497043918e+00   0.06113693    0.0405025 -69.40  0.006460091    1.625    0.385
        36 -12.5591     16.0821    197.6391   2.9276499392e+02   5.3412542787e+00   0.03719211   0.01064956 -47.26  0.002602178    3.483    0.713
        37 -13.3232     10.8775    210.5400   2.9289968168e+02   5.2237485080e+00   0.04860405   0.03155693  23.50  0.005155461    1.536    0.349
        38 -12.3141     24.8969    217.4127   2.9277782346e+02   5.0711837249e+00   0.02672835    0.0229077  77.10  0.002918287    1.342    0.255
        39 -13.7492     25.6302    227.7614   2.9282925374e+02   4.9506315669e+00   0.04576339   0.01872402 -45.51   0.00380251    2.495    0.599
        40 -13.5233     20.3621    224.3763   2.9287039088e+02   5.0170098039e+00   0.02657965   0.02263133  -1.28  0.001600814    1.206    0.171
        41 -14.3790      8.3136    246.0156   2.9313434080e+02   4.8376841365e+00    0.0465413   0.03707123  31.92  0.003550075    1.254    0.203
        42 -12.4293     48.7402    181.0634   2.9229225933e+02   5.3528933037e+00   0.02843392   0.01512986 -49.86  0.002743439    1.811    0.448
        43 -11.8580    198.7149    183.2184   2.9057624932e+02   4.5208960823e+00   0.01335666  0.009056161   9.03  0.001403083    1.616    0.381
        44 -11.8471    122.5620    181.7832   2.9144520217e+02   4.9478153415e+00   0.02254378   0.01190941  63.79   0.00175741    3.357    0.702
        45 -13.0198     85.2122    180.2007   2.9186661735e+02   5.1666576191e+00   0.02301878   0.01787852  80.24  0.002579814    1.582    0.368
        46 -12.9182    131.6767    173.0808   2.9128952945e+02   4.9967181026e+00   0.02292375   0.02056762  77.17   0.00282895    1.250    0.200
        47 -13.6557    123.7493    166.0051   2.9133975331e+02   5.1191180484e+00   0.04348983   0.03156484  76.38  0.004632019    1.788    0.441
        48 -12.8726    122.5578    155.0657   2.9128984083e+02   5.2487327619e+00   0.03144443   0.01850932 -58.81   0.00313517    1.662    0.398
        49 -12.8095    194.5518    176.8204   2.9058691289e+02   4.6153941622e+00   0.02196266   0.01753526 -75.13    0.0018206    1.370    0.270
        50 -11.3743    177.3875    167.2378   2.9072877544e+02   4.8159442956e+00  0.008944841   0.00631136 -75.90 0.0007188129    1.615    0.381
        51 -11.3309     27.6106    158.8049   2.9240691749e+02   5.7170525421e+00   0.01433394   0.01244856 -67.44  0.001707169    1.196    0.164
        52 -12.3133     24.7208    156.3582   2.9242607377e+02   5.7601149080e+00   0.02414032    0.0159751 -15.87  0.002449807    1.838    0.456
        53 -11.6194    155.0408    157.5275   2.9092970417e+02   5.0458687780e+00   0.01747097  0.009998146  49.97  0.001653363    2.075    0.518
        54 -12.4823    111.8906    155.7559   2.9141686727e+02   5.2984246913e+00   0.02865204   0.01609349  58.92  0.002528378    2.555    0.609
        55 -12.6507     77.7350    157.1452   2.9181891416e+02   5.4665833061e+00   0.02277816   0.01424591  22.04  0.001336661    1.610    0.379
        56 -13.2540     74.1933    153.4857   2.9183850745e+02   5.5268482285e+00   0.03272633   0.02393573   6.21  0.002894588    1.473    0.321
        57 -12.3494     85.8584    153.2442   2.9170252570e+02   5.4668350176e+00   0.02589868   0.01520285 -47.94  0.002611859    1.663    0.399
        58 -10.4082     94.6463    155.6882   2.9161536322e+02   5.3920244224e+00  0.007052034  0.004700422 -25.34 0.0007044664    1.729    0.422
        59 -12.2255    103.5153    149.8541   2.9147913094e+02   5.4099925526e+00   0.01835639   0.01293173 -37.17  0.001464509    1.463    0.317
        60 -12.1178    244.0923    147.1176   2.8984344661e+02   4.6817645971e+00   0.01821413  0.009444701 -70.25   0.00164302    2.228    0.551
        61 -11.8462      6.7810    147.7543   2.9258323734e+02   5.9531983618e+00   0.01830007    0.0146202  81.03  0.002091815    1.506    0.336
        62 -11.8566     55.7193    156.1083   2.9206689964e+02   5.5965776308e+00   0.01835195   0.01196954 -11.27  0.001373233    1.903    0.475
        63 -13.1193    208.6126    154.4669   2.9029471647e+02   4.7909937018e+00   0.03242602   0.02393136  28.19  0.003667918    1.340    0.254
        64 -11.3945     38.3183    145.9040   2.9220846058e+02   5.8049560321e+00  0.009329589  0.008135271 -44.55 0.0007085569    1.122    0.109
        65 -11.6225     44.6326    145.1708   2.9213132279e+02   5.7793242831e+00   0.01176904  0.009181059   7.52 0.0004735119    1.338    0.252
        66 -11.1729    162.5143    142.0444   2.9075336409e+02   5.1798389878e+00   0.01733872  0.006321181 -62.30  0.001365171    2.738    0.635
        67 -11.9727    139.5130    143.2475   2.9102553339e+02   5.2904053440e+00   0.01439317  0.007781604  30.10  0.001391405    1.796    0.443
        68 -11.4083    149.2626    140.8024   2.9089888307e+02   5.2653397603e+00   0.01590004   0.01127368  53.65  0.001708489    1.627    0.385
        69 -11.9612     89.9886    139.4911   2.9157489333e+02   5.5995143285e+00   0.02328081   0.01401233 -33.04   0.00228166    1.883    0.469
        70 -13.6398     22.3914    181.1220   2.9259654066e+02   5.4935707992e+00   0.03833535   0.03077428 -15.33  0.003318567    1.326    0.246
        71 -13.2211     42.8916    139.5827   2.9211896202e+02   5.8516208872e+00   0.04909015   0.01235207 -55.29  0.003480473    3.336    0.700
        72 -11.7330     47.2067    134.7876   2.9204129355e+02   5.8824684487e+00   0.02790992  0.008982779 -55.74  0.002167443    2.771    0.639
        73 -12.4812     62.6873    135.0023   2.9186385076e+02   5.7968911074e+00   0.02432861   0.02020313 -81.60  0.002879038    1.346    0.257
        74 -11.8158    133.4931    133.4824   2.9103807007e+02   5.4328123160e+00    0.0167401  0.009724047 -57.03  0.001395731    1.667    0.400
        75 -12.5002    132.5418    128.3829   2.9101933258e+02   5.4953538469e+00   0.03683574   0.01097457 -46.71   0.00260649    3.410    0.707
        76 -11.1232     56.8170    137.8107   2.9194793008e+02   5.7967995477e+00   0.01038502  0.008684483 -26.24 0.0009428696    1.220    0.181
        77 -12.6923    246.4218    133.7784   2.8973876822e+02   4.8191827407e+00   0.02437843   0.01890225  89.41  0.002740327    1.555    0.357
        78 -13.8408    231.6082    132.9875   2.8990464281e+02   4.9082680095e+00    0.0634946   0.01810244  34.48  0.004673461    3.155    0.683
        79 -14.0387    232.3690    127.6097   2.8986448887e+02   4.9646385402e+00   0.07363375   0.02256343  29.83  0.005577134    2.970    0.663
        80 -12.9663    137.1676     96.2057   2.9077838917e+02   5.8325807981e+00   0.02113318   0.01745966 -73.06  0.001520794    1.300    0.231
        81 -13.0775    109.8698     96.1283   2.9109294653e+02   5.9806738936e+00   0.02046314    0.0146109  62.09 0.0003186474    1.730    0.422
        82 -14.6553    104.8778    123.1043   2.9130772127e+02   5.7038834935e+00   0.09517237   0.04533152  17.33  0.008291653    2.359    0.576
        83 -14.0348     89.1565    109.4800   2.9140982455e+02   5.9419377431e+00   0.06303305   0.03495002   4.72  0.005657241    2.358    0.576
        84 -15.2906    105.4987    108.9254   2.9121797152e+02   5.8601741857e+00   0.08337891   0.06985616 -64.56   0.01002439    1.225    0.184
        85 -12.4642    137.2380    133.0017   2.9099208241e+02   5.4180281597e+00   0.03719867   0.01372133 -44.06  0.002863443    2.925    0.658
        86 -12.6341      4.1377    119.8566   2.9245188671e+02   6.2816383784e+00   0.03142549   0.01955049  22.28  0.002258573    1.617    0.381
        87 -13.2103     62.4240    102.6409   2.9167865353e+02   6.1627466881e+00    0.0581337   0.02652881 -67.35  0.004994635    2.433    0.589
        88 -13.2001     27.9833    124.0033   2.9220058324e+02   6.1071114707e+00   0.05407808   0.02102771 -46.32   0.00440354    2.588    0.614
        89 -13.5700     32.4620    111.4582   2.9207596252e+02   6.2243771701e+00   0.03544599   0.02055795 -60.19  0.003560731    1.701    0.412
        90 -14.0737     47.7385     96.9048   2.9181487914e+02   6.3062457661e+00   0.06945292   0.05334651  29.87  0.008025288    1.293    0.226
        91 -14.3337      2.6383     96.8930   2.9233584345e+02   6.5483000118e+00   0.07244059   0.02998951 -66.87  0.005905731    2.695    0.629
        92 -14.8389     18.0922    110.8506   2.9223840413e+02   6.3082953199e+00   0.05802306   0.04837857   7.65  0.004435886    1.222    0.181
        93 -15.6513     26.6437     94.4768   2.9204444167e+02   6.4468233284e+00    0.1188427   0.07063132   8.25   0.01150564    1.980    0.495
        94 -11.1817    184.9889    124.0304   2.9038930722e+02   5.2611836914e+00   0.01300902  0.009414798  59.40  0.000742206    1.660    0.398
        95 -11.7479    180.6751    121.0819   2.9042181845e+02   5.3176761423e+00   0.01602424  0.009471213  24.20  0.001112074    1.686    0.407
        96 -11.4424     51.7103    117.2247   2.9188720925e+02   6.0560933965e+00   0.02003563   0.01056452 -84.82  0.001595183    3.167    0.684
        97 -12.5184    110.6924    131.8366   2.9129147974e+02   5.5742378251e+00   0.02703062   0.01861721 -23.11  0.002833392    1.662    0.398
        98 -12.2399    176.8119    111.4140   2.9040993567e+02   5.4473399583e+00    0.0216819   0.01638464 -46.51  0.002428395    1.296    0.229
        99 -12.2626     45.6728    110.0228   2.9191504563e+02   6.1696263002e+00   0.02716365   0.01623549 -33.43  0.002657173    1.892    0.472
       100 -12.4370    121.0648    111.6611   2.9105428935e+02   5.7454849594e+00   0.01799987  0.009860802  40.29  0.001731144    1.881    0.468
       101 -13.4522    135.1167    103.1900   2.9084278391e+02   5.7650459963e+00   0.08935279   0.01340079  28.28  0.005147758    5.139    0.805
       102 -13.0966    248.8929     97.8604   2.8950048991e+02   5.2096639789e+00   0.02968725   0.01501833 -68.92  0.002673262    2.235    0.553
       103 -14.7860      8.7220    183.3613   2.9276720553e+02   5.5415804520e+00   0.06275959   0.05387059   9.26  0.007645082    1.173    0.147
       104 -10.7992    188.8063     96.8357   2.9018658210e+02   5.5465045613e+00  0.009257082  0.007750175  62.58  0.001083201    1.359    0.264
       105 -12.4480    127.7103     95.8370   2.9088535849e+02   5.8877579551e+00   0.01971143  0.008820361  38.68  0.001727066    2.249    0.555
       106 -11.4373     76.0602     95.6899   2.9148071834e+02   6.1676716158e+00   0.01100507  0.008911415 -48.55  0.000178433    1.207    0.172
       107 -14.8262    160.8396     80.5426   2.9041390114e+02   5.8809771189e+00    0.0874131   0.04982831 -22.68  0.001374225    2.377    0.579
       108 -14.6617    170.6375     77.0531   2.9028052022e+02   5.8672694096e+00   0.05907954   0.04574879  39.83  0.006577624    1.327    0.247
       109 -13.4028     85.1714    115.4749   2.9149072889e+02   5.8958877020e+00   0.05370178   0.02561394   7.16  0.004209427    3.094    0.677
       110 -11.9886     89.6595     87.5470   2.9127624841e+02   6.1861377617e+00   0.02134623   0.01060209  35.77  0.001987372    1.975    0.494
       111 -13.4468    188.5807     84.3151   2.9011605448e+02   5.6885547625e+00   0.03449895   0.02018438   5.34  0.001868604    2.121    0.529
       112 -13.3593    135.0225     79.5608   2.9070602523e+02   6.0314532531e+00   0.04163945   0.02254289  16.98  0.002861516    2.008    0.502
       113 -12.2296    125.6612     86.6807   2.9085560040e+02   6.0018527717e+00    0.0196423   0.01625155  24.32  0.002253884    1.200    0.167
       114 -12.7879    132.6585     86.0920   2.9077141593e+02   5.9707242765e+00   0.02225005   0.01396768  25.16   0.00231642    1.578    0.366
       115 -10.7003     79.0077     87.5120   2.9139904608e+02   6.2438709771e+00  0.009748059   0.00630358  24.32 0.0004689515    1.537    0.349
       116 -12.9619    241.8234     83.8283   2.8949983549e+02   5.4057154883e+00   0.02661666   0.01250968  29.33  0.002425413    2.047    0.512
       117 -13.3897    238.3902     80.3730   2.8951915933e+02   5.4631622365e+00   0.03664742   0.01421912  30.80   0.00301308    2.419    0.587
       118 -11.0307     98.3393     84.0583   2.9115569404e+02   6.1786552283e+00    0.0116712  0.008345412  50.59 0.0006247882    1.566    0.361
       119 -13.6381    170.8967    242.5321   2.9124154304e+02   4.0032576936e+00   0.04383468   0.02928043  11.92  0.004628485    1.611    0.379
       120 -11.9409     41.3422    249.5533   2.9277426024e+02   4.6208335336e+00   0.01566887  0.009929914 -64.79  0.001621757    1.624    0.384
       121 -13.9933    131.6738     66.5816   2.9066891522e+02   6.1955460993e+00   0.06143071   0.03865972  25.63  0.006054405    1.571    0.363
       122 -14.1141    159.1067     44.4741   2.9022317209e+02   6.2959647901e+00   0.07386965   0.03115607  12.72  0.005498266    3.349    0.701
       123 -14.4855    101.3737     50.2541   2.9092346218e+02   6.5426532966e+00   0.04459338   0.02813148  38.73  0.002484478    1.611    0.379
       124 -14.5227     96.0563    236.4650   2.9206813201e+02   4.4744962868e+00    0.0763186    0.0403876  51.14   0.00683107    2.378    0.579
       125 -12.6654    147.1570    238.7171   2.9149267114e+02   4.1741292082e+00   0.01895801   0.01328619  88.04  0.001137161    1.862    0.463
       126 -12.4969    145.0093    231.4109   2.9147497280e+02   4.2679745779e+00   0.02422274   0.00763931 -55.47   0.00186239    2.817    0.645
       127 -12.3143    111.2563    182.2823   2.9157842911e+02   5.0030746750e+00   0.02815714    0.0142791 -16.26  0.002092505    3.568    0.720
       128 -13.8662    198.2728     70.7939   2.8992532590e+02   5.7881539951e+00   0.04796072    0.0292278  -3.47  0.003536321    2.140    0.533
       129 -11.9142    219.5939     75.1915   2.8970534567e+02   5.6232562406e+00   0.01684336   0.01529074 -61.83  0.001432327    1.125    0.111
       130 -12.3546    216.9845     79.4956   2.8976056714e+02   5.5890025169e+00    0.0188684   0.01344831  11.30    0.0018082    1.486    0.327
       131 -13.0605    210.5766     77.3024   2.8982157566e+02   5.6483618805e+00   0.04187808   0.02042315  51.52  0.003493796    2.748    0.636
       132 -11.8017     91.0700     80.0982   2.9121654468e+02   6.2623789611e+00   0.01898179   0.01288822 -30.28     0.002002    1.618    0.382
       133 -12.2550     41.9056     77.2459   2.9176784686e+02   6.5588941254e+00   0.01658182   0.01411267 -50.67 0.0008090407    1.153    0.133
       134 -11.7983    242.1725     71.9263   2.8942621334e+02   5.5375953645e+00   0.01982958   0.01118851  57.43  0.001771595    2.458    0.593
       135 -12.1398    113.8184     80.7057   2.9095744022e+02   6.1329593466e+00   0.01734058   0.01673382 -49.45  0.001483573    1.050    0.048
       136 -11.9511      5.6859     50.9857   2.9203365149e+02   7.0487590408e+00   0.01700198   0.01238377 -49.10  0.001303182    1.337    0.252
       137 -11.1804    160.3039    230.3331   2.9129260426e+02   4.1977039513e+00  0.006958606  0.004672262 -29.22  0.000703731    1.660    0.398
       138 -11.8131    158.1929     64.3039   2.9034959158e+02   6.0779293896e+00   0.01894865   0.00969378 -72.83  0.001660501    2.413    0.586
       139 -11.9294    100.5844     64.4505   2.9101541909e+02   6.3872018545e+00   0.01772976   0.01365317 -40.53    0.0014655    1.293    0.227
       140 -14.0207    177.9820     57.4984   2.9008155852e+02   6.0474481506e+00   0.03619948   0.02912844  78.14  0.002395761    1.493    0.330
       141 -13.5478     79.5024     60.0035   2.9123299073e+02   6.5507896593e+00   0.03616768   0.02331046 -31.02  0.003703318    1.737    0.424
       142 -12.2920     39.0767     60.4435   2.9170269536e+02   6.7631997997e+00   0.01768432   0.01289331  50.42  0.001948285    1.527    0.345
       143 -12.4352     24.5208     60.2658   2.9186991157e+02   6.8433318068e+00   0.01404007   0.01245932 -51.43 0.0006460489    1.113    0.101
       144 -10.9574     31.4086     59.1407   2.9178374023e+02   6.8190306805e+00   0.01864271  0.005100778 -57.62  0.001343245    3.194    0.687
       145 -12.4416    247.8891     53.7699   2.8925416889e+02   5.7106046621e+00   0.02579812   0.01853021  76.38  0.002719954    1.828    0.453
       146 -12.2635    250.0372     48.9557   2.8920126039e+02   5.7530307942e+00   0.01813567   0.01378476 -63.62 0.0006353561    1.343    0.255
       147 -12.1030    230.2399     55.0610   2.8946497410e+02   5.7918157790e+00   0.02313963   0.01230836  33.03  0.002234553    1.828    0.453
       148 -13.1216     57.5968    202.7022   2.9231561384e+02   5.0615290355e+00   0.04601328   0.01849585 -68.35  0.003607056    2.941    0.660
       149 -13.0149     75.8427     37.5459   2.9114427064e+02   6.8231263077e+00   0.01876735   0.01361851  23.50 0.0008574287    1.370    0.270
       150 -12.3165     70.6683     36.5609   2.9119832459e+02   6.8620561603e+00   0.01529534   0.01195162   7.43 0.0008316137    1.334    0.251
       151 -11.9258     86.3383     49.5397   2.9109297865e+02   6.6317020737e+00   0.01374518   0.01137751 -42.88 0.0007014404    1.186    0.157
       152 -10.8082     23.3114     50.0364   2.9182432716e+02   6.9649337402e+00   0.00900691  0.008311005 -54.83 0.0005052942    1.088    0.081
       153 -13.3715     53.0642    214.1695   2.9243433363e+02   4.9566510577e+00   0.03121315   0.01694957  50.16  0.002862362    2.239    0.553
       154 -13.8857     67.9821    222.5197   2.9231077641e+02   4.7824685157e+00   0.04233878    0.0296984 -28.44  0.004565284    1.563    0.360
       155 -14.7247     62.8564    214.9118   2.9232575939e+02   4.8957152143e+00   0.05671212   0.04484051  43.90  0.006607231    1.329    0.248
       156 -14.5439    217.5228     41.9063   2.8953452048e+02   6.0085670142e+00   0.07415866   0.03379276  15.97  0.006176388    2.613    0.617
       157 -13.8635    111.7808     41.2436   2.9075065255e+02   6.5878763166e+00   0.03575544   0.02250144 -29.16  0.001818925    1.837    0.456
       158 -13.7610      8.4536     42.9220   2.9195470064e+02   7.1246589499e+00   0.07734963   0.03394337  30.65  0.006870043    2.170    0.539
       159 -13.0807     34.0714     33.0081   2.9160069048e+02   7.0987533946e+00   0.02301166   0.01537817  40.01  0.001711702    1.539    0.350
       160 -12.6407     85.1251    215.6407   2.9207332087e+02   4.7678609901e+00   0.01564142   0.01211439  31.39  0.001453505    1.286    0.222
       161 -12.8347    185.3626    212.6906   2.9090153788e+02   4.2612118814e+00    0.0219734  0.007840177 -57.25  0.001770655    2.573    0.611
       162 -11.7272    136.8348    211.2661   2.9145209826e+02   4.5388785708e+00   0.01117544  0.009096922 -78.23 0.0009006421    1.360    0.265
       163 -10.7254    163.4983    225.4809   2.9122762845e+02   4.2351216753e+00  0.006519904  0.006147921 -21.46 9.695403e-05    1.033    0.032
       164 -11.9985     80.1992    208.5947   2.9208922356e+02   4.8737207129e+00   0.01580448   0.01014612  51.07   0.00160449    1.806    0.446
       165 -14.2265     97.2629    217.1957   2.9194246417e+02   4.6850828716e+00   0.04018252    0.0272199 -16.36  0.004162061    1.760    0.432
       166 -13.5619    205.3374     40.3446   2.8966582514e+02   6.0921525573e+00   0.03644803   0.01657549  41.44  0.003187531    2.318    0.569
       167 -10.8805    149.9637    206.5248   2.9127330726e+02   4.5215315314e+00  0.009992023  0.006365451  21.36  0.001027717    1.586    0.370
       168 -10.9927    157.4190    213.2141   2.9122632920e+02   4.4060189124e+00  0.008923233  0.006359573 -78.94 0.0009442245    1.639    0.390
       169 -12.6965    105.0824     35.4536   2.9079420940e+02   6.6891122943e+00   0.02575229   0.01306183 -51.99  0.002435586    1.878    0.468
       170 -13.1817     56.2017     27.7554   2.9131417452e+02   7.0389136147e+00   0.02667944   0.01670882  24.25  0.001761098    1.587    0.370
       171 -12.0006     45.4569     36.5081   2.9148945140e+02   6.9982270197e+00    0.0120551    0.0108642  -8.44 0.0006929684    1.110    0.099
       172 -12.7826     47.3507     32.1762   2.9144229504e+02   7.0367752839e+00   0.02323419   0.01424843 -23.10  0.001731327    2.035    0.509
       173 -11.4781     51.2897     36.4560   2.9142171416e+02   6.9674651430e+00   0.01889658  0.006546225  22.83  0.001420027    3.038    0.671
       174 -11.6048    245.4648     31.5171   2.8915181696e+02   5.9737078123e+00   0.01628118  0.009244582 -61.19  0.001426172    1.755    0.430
       175 -12.7327     97.4443     28.3312   2.9084085595e+02   6.8103802376e+00   0.02560098   0.01415787 -57.47  0.002497482    1.749    0.428
       176 -11.3931     65.4317     24.0924   2.9118609217e+02   7.0304555948e+00   0.01899582  0.008980775 -37.54  0.001602045    2.505    0.601
       177 -11.5264     76.4633     23.8533   2.9105717574e+02   6.9737671934e+00   0.01622287  0.009010314  36.51   0.00158701    1.790    0.441
       178 -12.7173     41.8653    201.1256   2.9248786265e+02   5.1637277712e+00   0.01579115   0.01149825   8.36   0.00173997    1.466    0.318
       179 -11.3110    200.1689     15.1790   2.8957812677e+02   6.4028768563e+00   0.00940258  0.008476079  12.20   0.00067438    1.100    0.091
       180 -13.0273     39.4777    195.1496   2.9248076222e+02   5.2438767170e+00   0.03473793   0.02266103  50.71  0.003588596    1.761    0.432
       181 -11.2936    213.1816    200.7540   2.9051186456e+02   4.2453975163e+00   0.01321461   0.01190649 -74.13  0.001633774    1.180    0.152
       182 -11.6074     70.7091     16.9000   2.9108309542e+02   7.0829242308e+00   0.01119638   0.01005115  28.71 0.0004080895    1.119    0.106
       183 -13.2716    164.5918    194.7049   2.9103607256e+02   4.5757567707e+00   0.03539856   0.02067698 -85.30  0.003177343    2.501    0.600
       184 -12.9080    201.4063    191.9080   2.9059587727e+02   4.4085544019e+00   0.02095046   0.01592093 -46.94  0.001817838    1.288    0.223
       185 -11.2124     60.2751     16.0550   2.9119879685e+02   7.1485709252e+00    0.0118398  0.009349965 -89.86  0.001339233    1.506    0.336
       186 -11.4859    249.0000    193.9911   2.9006039924e+02   4.1279356860e+00   0.01089581  0.003657869 -62.40 0.0008078877    2.980    0.664
       187 -13.3659     30.0137    169.8686   2.9244336220e+02   5.5795070306e+00   0.04415825    0.0245302 -23.67  0.003236712    2.474    0.596
       188 -14.0366     13.9641    157.8815   2.9255905474e+02   5.8006103745e+00    0.1348353   0.06209328 -26.74   0.00960146    3.816    0.738
       189 -14.2867     15.4369    175.3910   2.9264355988e+02   5.5954224153e+00   0.06195968   0.03035406  44.72   0.00513431    2.283    0.562
       190 -10.9221    107.6945    192.9055   2.9168121508e+02   4.9025876153e+00   0.01098899  0.007405933 -43.50 0.0009612282    1.479    0.324
       191 -10.5302     81.2659    193.3931   2.9198871741e+02   5.0392519496e+00  0.009418566  0.005733975  35.01 0.0009513265    1.627    0.386
       192 -13.0975     98.1488    187.6820   2.9176091080e+02   5.0127952207e+00   0.02585287   0.02126357 -56.72  0.003081294    1.206    0.171
