#   1 NUMBER                 Running object number                                     
#   2 MAG_AUTO               Kron-like elliptical aperture magnitude                    [mag]
#   3 X_IMAGE                Object position along x                                    [pixel]
#   4 Y_IMAGE                Object position along y                                    [pixel]
#   5 X_WORLD                Barycenter position along world x axis                     [deg]
#   6 Y_WORLD                Barycenter position along world y axis                     [deg]
#   7 A_WORLD                Profile RMS along major axis (world units)                 [deg]
#   8 B_WORLD                Profile RMS along minor axis (world units)                 [deg]
#   9 THETA_WORLD            Position angle (CCW/world-x)                               [deg]
#  10 FWHM_WORLD             FWHM assuming a gaussian core                              [deg]
#  11 ELONGATION             A_IMAGE/B_IMAGE                                           
#  12 ELLIPTICITY            1 - B_IMAGE/A_IMAGE                                       
         1 -15.6730      6.6062     68.1279   1.2053513676e+02   6.0649204839e+01     2.131492    0.7076378 -73.52  0.009608433    2.551    0.608
         2 -13.7074      8.7935     42.8740   1.1474362365e+02   6.6002602652e+01    0.9177683    0.6798676  59.76  0.006150507    1.778    0.437
         3 -15.4618     42.1599      6.5174   8.5127758577e+01   6.9707316575e+01     1.916499     1.308761 -18.98   0.01175479    1.303    0.233
         4 -15.2394      8.6048     29.3041   1.1120734197e+02   6.8826924787e+01     1.374654    0.6235244  30.44  0.007631501    2.694    0.629
         5 -15.5214     13.5139     19.4262   1.0546607976e+02   7.0453374772e+01     1.056137    0.8328343  19.64  0.007607574    1.529    0.346
         6 -14.9130     22.4017     13.6025   9.8470946806e+01   7.0801019210e+01    0.8480549    0.5003285  35.85  0.004008828    2.130    0.531
         7 -14.9093    119.7899     54.7168   7.8500162400e+01   4.7673875142e+01     1.283741    0.8608541  22.08  0.001856422    1.937    0.484
         8 -13.6000    118.7511     27.9902   6.8732390326e+01   5.2129374900e+01     1.187123    0.6945936  16.96  0.004730532    2.489    0.598
         9 -13.5529    131.8199     33.1608   6.7586106547e+01   4.8263406180e+01    0.9660399     0.468067 -28.46  0.003489102    2.078    0.519
        10 -14.6382    122.2056     36.9722   7.1369914493e+01   5.0022068383e+01     1.132998    0.6204671  28.60  0.002632284    2.484    0.597
        11 -13.6055      8.1593      2.7518   1.0137624269e+02   7.3897023192e+01    0.6483424    0.4422799  23.74  0.002289937    1.757    0.431
        12 -12.8493    187.2680     12.5261   5.0706111002e+01   3.6208796331e+01    0.7662238     0.584451 -34.46  0.003032507    1.319    0.242
        13 -13.7518    188.3143     25.2343   5.4563650643e+01   3.4547705649e+01     1.822476    0.6683767 -50.64  0.005645528    3.747    0.733
        14 -12.4961    195.0039     23.4188   5.3099616363e+01   3.2989028663e+01     0.855732    0.2909082 -33.01  0.003069176    2.647    0.622
        15 -14.6711    166.4782     30.1247   5.9548351558e+01   3.9755110478e+01     1.149356    0.8996574  67.13  0.003428964    1.275    0.216
        16 -14.9574    146.9639     30.5090   6.3323699123e+01   4.4808362188e+01     1.450838    0.8383995  63.48  0.004696897    1.762    0.433
        17 -13.8195    215.4112     20.7920   4.9892380740e+01   2.7994084332e+01      1.28197    0.4099111 -24.34   0.00445601    3.080    0.675
        18 -13.0626    218.9955     15.2968   4.7976182341e+01   2.7675114412e+01    0.5401436    0.4799627 -84.94  0.002110132    1.097    0.088
        19 -12.7743    215.0195      9.8726   4.6853874461e+01   2.9236781652e+01    0.3428494    0.3057191  65.90  0.000460385    1.138    0.122
        20 -15.8601     98.4704     12.7016   6.7586947901e+01   5.8723177285e+01     1.792659    0.8596776  49.94  0.004727611    1.972    0.493
        21 -12.0874     60.9145     17.6228   8.2613131453e+01   6.5241029394e+01    0.2836952    0.1655234 -39.02  0.001482959    1.619    0.382
        22 -11.3025    153.0414      8.0820   5.4028280105e+01   4.5773420357e+01    0.2213672    0.2069811  73.52 0.0007551624    1.066    0.062
        23 -12.2351    119.8698      3.4948   5.8292033266e+01   5.4709630247e+01     0.464749    0.2895907 -81.21  0.001994201    2.523    0.604
        24 -11.9026     67.7376      3.7270   7.2981332959e+01   6.5995493396e+01    0.2874396    0.1993971   9.99  0.001618289    1.453    0.312
        25 -10.5631    221.2899      3.3373   4.4472110791e+01   2.8291029641e+01    0.1356855   0.09951247  33.81 0.0007022239    1.639    0.390
        26 -10.5389    192.9789      2.9922   4.7088038766e+01   3.5616978351e+01    0.1647496    0.1577785 -49.67 0.0003613351    1.070    0.065
        27 -11.2362    232.8649      1.7389   4.3102203655e+01   2.5593647758e+01    0.1919684    0.1770214  62.73 0.0007504183    1.179    0.152
        28 -12.3945     80.8959      1.8144   6.7533625463e+01   6.3678232992e+01    0.5612116    0.1449887  49.92   0.00202565    3.347    0.701
        29 -11.2572     62.4733      1.4985   7.3747163868e+01   6.7207766556e+01    0.2286268    0.1656546  14.59 0.0006887172    1.316    0.240
        30 -11.6883     59.4812      1.5044   7.4910987891e+01   6.7725682339e+01    0.2477863     0.170247  21.80 0.0009726587    1.424    0.298
        31 -10.9980    192.7672    164.6524   9.0373000332e+01   1.1948669514e+01    0.1854905      0.16153  12.03  0.000944782    1.113    0.101
        32 -12.8979     57.4420    246.7872   1.2541543149e+02   2.0238336103e+01    0.3738641    0.2962747  32.32  0.003063949    1.745    0.427
        33 -13.5204     28.4088    246.1684   1.2988434103e+02   2.3530131040e+01    0.3841459    0.2156398  64.30  0.003053962    1.248    0.199
        34 -11.8060      2.6466    249.8557   1.3381121496e+02   2.5481266749e+01     0.243535    0.1278689  55.60  0.001632004    1.253    0.202
        35 -13.9970      8.8567    245.5475   1.3278124488e+02   2.5551156568e+01    0.6349057       0.2824  56.79  0.003180088    1.475    0.322
        36 -11.8514    206.3880    162.2302   8.7366060930e+01   9.6964684773e+00    0.1800048    0.1236295 -42.91 0.0009560335    1.707    0.414
        37 -12.3563     77.3639    157.1287   1.1369752760e+02   3.3715970505e+01    0.3505144    0.2541018  43.57  0.001405408    1.364    0.267
        38 -13.0293     73.7057    153.6525   1.1407708185e+02   3.4948003443e+01    0.4323067    0.3949977   0.96  0.002353957    1.534    0.348
        39 -11.8570    214.4065    156.2090   8.4705646746e+01   9.0237771897e+00    0.1821954    0.1230847 -41.55 0.0009547914    1.704    0.413
        40 -11.4234    188.2541    156.0028   8.9533059341e+01   1.4173827112e+01    0.1719659    0.1180665 -35.34 0.0007563393    1.570    0.363
        41 -11.1985     56.8563    154.4103   1.1803428992e+02   3.6963107841e+01    0.2471819    0.1335581 -54.64  0.001123635    2.020    0.505
        42 -13.2852    246.7354    150.5056   7.8065147164e+01   3.7418332841e+00    0.5031376    0.4127257 -37.21  0.003112762    1.455    0.313
        43 -11.9511    109.5942    153.6262   1.0582523327e+02   2.9465432434e+01    0.2693376    0.1999495 -84.35  0.001461198    1.511    0.338
        44 -11.8205     85.6518    153.0827   1.1124022566e+02   3.3366449591e+01    0.2909501    0.2302167 -51.36   0.00175956    1.442    0.306
        45 -13.5678     22.3775    181.2168   1.2760280034e+02   3.5271265269e+01    0.5987524    0.4067061 -56.04  0.003696003    1.920    0.479
        46 -11.7879    103.3759    150.1014   1.0667573127e+02   3.1218058659e+01    0.2962351    0.2527398 -29.96  0.001746963    1.525    0.344
        47 -14.6731      8.5332    183.4478   1.3035058319e+02   3.6108588723e+01    0.8059175    0.7187092  33.60  0.006873205    1.597    0.374
        48 -11.6212    148.5070    140.9670   9.4692963661e+01   2.4770687912e+01    0.2137619    0.1413604 -46.18  0.001039618    1.610    0.379
        49 -11.6035     89.1878    140.9693   1.0854758852e+02   3.5394416614e+01    0.2142535    0.1477947 -35.84  0.001092562    2.009    0.502
        50 -13.1810    246.3262    137.7389   7.5416386688e+01   5.4533042889e+00    0.5354622    0.4139645 -60.32  0.002930225    2.024    0.506
        51 -11.8875    230.0155    138.5152   7.8238394354e+01   8.4813314765e+00    0.2645321    0.1837734 -42.08  0.001394707    1.647    0.393
        52 -13.4949     15.6370    175.4597   1.2856214487e+02   3.7006818897e+01    0.5582334    0.2722567  61.10  0.002872018    1.699    0.411
        53 -11.9200    201.4253    191.4300   9.3635538351e+01   6.5454571864e+00    0.2878128    0.1948394  29.51   0.00169365    1.300    0.231
        54 -11.0931     11.0110    134.1147   1.2671376609e+02   4.5838333408e+01    0.1668907    0.1292172  87.13 0.0005125621    1.014    0.014
        55 -12.1152    132.7215    128.4141   9.5652572158e+01   3.0365705814e+01    0.6410724    0.2596528 -39.60  0.002287734    3.013    0.668
        56 -13.6800    249.2557    180.6660   8.3604698285e+01  -2.9388288070e-01    0.7260408    0.2133775 -36.61   0.00290932    3.850    0.740
        57 -11.4904     25.4946    127.1826   1.2254569086e+02   4.6145171639e+01    0.2045149    0.1811806 -60.65 0.0008382453    1.309    0.236
        58 -13.5045     29.1711    122.3169   1.2107166340e+02   4.6888171572e+01    0.5209153    0.2712393 -68.50  0.002923904    1.599    0.375
        59 -13.7285    112.1223    100.9988   9.4461656870e+01   4.0090559889e+01    0.4517998    0.3771858 -67.07  0.001880186    1.249    0.199
        60 -14.0207    105.3052    122.2447   1.0108231095e+02   3.6778593148e+01     1.354267    0.9208913  63.55  0.006670672    1.673    0.402
        61 -14.9067    106.3935    107.3973   9.7538055442e+01   3.9788988657e+01     1.314203     1.106768  86.75  0.006979553    1.307    0.235
        62 -13.8433    241.0004    120.0150   7.2287002957e+01   8.8578758318e+00    0.5785177    0.2432418 -42.47  0.002291739    2.735    0.634
        63 -15.0349     18.0068    110.6983   1.2271102983e+02   5.0408610135e+01     1.292755     1.089369  77.87  0.006671493    1.144    0.126
        64 -14.3365      2.4311     97.2675   1.2560357969e+02   5.4438105752e+01     1.180754    0.5457581 -86.37  0.003627485    1.893    0.472
        65 -14.8934     20.6812     96.8721   1.2023601030e+02   5.3295692577e+01     1.090519    0.7432858  79.43  0.005724274    1.463    0.317
        66 -14.6093     28.8506     92.7983   1.1717166065e+02   5.3548539431e+01     1.137106     0.802282  70.41  0.007008743    1.534    0.348
        67 -11.4998    180.9814    121.4835   8.3404219137e+01   2.1471716796e+01    0.2322015    0.1402114  47.28  0.001035016    1.599    0.375
        68 -12.1402      4.0459    119.9645   1.2725983494e+02   4.9377390667e+01    0.4002573    0.1638116  22.84  0.002139367    3.109    0.678
        69 -13.8460    249.1928    106.6253   6.7928386496e+01   9.0233725901e+00    0.6748291    0.3255392 -37.65  0.003026422    1.996    0.499
        70 -13.2263     32.9929    111.5577   1.1870557027e+02   4.8939297065e+01    0.5075123    0.2494619 -88.53  0.002428421    2.288    0.563
        71 -13.0281     85.2372    115.5604   1.0499016717e+02   4.1562448136e+01    0.8114546    0.5069122  19.96  0.003692927    2.448    0.592
        72 -11.6690     78.2443    111.3219   1.0605787144e+02   4.3565981603e+01     0.227794    0.2082256 -34.37   0.00092791    1.265    0.210
        73 -11.9184     45.4703    110.5257   1.1507973290e+02   4.7919789637e+01    0.3396882    0.2967561 -87.54   0.00227533    1.050    0.047
        74 -11.4523    175.3199    110.6686   8.1915598322e+01   2.4641763922e+01    0.1510843    0.1200837 -78.66 0.0007048699    1.694    0.410
        75 -12.0687     61.6773    108.2967   1.1012482574e+02   4.6524145402e+01    0.4240887    0.2611266 -68.01  0.002235895    1.499    0.333
        76 -12.2435    136.2085    103.4927   8.8928899066e+01   3.4691563281e+01    0.5189598    0.2832513  48.40  0.001797215    1.830    0.453
        77 -13.6669     91.6611    109.3001   1.0194728065e+02   4.1925431590e+01    0.8899872    0.6769901  35.46  0.004431387    1.439    0.305
        78 -12.3848     62.5636     99.5215   1.0818800558e+02   4.8399353091e+01    0.5821323    0.3339608  80.92  0.002447065    2.887    0.654
        79 -12.1944     43.4447     91.5938   1.1245197929e+02   5.2433311898e+01    0.6600035    0.2550352 -70.23  0.002707548    2.666    0.625
        80 -12.9056     50.6790     98.8498   1.1159408220e+02   4.9995121806e+01    0.6460303    0.4457698  -2.42  0.002734715    2.320    0.569
        81 -11.9856     49.3764     94.5479   1.1118134818e+02   5.1119945393e+01    0.4203349    0.2450768  87.26  0.001972951    2.343    0.573
        82 -12.4571    137.7338     95.7912   8.6521299135e+01   3.5898190137e+01    0.3962379    0.3470519 -86.82  0.001092734    1.308    0.235
        83 -11.3855    128.2310     96.3809   8.9057239387e+01   3.7816926391e+01    0.2145048    0.1396128  56.78 0.0007632006    1.683    0.406
        84 -11.3344     59.4650    125.6703   1.1361749688e+02   4.2889958069e+01    0.2650786    0.1857312 -13.50  0.001233423    2.579    0.612
        85 -12.3632    132.3132     86.2771   8.5221294196e+01   3.8963353793e+01    0.2652319    0.2374767   1.08 0.0008252201    1.236    0.191
        86 -10.9802    125.4802     86.4770   8.7034427303e+01   4.0399260084e+01    0.2795255    0.2157694 -84.72  0.001306846    1.738    0.425
        87 -11.5476     89.3169     87.1266   9.7334126361e+01   4.7190875640e+01    0.3439268    0.2029959  48.96  0.001593775    1.858    0.462
        88 -13.4015    188.4432     84.4687   7.2321683175e+01   2.6042904284e+01     0.720308    0.3172814  44.53  0.001866228    2.357    0.576
        89 -13.1117    237.5809     80.2881   6.3150104059e+01   1.5084426835e+01    0.4151539    0.3159622  89.60  0.002127503    1.756    0.430
        90 -13.2007    164.0907     71.5927   7.3442193513e+01   3.4188958763e+01     1.162538    0.4821598  43.95  0.004015807    2.573    0.611
        91 -14.0207    161.2326     80.4973   7.6714558975e+01   3.3345286855e+01    0.8936338    0.5965142  22.95  0.003003509    1.996    0.499
        92 -14.5811    172.1693     76.8362   7.3332627807e+01   3.1305088806e+01     1.412608    0.6201946  55.35  0.005149389    2.303    0.566
        93 -13.5723     62.3281     56.6525   9.7393675206e+01   5.7855323115e+01     1.141742    0.5562585 -43.48   0.00525773    1.858    0.462
        94 -14.1320     38.9075     67.9496   1.0898876906e+02   5.8207002867e+01     2.524238    0.5666757  27.77  0.008527999    5.372    0.814
        95 -13.4963     91.5174     57.8044   8.7868238128e+01   5.2890047120e+01    0.7353597    0.4824046 -51.96  0.002932657    1.588    0.370
        96 -12.8660     71.8524     75.2054   9.9579457898e+01   5.2545932985e+01    0.6552461    0.4884056 -43.30  0.003201755    1.262    0.208
        97 -12.8031     77.1151     73.6024   9.7430012978e+01   5.2094327813e+01    0.6800676    0.3329921 -36.38   0.00276709    2.448    0.592
        98 -14.0802     87.5031     65.6658   9.1720993822e+01   5.2042368802e+01    0.9094545    0.6244141  -8.59  0.003228921    2.190    0.543
        99 -13.3189     55.8224     79.7726   1.0599349706e+02   5.3699840142e+01     0.589996    0.3383153 -42.11  0.002264301    1.787    0.440
       100 -13.8729     60.8192     75.7692   1.0335870733e+02   5.3956446839e+01    0.7111665    0.5058796 -50.95  0.000733664    1.245    0.196
       101 -12.6677    216.8650     81.4653   6.6561439259e+01   1.9675953073e+01    0.4464808     0.329086 -20.55 0.0006277954    1.355    0.262
       102 -12.9236    210.5594     77.8835   6.6615780256e+01   2.1708336876e+01    0.5256685    0.3405291 -63.25   0.00223722    2.157    0.536
       103 -11.6142     90.6987     80.2169   9.5051792617e+01   4.8443690948e+01    0.3963099     0.313967 -18.01  0.002073831    1.532    0.347
       104 -12.9353    135.0612     79.7726   8.2625036335e+01   3.9614755891e+01    0.8175042    0.3881555  54.45  0.002778906    2.294    0.564
       105 -11.8373    113.9593     80.2131   8.8314313968e+01   4.4059921836e+01     0.396138    0.3159291 -58.47  0.002017367    1.328    0.247
       106 -11.9687     40.2818    243.5163   1.2793625487e+02   2.2672203292e+01    0.2224509    0.1082305  84.68   0.00152664    2.000    0.500
       107 -11.4975    208.3291    243.9936   1.0035166164e+02  -6.7509740669e-01    0.1372719   0.08767762 -61.80 0.0007052015    4.373    0.771
       108 -13.8965     95.8214    238.2246   1.1853490616e+02   1.6659729416e+01     0.419907    0.2611432  55.76  0.001104266    1.234    0.190
       109 -11.1800    147.4673    239.4634   1.0988188696e+02   9.0339379256e+00      0.11272   0.08376361  45.75 0.0002968186    1.025    0.024
       110 -11.8167    246.9012    235.2246   9.3061699678e+01  -5.4206638783e+00     0.260605    0.1187944  40.13  0.001566745    1.785    0.440
       111 -12.0840     24.5889    217.0922   1.2917764763e+02   2.8576141028e+01    0.4568697    0.2606936  68.24  0.003375242    1.314    0.239
       112 -11.8605     41.9610     77.2782   1.1004627020e+02   5.5820523998e+01    0.3068852    0.2186028 -56.77  0.001206626    1.189    0.159
       113 -12.0496    219.0020     74.9961   6.4500156826e+01   2.0113189928e+01    0.2246696    0.2168021 -12.03 0.0005269889    1.017    0.017
       114 -10.7733     23.1069     75.1750   1.1603111712e+02   5.7987399899e+01    0.1820879    0.1345911 -51.04 0.0005208969    1.240    0.193
       115 -12.5001    124.3786     63.9155   8.0397002877e+01   4.4993560722e+01    0.7264805     0.532855  63.66   0.00344646    1.581    0.367
       116 -12.0730    128.8577     72.0378   8.1836549805e+01   4.2478364677e+01    0.5497332      0.33988 -16.17  0.002150804    2.400    0.583
       117 -13.0357    134.9500     66.7267   7.8603272574e+01   4.2070576935e+01     0.750083    0.6460488  48.67  0.002350152    1.171    0.146
       118 -13.8099    199.4655     70.0990   6.6297364638e+01   2.5589692136e+01    0.7389057    0.4036466  51.40  0.001898821    1.817    0.450
       119 -11.5004    158.5644     64.2552   7.2347013565e+01   3.6793447930e+01    0.3052617    0.1407979 -38.56  0.001134135    2.132    0.531
       120 -11.4235     99.6657     64.6996   8.7643543672e+01   5.0002095583e+01    0.3107818    0.2483705 -81.29   0.00156374    1.669    0.401
       121 -13.5493     79.2872     60.3536   9.2697355175e+01   5.4518269974e+01    0.7215414     0.496461 -23.03  0.003578146    1.733    0.423
       122 -11.2658     85.8026     50.1814   8.7047427519e+01   5.5391875811e+01    0.3641884    0.1840924 -33.89  0.001542908    2.042    0.510
       123 -13.8010    177.7750     57.5688   6.6421590622e+01   3.2980659939e+01    0.8914377    0.6314544 -50.04  0.002608473    1.527    0.345
       124 -11.5049     39.2090     60.7125   1.0708176394e+02   5.9763224364e+01     0.276035     0.196475  79.63  0.001532993    1.946    0.486
       125 -12.6110     24.5326     59.9312   1.1240565658e+02   6.1254511539e+01    0.3150781    0.1840908 -55.33 0.0009470319    1.361    0.265
       126 -12.3998    109.7606     53.8138   8.0969047166e+01   5.0017987384e+01     0.501942    0.2681187 -33.96  0.002115114    1.872    0.466
       127 -13.7093     25.7239    227.4514   1.2948153823e+02   2.6741515049e+01    0.5093163    0.2828976 -65.01  0.003674251    2.196    0.545
       128 -13.3138     20.8918    225.1246   1.3015723930e+02   2.7606654306e+01    0.3451828    0.2806264  42.41  0.002038441    1.555    0.357
       129 -12.5504    228.2093    227.3095   9.4815994719e+01  -1.9628776412e+00    0.1937603    0.1555206 -30.20  0.001444211    1.644    0.392
       130 -13.8224     66.6188    223.0454   1.2235243687e+02   2.2843019255e+01     0.592052    0.4862909  46.08  0.004693631    1.351    0.260
       131 -12.9549    110.0106     42.3693   7.6700879084e+01   5.1939176436e+01    0.5235551    0.2579101  52.67  0.001316827    2.132    0.531
       132 -12.8656    113.3147     38.3989   7.4261623440e+01   5.1846098526e+01    0.4016172     0.344129  15.33  0.001223614    1.188    0.159
       133 -13.8837    103.1913     50.6741   8.1765484390e+01   5.1951756070e+01    0.5854826    0.4062628 -50.33 0.0008492106    1.562    0.360
       134 -13.3465     97.9877     50.5123   8.3282323599e+01   5.3028624414e+01     1.045231    0.4309415 -47.55  0.003859135    2.654    0.623
       135 -13.5320     66.3578     49.2809   9.3482120914e+01   5.8768203326e+01    0.6071682    0.5814318 -34.58  0.003664162    1.108    0.097
       136 -12.1858    247.7719     50.2478   5.4202182062e+01   1.6716500730e+01    0.4594856    0.2153368  30.34  0.001553062    4.141    0.759
       137 -11.4520    136.3642     49.7531   7.2551557060e+01   4.4645604079e+01    0.2919992    0.2287288  34.13 0.0009057079    1.323    0.244
       138 -14.1260     62.8030    214.7351   1.2240911459e+02   2.4704251106e+01    0.5986188    0.3221762  58.36   0.00385774    1.492    0.330
       139 -12.4341    154.7613     46.3998   6.7302981471e+01   4.0576768257e+01    0.5316717    0.2549964  51.05  0.001681148    2.001    0.500
       140 -13.1234    158.4949     43.4823   6.5558732946e+01   4.0045241888e+01    0.6106852    0.4484125  51.52  0.002164566    1.327    0.247
       141 -12.7553    248.8826    216.3095   8.9838723157e+01  -3.9587359045e+00    0.2577725    0.1968045  30.52  0.001754062    1.240    0.194
       142 -13.4106    238.3451    215.0673   9.1302137050e+01  -2.2594396510e+00    0.3171591     0.309892  71.38  0.002455379    1.733    0.423
       143 -12.4512     94.4534    218.6176   1.1704725627e+02   1.9885373744e+01    0.2191133    0.1441947  52.88   0.00114876    1.181    0.153
       144 -12.7064    198.8356     37.4901   5.6840204070e+01   3.0298644929e+01    0.5226953    0.3444331 -86.65  0.001696363    1.891    0.471
       145 -13.8805    217.1150     41.9929   5.5675018264e+01   2.5063039040e+01      1.11254    0.4341936  59.16  0.004167068    2.470    0.595
       146 -12.9636    205.1475     40.3222   5.6794378123e+01   2.8308955645e+01     0.533888    0.3570458 -74.01  0.001956519    1.868    0.465
       147 -11.6415     25.6680     43.0280   1.0758703365e+02   6.4780981323e+01    0.1798364     0.127441 -52.78 0.0004434746    1.136    0.120
       148 -13.2554     76.1809     37.4598   8.5515098416e+01   5.9412240122e+01    0.3568236    0.3029344  43.89  0.001019946    1.326    0.246
       149 -12.5684     70.5259     36.2949   8.7089779873e+01   6.0567730492e+01    0.3647602    0.2868023 -18.44  0.001287359    1.239    0.193
       150 -12.7049    105.5240     35.0004   7.5109485098e+01   5.4095680295e+01    0.6072811    0.3434531 -17.21  0.002534599    2.187    0.543
       151 -12.0525     35.5924     35.6918   1.0095375594e+02   6.5347863444e+01    0.3917621    0.1723368 -43.11    0.0019061    1.918    0.479
       152 -12.7644     45.9485     33.9351   9.5868395123e+01   6.4520752937e+01    0.5242565    0.2934457 -35.18  0.002738664    1.659    0.397
       153 -11.9771    242.1597     35.8780   5.1124844075e+01   1.9737324947e+01    0.4613876    0.2428998  68.04  0.002132267    2.019    0.505
       154 -13.2325      9.4709    210.9025   1.3142672094e+02   3.1084510377e+01    0.5778809    0.1776632  43.31  0.003442995    2.355    0.575
       155 -10.6028    136.7014    211.3270   1.0849987376e+02   1.4681018764e+01    0.1187511   0.08112005  66.37 0.0005173797    1.635    0.388
       156 -12.9134    139.4701     21.7548   6.1591982403e+01   4.7829242100e+01    0.6259995    0.3494559  62.96  0.001628271    1.786    0.440
       157 -12.0719    223.5619     21.2132   4.9145110708e+01   2.5897861200e+01    0.3840398    0.2614088  77.05 0.0005855224    1.509    0.337
       158 -11.2902     45.4298    209.2222   1.2512254059e+02   2.7708714005e+01    0.1508755   0.08121268  84.27 0.0009560382    1.757    0.431
       159 -11.8461     72.4690    206.9761   1.2002523193e+02   2.4820045260e+01    0.2779154    0.1510205  54.51  0.001712643    1.488    0.328
       160 -11.2141    199.8440    214.8424   9.7658228294e+01   3.8505392578e+00    0.1573166    0.1294705  48.02  0.001087577    1.335    0.251
       161 -11.2279     89.1511     30.1190   7.8091291533e+01   5.8246656995e+01    0.2068631    0.1730307   2.06 0.0002669769    1.182    0.154
       162 -13.2267     55.8044     27.4371   8.9125649918e+01   6.4397468811e+01    0.4928548    0.3250902  38.69   0.00167853    1.706    0.414
       163 -11.6126     97.4201     26.6750   7.4056147208e+01   5.7084912700e+01    0.3150827    0.2661834 -54.97  0.001745934    1.437    0.304
       164 -11.5045     65.1837     24.5541   8.4134556663e+01   6.3449513625e+01    0.2922567    0.1962118 -16.37  0.001555521    1.569    0.363
       165 -11.3244     75.2244     23.4237   7.9899389589e+01   6.1912493261e+01    0.2385125    0.1246853  40.72 0.0007506454    1.983    0.496
       166 -12.6428     57.3282    203.5634   1.2255428936e+02   2.7320155331e+01    0.3880677    0.2024385  88.98  0.002303385    2.007    0.502
       167 -11.7868     70.7935     16.6772   7.8376966154e+01   6.3715534644e+01    0.2445852    0.2092434 -15.29  0.000525212    1.055    0.052
       168 -11.8034    185.5639    203.2474   9.8401680275e+01   7.7070560646e+00    0.2590924      0.12104 -37.07  0.001298352    2.601    0.616
       169 -12.9728    248.5781    197.2087   8.6690222183e+01  -1.9876221559e+00    0.4776579    0.3036088 -29.66  0.003014643    1.745    0.427
       170 -12.5812     40.5038    194.8901   1.2505436052e+02   3.0833976506e+01    0.3106667    0.1268484  89.33  0.001570098    2.753    0.637
       171 -12.4648     16.7288    195.7748   1.2947578906e+02   3.3087609696e+01     0.369881    0.2068577 -69.70  0.002567329    1.826    0.452
       172 -14.1461     20.7152    160.5472   1.2655560465e+02   3.9508631426e+01     2.530747      1.62582 -22.60   0.01378803    3.579    0.721
       173 -12.8020    243.8238    171.4185   8.2724892393e+01   1.6855087774e+00    0.3251814    0.2425694 -56.54   0.00181121    2.385    0.581
       174 -11.6523     49.1613    181.5247   1.2234811966e+02   3.2388800950e+01    0.2501128    0.1858266 -58.49  0.001718049    1.643    0.391
       175 -13.5665     29.9646    169.5000   1.2528832520e+02   3.6822840304e+01    0.4316499    0.2935603 -60.17  0.001342592    1.684    0.406
       176 -13.1712    124.0835    166.9368   1.0477305804e+02   2.4386098241e+01    0.5459992    0.3629433 -72.25  0.002864378    1.849    0.459
