#   1 NUMBER                 Running object number                                     
#   2 MAG_AUTO               Kron-like elliptical aperture magnitude                    [mag]
#   3 X_IMAGE                Object position along x                                    [pixel]
#   4 Y_IMAGE                Object position along y                                    [pixel]
#   5 X_WORLD                Barycenter position along world x axis                     [deg]
#   6 Y_WORLD                Barycenter position along world y axis                     [deg]
#   7 A_WORLD                Profile RMS along major axis (world units)                 [deg]
#   8 B_WORLD                Profile RMS along minor axis (world units)                 [deg]
#   9 THETA_WORLD            Position angle (CCW/world-x)                               [deg]
#  10 FWHM_WORLD             FWHM assuming a gaussian core                              [deg]
#  11 ELONGATION             A_IMAGE/B_IMAGE                                           
#  12 ELLIPTICITY            1 - B_IMAGE/A_IMAGE                                       
         1  -9.8330    239.9630      2.2015   5.2028428139e+01   2.6827043578e+01    0.3499339    0.2066484 -56.20  0.001623392    1.440    0.306
         2 -11.3298    224.8955     23.3006   5.7284708761e+01   2.7553046701e+01    0.7536916     0.522181  68.05  0.004723863    1.412    0.292
         3 -10.9132    228.2790     33.9819   5.9105210110e+01   2.5472057344e+01    0.8754465     0.419564 -68.90  0.004080166    2.353    0.575
         4 -10.5965    220.7160     15.2152   5.6052956736e+01   2.9412107742e+01    0.8415352    0.3841661  73.24  0.004381926    1.908    0.476
         5 -10.0604    231.7984      2.7213   5.2720933795e+01   2.8447701640e+01     0.783489    0.2812708 -76.82  0.002949825    4.256    0.765
         6 -11.3517    248.6700     32.0714   5.6822122721e+01   2.1474323652e+01    0.7743509    0.3851118 -57.56  0.004243493    1.726    0.421
         7 -10.6091    250.0945     18.9477   5.4294978004e+01   2.2851775481e+01    0.5968062     0.170506 -37.51  0.002573038    3.472    0.712
         8 -10.3719    233.0989     10.6115   5.4097674792e+01   2.7306414986e+01    0.3522616    0.2695053  35.13  0.001898243    2.312    0.567
         9 -10.6063    244.4620     22.4604   5.5389152907e+01   2.3554640002e+01    0.4031341    0.3174727  88.38  0.002338546    1.172    0.147
        10 -11.5687    239.2165     17.6318   5.4920608081e+01   2.5218331273e+01    0.8433875    0.5490363 -48.92  0.005419603    1.444    0.307
        11 -10.3263    244.5357     13.8001   5.3790368370e+01   2.4586683727e+01    0.3816707    0.2043987  86.64  0.001882255    1.650    0.394
        12 -11.1991    249.1279      6.7852   5.2198200283e+01   2.4477335172e+01     0.729382    0.2979575 -39.46  0.003941955    2.393    0.582
        13 -10.5188    201.4143     27.8480   6.0709418375e+01   3.2205433626e+01    0.6589429    0.4434229  17.94  0.003012471    3.212    0.689
        14  -8.3495    174.5692     27.7929   6.4134735258e+01   3.8426512519e+01     0.177958    0.1116789 -50.33 0.0009495467    1.672    0.402
        15 -10.0708    147.5207     18.3095   6.5755635136e+01   4.5765476370e+01    0.4344203    0.1316302 -27.05   0.00165345    4.011    0.751
        16  -9.3988    198.0996     10.0589   5.7160686958e+01   3.4971102863e+01    0.3263564    0.1815299 -25.07  0.001738948    2.467    0.595
        17  -9.7131    199.7856     15.1494   5.8092991929e+01   3.4045633209e+01    0.2738872    0.2003137 -83.18 0.0007983232    1.172    0.147
        18  -8.8218    201.8268     11.6473   5.7124767681e+01   3.3967243129e+01    0.2046774    0.2008128 -28.13  0.000829652    1.424    0.298
        19 -10.1269     67.7844     11.3277   8.1757254810e+01   6.3014532202e+01    0.3168496    0.2066807   5.90   0.00157438    1.596    0.373
        20 -10.3681    213.0324      8.3068   5.5356814710e+01   3.1848019838e+01    0.4723216    0.2883236 -45.65  0.002885483    1.634    0.388
        21  -8.7132    193.0015     10.9618   5.7892509181e+01   3.6026669282e+01    0.1503974    0.1186689  86.54 0.0004220187    1.020    0.020
        22  -8.7585     84.3599     10.4543   7.6562255012e+01   6.0065261226e+01    0.1816331    0.1099302 -21.65  0.001067244    1.841    0.457
        23  -8.8157    220.5911      2.8145   5.3616578918e+01   3.0797823608e+01    0.1603578    0.1046886 -46.01 0.0005846717    1.553    0.356
        24  -9.4163    224.0629      5.9270   5.3936316155e+01   2.9727859859e+01    0.2458678    0.2085679 -78.86  0.001605182    1.184    0.155
        25 -10.1500    154.9820      8.2065   6.1901164021e+01   4.5013643625e+01    0.3737278    0.1690462 -35.52  0.001870614    2.443    0.591
        26  -9.5231    206.5242      6.5181   5.5586319596e+01   3.3465020490e+01    0.2542826    0.1761622 -50.96  0.001634835    1.436    0.304
        27  -8.4753    116.6382      6.3217   6.7714643136e+01   5.3785301726e+01    0.1209698   0.08873896 -79.38  0.000704202    1.777    0.437
        28  -8.6182    171.4489      5.4824   5.9069004660e+01   4.1483314433e+01    0.1236616    0.1001755  80.54 0.0001762241    1.005    0.005
        29  -8.7419    111.4031      5.5082   6.8493614492e+01   5.4976822883e+01     0.119328    0.1008338  53.02 0.0001147002    1.040    0.039
        30  -9.9033     63.9998      2.2128   7.9295513814e+01   6.4468430276e+01    0.2214363    0.1779549  37.88 0.0008343854    1.167    0.143
        31  -8.7008    190.2566      2.0545   5.6206588200e+01   3.7534334731e+01    0.1646474    0.1363274  89.26 0.0007007864    1.068    0.064
        32  -8.6906    183.0000      1.9738   5.6939457717e+01   3.9178298650e+01    0.1686362    0.0686619 -29.51 0.0007992475    2.920    0.658
        33  -9.4711    246.2422    210.1938   9.2642853227e+01  -8.1701988873e+00     0.552361    0.2660591 -17.32  0.002073227    3.694    0.729
        34  -9.2633    209.7672    250.1256   1.0654447962e+02  -9.1565934869e+00    0.2635461    0.1552642  26.89  0.001019437    1.554    0.356
        35  -8.4847    160.2498    218.7608   1.1147113374e+02   4.5386032084e+00    0.2286713    0.1116529  28.92 0.0006123828    2.425    0.588
        36 -11.4847    214.7195    213.9450   9.9238502817e+01  -3.9609769772e+00    0.7113392    0.3810515 -40.98  0.003330134    1.834    0.455
        37  -8.4091    109.4646    216.4952   1.2248018332e+02   1.3976779839e+01    0.1426879    0.1273699  66.66 0.0001211845    1.022    0.022
        38 -10.0815    232.3354    212.9192   9.5680450538e+01  -6.5574129329e+00    0.3521191    0.2586774 -48.67  0.001472556    1.582    0.368
        39  -8.8505     62.6924    215.6511   1.3282361599e+02   2.1414706488e+01     0.126446    0.1009563 -40.35 0.0006575763    1.707    0.414
        40  -9.7748    186.4539    213.1250   1.0483664613e+02   9.8417670609e-01    0.3339705    0.2265509 -55.34   0.00127688    1.743    0.426
        41  -9.3688    132.2239    213.8298   1.1689894071e+02   1.0600928791e+01    0.2188707     0.185803  65.47 0.0006074138    1.193    0.162
        42  -9.5672    206.7112    208.6226   9.9830492224e+01  -1.6741645540e+00    0.3347229    0.2319765  71.80  0.001466675    2.820    0.645
        43  -8.5539     85.9868    208.4655   1.2670411557e+02   1.9643081349e+01    0.2100366   0.09711212  56.93 0.0008087985    2.507    0.601
        44  -9.3996    235.9073    203.7949   9.3303319429e+01  -5.5556702159e+00    0.2578235    0.2345881  50.42  0.001345413    1.420    0.296
        45  -9.1815    187.5172    203.4972   1.0281631575e+02   2.6679009773e+00    0.3047745    0.2226698  83.01  0.001328023    2.373    0.579
        46  -9.0619    228.4489    201.7769   9.4300895469e+01  -4.0305411681e+00    0.7235835    0.1932368 -36.97  0.002296786    4.061    0.754
        47  -9.7871    230.9915    194.2956   9.2380444476e+01  -3.1110513253e+00    0.2446772    0.2202975 -44.48 0.0008609691    1.233    0.189
        48  -8.9059    198.4383    202.7334   1.0039176225e+02   8.6413483805e-01    0.2657688    0.1344238 -49.13  0.001125932    2.129    0.530
        49  -9.4235    193.4343    202.5792   1.0139850655e+02   1.7837251418e+00     0.271432    0.2048056 -82.86  0.001280045    2.161    0.537
        50  -9.3455    249.8320    200.7864   9.0245338443e+01  -7.1429929786e+00    0.4142718    0.1766855 -38.32  0.001702663    2.076    0.518
        51 -10.5565    248.0504    193.9790   8.9257804897e+01  -5.7312307607e+00    0.4327526    0.3674377  71.28   0.00259147    1.807    0.446
        52  -9.7170    218.3634    201.5935   9.6189781987e+01  -2.3481565867e+00    0.2345802    0.2170663 -68.03  0.001186756    1.381    0.276
        53  -9.1166    219.4764    215.4977   9.8600279595e+01  -4.9958397279e+00    0.2451795    0.1928381 -30.11  0.001035229    1.208    0.172
        54  -8.7747    160.4475    202.0814   1.0845910316e+02   7.9549743695e+00    0.2181521    0.1444083 -48.98 0.0006680161    1.567    0.362
        55  -9.5313    241.2617    200.1392   9.1636184608e+01  -5.7520805832e+00    0.2991219    0.2288849   9.95  0.001265987    1.355    0.262
        56  -9.4906    164.6798    200.9557   1.0730282524e+02   7.4011563690e+00     0.208082    0.1977031 -41.71  0.001170598    1.086    0.079
        57  -8.4830     16.4714    201.4473   1.4132478475e+02   3.0213623681e+01    0.1240202   0.09751634  88.32 0.0001404986    1.024    0.024
        58  -9.0664    178.4992    203.4934   1.0474403598e+02   4.3114989413e+00    0.1436625    0.1354385   9.03 -5.195958e-05    1.022    0.021
        59  -8.5566      8.3323    218.3151   1.4423961804e+02   2.7228614568e+01    0.1090439   0.08158138 -55.52 0.0004883911    1.684    0.406
        60  -8.4313    203.6351    197.6813   9.8353255801e+01   9.1502263020e-01    0.1494079    0.1061342  -1.68 0.0001775085    1.777    0.437
        61  -9.3447    184.7463    196.4789   1.0205733537e+02   4.5805734753e+00    0.2839275    0.2021623 -45.29  0.001406719    1.420    0.296
        62  -8.9848    176.3905    197.2011   1.0400385876e+02   5.9908985017e+00    0.2078836    0.1388506 -57.81 0.0008968197    1.734    0.423
        63 -10.8794    237.8958    190.0807   9.0297870861e+01  -3.4735910444e+00     0.721294    0.3013041 -45.54  0.003033285    2.337    0.572
        64  -8.1416    162.6653    193.3143   1.0630646404e+02   9.4170745817e+00    0.1517248    0.1179923  77.48 0.0007046477    1.688    0.408
        65  -8.8159    198.4995    191.4943   9.8186117019e+01   3.0455568973e+00     0.142664    0.1345845 -10.44 0.0008106578    1.008    0.008
        66  -8.2120    193.6861    188.2974   9.8547894975e+01   4.5749233528e+00    0.1398766    0.1172792  86.08 0.0007013572    1.604    0.377
        67  -9.8576    230.5852    185.7607   9.0776812907e+01  -1.4978807114e+00    0.3212523    0.2120228 -52.52  0.001617944    1.702    0.412
        68 -10.0338    224.9233    184.9053   9.1658982229e+01  -3.8039547208e-01    0.4584502    0.2128767 -48.61  0.001661986    2.259    0.557
        69  -9.0559    230.5127    180.4701   8.9734366626e+01  -5.1073866037e-01    0.2394221    0.2038874  -9.61 0.0008728369    1.169    0.145
        70  -9.9473    226.5319    179.3969   9.0252056269e+01   3.7346976014e-01       0.3231    0.3003298 -39.97 0.0009059592    1.123    0.109
        71  -9.6388    249.5482    184.5512   8.7177235857e+01  -4.3357346605e+00    0.3800924    0.2133749 -46.75  0.001819813    1.748    0.428
        72  -9.6766    219.0502    184.8638   9.2765729691e+01   6.4595959158e-01    0.3822199    0.2606198 -85.31  0.001500137    3.449    0.710
        73  -8.9590    210.5690    183.4141   9.4125372762e+01   2.4365298845e+00    0.2564498    0.1885416 -32.53  0.001319716    1.312    0.238
        74  -8.9607    203.6245    183.8039   9.5594052969e+01   3.6299546192e+00    0.2070913    0.1312349 -51.56 0.0009500423    1.683    0.406
        75  -8.8284    197.5974    182.2525   9.6511171827e+01   5.0655552152e+00    0.2782553    0.1364375 -48.20 0.0008047328    2.066    0.516
        76 -10.4702    157.8688    179.7702   1.0473308688e+02   1.3345035972e+01    0.5603116    0.3144654 -50.55  0.001785068    1.807    0.447
        77  -8.3851    105.9761    184.0000   1.1811619277e+02   2.2181559246e+01    0.2419457   0.08386405  37.83 0.0005615061    2.896    0.655
        78 -10.2901    242.9512    179.6174   8.7345047863e+01  -2.4209712503e+00     0.468856    0.3734299 -10.66   0.00274056    1.294    0.227
        79  -9.2047    236.0250    180.6449   8.8771452910e+01  -1.4702144215e+00    0.3562675    0.1709526 -43.25  0.001590989    1.903    0.475
        80 -10.0569    233.4570    174.2934   8.7956795941e+01   1.3301569814e-01    0.4937035    0.2406049 -46.86  0.001872355    1.978    0.494
        81  -8.6592    250.5618    179.0625   8.5933528682e+01  -3.5344650637e+00    0.2049124    0.1130266 -39.47  0.001018135    1.570    0.363
        82  -9.3889    219.4827    178.5128   9.1398743100e+01   1.7819309765e+00    0.3523516    0.2103945  58.59     0.001349    2.439    0.590
        83  -8.5971    215.5188    176.5051   9.1748782020e+01   2.8848195257e+00    0.2080573     0.130014 -50.36 0.0005232207    1.652    0.395
        84  -8.1491     64.5287    179.4856   1.2776586859e+02   2.9833638997e+01    0.1426735    0.1243564 -89.47 5.671678e-05    1.023    0.023
        85  -8.5572    151.8774    178.1503   1.0580706593e+02   1.4900849406e+01    0.2095033    0.1814014  11.07  0.000636057    1.326    0.246
        86  -8.4535    197.6094    176.2351   9.5269512304e+01   6.2898098115e+00    0.2132766    0.1334082 -35.26  0.000953494    1.624    0.384
        87  -9.7596    225.5168    172.4178   8.9020707577e+01   1.8730609018e+00    0.4150998    0.2607886 -34.55   0.00175634    1.508    0.337
        88  -8.9048    222.6279    167.8267   8.8609869836e+01   3.2752808465e+00    0.2375226    0.1613607 -64.56  0.001095755    1.998    0.499
        89 -10.3302    212.6169    169.1234   9.0780918567e+01   4.8741064273e+00    0.4870448    0.2527761 -43.97  0.001879081    1.806    0.446
        90  -9.0693    237.4898    169.7139   8.6315342405e+01   2.9221506603e-01    0.2796312    0.1218116 -41.67   0.00115443    2.040    0.510
        91  -8.2336    183.6790    170.7014   9.7049921299e+01   1.0180662073e+01    0.1522061     0.119062  -2.87 0.0002863852    1.622    0.383
        92  -9.2063    169.9607    169.2242   9.9769411173e+01   1.3272761163e+01    0.3397078    0.2084292 -55.60 0.0009825553    1.757    0.431
        93  -8.9993    249.5166    167.5146   8.3826073564e+01  -1.3164629915e+00     0.274818       0.1958 -75.11   0.00130934    2.340    0.573
        94  -9.6771    147.2452    167.9284   1.0480549564e+02   1.8189603383e+01     0.275273    0.2466237  66.22 0.0004603452    1.160    0.138
        95  -9.9777    193.2458    166.1603   9.4050853860e+01   9.2333449928e+00    0.3508204    0.2642964 -41.44  0.001729712    1.277    0.217
        96  -9.1841    234.1984    164.5091   8.5832211064e+01   1.8345631215e+00    0.2646881    0.2030295 -63.10   0.00116186    1.564    0.360
        97  -8.9538    240.4855    163.0608   8.4446882872e+01   1.0100019217e+00    0.2123477    0.1206611 -39.50 0.0007063191    1.552    0.356
        98  -8.1278    246.2790    162.6235   8.3382906524e+01   1.0458760538e-01    0.1354532   0.09922086 -63.50 0.0007008397    1.705    0.413
        99 -10.1866    245.8306    158.3564   8.2595065014e+01   9.6039429127e-01      0.44367    0.2898359  31.53  0.001703344    1.886    0.470
       100  -8.6736     46.7523    162.0140   1.2977205472e+02   3.6467077977e+01    0.1800977    0.1040122 -67.48 0.0004810498    1.517    0.341
       101  -8.5867    236.8376    159.1693   8.4275961347e+01   2.3721837492e+00    0.1922319    0.1523219 -19.90   0.00105595    1.332    0.249
       102  -8.1506     51.6601    159.3107   1.2807286565e+02   3.6551247933e+01    0.1453755   0.09808949  71.98 0.0007045198    1.692    0.409
       103  -9.6514    226.5427    156.9331   8.5620567957e+01   4.6635284179e+00    0.3565066     0.263165  -0.46  0.001208535    1.856    0.461
       104  -9.3583    234.7488    147.6362   8.2239408671e+01   4.9275470279e+00    0.2780766    0.1866492 -49.04 0.0009120576    1.378    0.274
       105  -9.7173    229.7160    148.0544   8.3190106268e+01   5.7838276385e+00    0.4115006    0.2012276 -46.00  0.001074394    1.858    0.462
       106  -9.3595    233.1043    152.5770   8.3553261232e+01   4.2903977269e+00    0.3310715     0.253244 -15.12  0.001280752    1.547    0.354
       107  -9.1378    229.4722    152.4894   8.4167076634e+01   4.9766696179e+00      0.23082    0.2176495  20.48 0.0008145173    1.172    0.147
       108  -8.7999     41.4600    157.5109   1.3051190667e+02   3.8192102134e+01    0.1370282    0.1167119 -71.59 3.514625e-05    1.032    0.031
       109 -11.1571    241.7188    133.4359   7.8134354301e+01   6.3052382161e+00    0.8607864    0.4817434 -49.58   0.00299308    1.627    0.385
       110  -9.6316    250.2369    140.1353   7.8189940224e+01   3.5315762947e+00    0.2844314    0.2593087 -12.24  0.001323559    1.236    0.191
       111 -10.7534    249.0293    133.1760   7.6953907355e+01   5.0157150187e+00    0.6978362    0.2467397 -46.03   0.00271153    2.463    0.594
       112 -10.3236    249.9157    151.0523   8.0455208858e+01   1.5971838431e+00    0.6426478    0.2895122 -48.13  0.002791897    2.064    0.515
       113  -9.9674    242.8190    152.8178   8.1963482074e+01   2.5028950450e+00    0.3356042    0.2885325 -78.04  0.001565172    1.408    0.290
       114 -11.0464    244.2123    148.6855   8.0888545422e+01   3.0230803330e+00    0.5671797    0.3472146 -40.50  0.002042088    1.423    0.297
       115  -9.3382    221.8750    153.0500   8.5643396054e+01   6.2972812553e+00    0.3249064    0.2171744 -51.56  0.001013702    1.473    0.321
       116 -10.0585    197.1170    149.6974   8.9665607901e+01   1.1901090798e+01    0.3834431    0.2082755 -50.11  0.001122635    1.832    0.454
       117  -8.2518    182.2781    150.3312   9.2903969131e+01   1.4866678935e+01    0.1533353    0.1218052 -10.39 0.0003421334    1.602    0.376
       118  -8.1224     35.5125    150.4835   1.3108260330e+02   4.0567584737e+01    0.1353634    0.1145202 -75.32 0.0001254819    1.019    0.019
       119  -8.8942    192.0000    148.9600   9.0546594149e+01   1.3118203539e+01    0.2573449   0.08353741 -44.26 0.0008019214    2.939    0.660
       120  -9.9490    224.0839    146.3036   8.3806793935e+01   7.1938507123e+00    0.3515566    0.3097871 -26.99  0.001253652    1.147    0.128
       121  -9.5010    206.8686    147.1043   8.7167359735e+01   1.0440682680e+01    0.3353343    0.2354998 -17.24  0.001503881    1.914    0.478
       122  -9.0407    111.8348    147.3080   1.0941450012e+02   3.0138328298e+01    0.2807776    0.2104916 -66.59  0.001302046    1.398    0.285
       123  -9.0870    217.3174    147.5471   8.5296890607e+01   8.2652043861e+00    0.3427697    0.1437955  45.07  0.001309842    2.611    0.617
       124  -9.0239     17.0032    146.9978   1.3555775780e+02   4.3131443326e+01    0.1595957    0.1286393 -73.25  0.001006879    1.005    0.005
       125 -10.2474    230.4822    141.1110   8.1587586260e+01   6.9721562147e+00    0.3804526    0.2550289 -51.37  0.001135118    1.411    0.291
       126  -8.9491    155.3354    142.3408   9.7179841716e+01   2.2419827317e+01    0.1632434     0.127803  -4.86 6.862316e-07    1.757    0.431
       127  -8.8835      9.3464    141.7029   1.3692549033e+02   4.4995294391e+01    0.1259136   0.08333311  70.71 0.0007034421    1.675    0.403
       128 -10.2233    225.1512    138.5186   8.1948403530e+01   8.5016645718e+00    0.4581735    0.2161107 -39.00  0.001606073    2.002    0.501
       129  -9.3503    219.4013    138.9458   8.3052689931e+01   9.5536618108e+00    0.2702653    0.2053542  73.48  0.001191623    1.644    0.392
       130  -8.8028    209.5847    137.7397   8.4580520747e+01   1.1783347663e+01    0.2192563     0.130231 -52.67 0.0009502123    1.690    0.408
       131 -10.3016    232.9267    134.8011   7.9837523374e+01   7.7087713547e+00    0.3517994    0.3382863 -77.25   0.00214611    1.116    0.104
       132  -8.8774    164.6683    136.2902   9.3575616338e+01   2.1749136047e+01    0.1596605    0.1242039  88.90  0.000451158    1.627    0.385
       133  -9.0514     52.9470    135.8419   1.2376214572e+02   4.2229528103e+01    0.2139126    0.1725849 -37.46 0.0006483789    1.304    0.233
       134  -9.1312    169.8069    134.4664   9.1980444556e+01   2.1020885326e+01    0.2402613     0.210614 -17.30 0.0005233721    1.309    0.236
       135  -9.4155     86.6333    129.8123   1.1260932450e+02   3.8882427281e+01    0.3649279    0.2286748 -86.42  0.001385438    2.714    0.632
       136  -9.1705    221.4037    129.3854   8.0613130130e+01   1.1020621611e+01    0.2559276    0.2163205 -69.71 0.0008303231    1.226    0.184
       137  -9.5716    215.9999    135.4878   8.2905529282e+01   1.0920571387e+01    0.2094162    0.1464037  51.10 0.0007854473    1.559    0.358
       138  -9.4792    192.8670    128.0605   8.5601227582e+01   1.7308972157e+01    0.2416094    0.2045801 -76.83  0.000807307    1.275    0.216
       139  -9.8447    228.7927    125.2584   7.8474150508e+01   1.0329227408e+01    0.4087251    0.2857921 -29.10  0.002034387    1.598    0.374
       140 -10.3357    206.1611    126.7139   8.2740949943e+01   1.4714181208e+01    0.3050997    0.2629403 -88.05 0.0006283208    1.262    0.208
       141 -10.0962    212.1949    124.7556   8.1201994903e+01   1.3825934688e+01    0.4707979    0.3927065  13.51  0.002441031    1.584    0.369
       142  -9.5292    250.0495    124.9354   7.5116403303e+01   6.3269394163e+00    0.3892548    0.2534643 -26.95  0.001947615    1.833    0.455
       143 -10.0328    227.3762     73.8888   6.7558769874e+01   1.9787863259e+01    0.5364616    0.3762551  44.38  0.002460994    1.877    0.467
       144 -10.7338    249.1880     66.3320   6.3365751880e+01   1.6458845807e+01     1.002472     0.374015 -50.38  0.004018821    2.330    0.571
       145 -10.7007    242.2999    123.0287   7.5874417385e+01   8.1182949922e+00    0.7058665    0.4539335 -26.95  0.003418024    1.895    0.472
       146 -10.4760    236.0681    100.1145   7.1966351794e+01   1.3490202071e+01    0.7739893    0.3081492 -43.49  0.003171478    2.202    0.546
       147 -10.2433    225.6448     86.5113   7.0528640642e+01   1.8044178578e+01    0.4759093     0.387884 -23.46  0.002507371    1.587    0.370
       148 -10.5329    240.3888     67.1704   6.4533601532e+01   1.8117585580e+01    0.7022342    0.3934985 -61.79  0.003554017    1.728    0.421
       149  -9.7315    236.2893     60.1203   6.3567744709e+01   2.0059276626e+01    0.4680173    0.2001895  67.31  0.002050759    2.411    0.585
       150 -10.5195    242.0221    104.7082   7.2088679231e+01   1.1484750239e+01     0.779173     0.268431 -45.92  0.003005889    2.502    0.600
       151 -10.3315    237.0749     89.7470   6.9634961327e+01   1.5093632848e+01    0.4384849    0.3538127 -87.19  0.002188003    1.232    0.188
       152  -9.9467    231.8702     83.2470   6.8961262078e+01   1.7280104547e+01    0.5361847    0.2881326 -59.66  0.002465961    1.927    0.481
       153  -9.8562    237.7253     84.0792   6.8358873005e+01   1.5922148710e+01     0.483318    0.2576196 -60.66  0.002107691    1.968    0.492
       154  -9.9496    243.1784     93.0566   6.9508663342e+01   1.3291295178e+01    0.3464101    0.2355054  56.98  0.001097323    1.649    0.394
       155 -12.0499    247.7322    107.9730   7.1967933162e+01   9.7979207973e+00     1.482774    0.5224823 -37.09  0.005474895    2.971    0.663
       156  -9.9791    245.1476     97.7626   7.0218197498e+01   1.2088957028e+01    0.4246848    0.1828602 -46.99   0.00138969    1.993    0.498
       157 -11.9703    245.6884     81.3621   6.6788317865e+01   1.4757205859e+01      1.21703    0.6310019 -57.67  0.005841692    1.856    0.461
       158 -10.7484    235.3679     73.6500   6.6479836804e+01   1.8131167148e+01    0.8281791     0.241037 -45.36  0.003084458    2.934    0.659
       159  -9.0872    189.0371    123.0181   8.5184226696e+01   1.9189876097e+01    0.3989065    0.2152357 -43.13  0.001632796    1.782    0.439
       160  -8.5093    177.2596    123.9940   8.7850532463e+01   2.1613969937e+01     0.203746    0.1307477 -44.92  0.000877525    1.512    0.339
       161  -9.1622    161.4327    124.2154   9.1407284995e+01   2.5117450605e+01    0.2614097    0.2200868  52.80 0.0005758912    1.205    0.170
       162  -9.2646    221.7435    120.9935   7.8712951542e+01   1.2569111324e+01    0.2358057     0.213849  66.71  0.000742742    1.189    0.159
       163 -11.6567    214.2195    115.8215   7.8839336012e+01   1.5135686387e+01    0.9530174    0.4569503  40.88  0.003422134    2.735    0.634
       164  -8.4748    124.8343    119.8343   9.9413764721e+01   3.4064900023e+01    0.2072767    0.1812927 -86.69 0.0003045397    1.281    0.220
       165  -8.1389    114.7037    120.6600   1.0238255055e+02   3.5934390568e+01    0.1575096     0.122253 -13.93 0.0003257348    1.659    0.397
       166  -9.4025    235.4915    116.4551   7.5525487896e+01   1.0647188157e+01    0.3155685    0.2102985 -49.85 0.0009507136    1.328    0.247
       167 -10.8004    230.5777    115.9345   7.6176177321e+01   1.1724461108e+01     0.632985     0.447293  59.75  0.003317556    1.567    0.362
       168  -8.8115    203.5859    115.6672   8.0684737243e+01   1.7459276930e+01    0.2800573    0.1390407 -38.38  0.001111333    2.031    0.508
       169  -8.8497     52.0449    113.2730   1.1951434745e+02   4.7765308362e+01    0.1869127    0.1759575 -44.80 0.0008374071    1.064    0.061
       170  -9.8229    104.5142    111.7991   1.0301081037e+02   3.9927850431e+01    0.2620545    0.2099447  37.89 0.0003865382    1.284    0.221
       171  -9.2262     15.0116    111.9785   1.3100553145e+02   5.1580316296e+01    0.1917768    0.1565288 -60.24 0.0004518778    1.024    0.023
       172  -9.6038    183.2429    108.0291   8.2743951588e+01   2.3528051501e+01    0.3564901    0.1926599 -48.38  0.001384608    1.815    0.449
       173 -10.2891    214.6904    107.3202   7.6844318155e+01   1.6651094510e+01    0.4930213    0.3006423  81.83    0.0020463    2.450    0.592
       174  -8.4864     73.5443    108.5025   1.1156301331e+02   4.5964590224e+01    0.1426269    0.1325356 -44.16 0.0008088554    1.027    0.026
       175 -10.8118    221.9372    101.2754   7.4326238068e+01   1.6218480053e+01    0.4688104    0.2171665 -53.89  0.001882138    2.243    0.554
       176  -8.5252    230.9552    102.9757   7.3323882850e+01   1.4023362686e+01    0.1721613    0.1480018 -58.55 0.0009945889    1.018    0.018
       177  -8.5173    195.9790    103.2234   7.9156264483e+01   2.1564702025e+01    0.1913832    0.1213354  56.46 0.0006007807    1.625    0.385
       178  -9.7765    235.7469    107.8561   7.3657631579e+01   1.2167708516e+01    0.3644073     0.192158  61.19  0.001656133    2.186    0.543
       179  -8.9973    161.0000     99.9516   8.5374847625e+01   3.0267446647e+01    0.2529275   0.08643958 -41.88  0.000800721    2.931    0.659
       180  -8.3545     70.6945    100.3179   1.1040679054e+02   4.8223577361e+01    0.1361025    0.1120886  82.92 0.0005426846    1.630    0.386
       181  -9.9083    130.3057     97.9056   9.2183798372e+01   3.7625251264e+01    0.2714794    0.2221828  39.30 0.0006300862    1.240    0.193
       182 -10.1398    230.7165     93.9286   7.1410094307e+01   1.5683003659e+01    0.4336626    0.3141875 -41.85  0.001760813    1.327    0.246
       183  -9.4258    224.7145     93.9942   7.2299787538e+01   1.6935926604e+01    0.3820889    0.1631302 -34.73  0.001453282    2.708    0.631
       184  -9.8618    216.0634     88.5498   7.2393439682e+01   1.9767159793e+01    0.3883953    0.3299419  -4.68  0.002109675    1.690    0.408
       185  -8.8465    194.1245     89.2287   7.6140609783e+01   2.4591693336e+01    0.3058921    0.1736102 -63.65  0.001240349    2.216    0.549
       186  -9.5657    176.4819     87.4922   7.8964137953e+01   2.9017592652e+01    0.2666617    0.1919811 -77.46 0.0007914676    1.668    0.401
       187  -8.5840    205.7832     83.5472   7.2851538948e+01   2.2934240594e+01    0.1921192    0.1311658  78.16 0.0006148376    1.595    0.373
       188  -8.6638    134.7308     83.3576   8.7015272577e+01   3.9475829055e+01    0.1498802    0.1158648 -75.38 0.0006994693    1.640    0.390
       189  -8.5982     88.1395     82.1806   9.9755272737e+01   4.9168095036e+01     0.183048    0.1689542 -75.64  0.000428282    1.315    0.240
       190  -8.4713     21.3096     81.7005   1.2285249130e+02   5.7792832273e+01    0.1103447   0.09427509  77.71 0.0003396301    1.599    0.375
       191  -8.5318    196.3313     79.6384   7.3464153874e+01   2.5772216890e+01     0.156755    0.1030016 -73.31 0.0007039595    1.804    0.446
       192  -9.4337    175.8573     77.5707   7.6559731101e+01   3.0924378321e+01     0.306508     0.177066 -56.51  0.001315203    1.937    0.484
       193  -9.5451    119.1840     78.5875   8.9636888276e+01   4.3758732816e+01    0.2153433    0.1317671  37.22 0.0009535389    1.705    0.413
       194 -10.0477    214.4106     75.5927   6.9725240140e+01   2.2346549979e+01    0.3026135    0.2809966  56.18  0.001830203    1.281    0.219
       195  -8.4515    194.4739     76.5127   7.3022053352e+01   2.6735229906e+01    0.1429258    0.1305145 -82.43 0.0008098544    1.024    0.024
       196  -8.6546    126.4920     76.4869   8.7111768834e+01   4.2554030181e+01    0.1444601    0.1395451  47.55 3.187771e-05    1.016    0.016
       197  -8.2063    134.3350     73.3514   8.4256367646e+01   4.1354205084e+01    0.1523865    0.1134955  15.43 0.0007046089    1.786    0.440
       198  -9.1432    201.5789     72.2327   7.0871227563e+01   2.5807284428e+01    0.4156344    0.1894635  75.69   0.00144817    3.360    0.702
       199 -10.8831    225.9141     66.6236   6.6189730055e+01   2.1267824501e+01    0.5337633    0.3725632 -88.98  0.002063749    1.444    0.308
       200  -8.9086    221.0357     60.8780   6.5574000718e+01   2.3226624945e+01    0.2378452    0.1706933 -53.11 0.0007692639    1.270    0.213
       201  -9.0460    210.9889     66.5093   6.8166340635e+01   2.4588246248e+01    0.2766674    0.1674422 -58.87  0.001353584    1.635    0.388
       202  -8.3043    153.6780     66.3118   7.7940312603e+01   3.8052318936e+01    0.1477673    0.1095389 -80.17 0.0002938964    1.652    0.395
       203  -8.6311    198.1470     63.8289   6.9418513351e+01   2.7948987302e+01    0.1803339    0.1682018  39.45  0.000780436    1.337    0.252
       204  -9.6304    227.1023     60.8872   6.4817965638e+01   2.1901404729e+01    0.3545085    0.1439122 -50.50  0.001516625    2.283    0.562
       205  -9.6013    206.9751     60.3272   6.7325588449e+01   2.6462354896e+01    0.3764963    0.1622883 -50.23  0.001579026    2.282    0.562
       206  -9.9239    135.3351     60.5650   8.0303869461e+01   4.3219548076e+01    0.4869511    0.2178382 -54.42  0.001675191    3.567    0.720
       207  -9.8357    171.5441     59.0589   7.2581192508e+01   3.4950759821e+01    0.3470277    0.2144786  52.50  0.001398919    1.571    0.363
       208  -8.4476    126.5147     58.4563   8.1754603016e+01   4.5532018221e+01    0.1394032    0.1302767  53.41 0.0001248574    1.036    0.035
       209  -9.5861    213.9424     57.0639   6.5652943772e+01   2.5381912389e+01    0.3268485    0.1771826  56.68  0.001587973    1.889    0.471
       210  -9.1538    202.2256     57.4232   6.7325664747e+01   2.7990937273e+01    0.1928304     0.121207  78.77 0.0009513982    1.620    0.383
       211  -9.6320    250.2488     54.7706   6.0991937842e+01   1.7993062564e+01    0.2963637    0.1542127 -45.43  0.001463631    1.680    0.405
       212 -11.3281    214.7710     30.5732   5.9808142246e+01   2.8863544647e+01    0.8120445    0.3033051  67.51  0.003614461    2.403    0.584
       213  -9.4006    233.9665    247.6300   1.0154634784e+02  -1.2217886620e+01    0.2837792    0.1925043  52.08  0.001576178    2.365    0.577
       214  -8.9753    176.5789    248.0151   1.1281031387e+02  -3.6675511475e+00    0.2025979    0.1390705  34.03  0.001130737    1.281    0.219
       215  -8.9352    249.2234    246.7763   9.8635502694e+01  -1.4101136193e+01    0.1620634    0.1115147  -1.32 0.0005234717    1.311    0.237
       216 -10.3845    234.3634     31.7516   5.8063601818e+01   2.4467952142e+01     0.651613    0.2733019  58.68  0.003139942    2.491    0.599
       217  -9.2756    186.9942    247.0453   1.1054627863e+02  -5.1736295731e+00    0.1985127    0.1736677  22.55 0.0006156863    1.037    0.036
       218 -10.8609    228.7546     51.9194   6.2737620478e+01   2.2884519644e+01    0.4296755    0.4144011  27.09  0.002078176    1.493    0.330
       219 -10.0016    238.4371     38.1897   5.8936375348e+01   2.2758598118e+01    0.3322344    0.2324274  82.18  0.001423399    1.294    0.227
       220  -9.8403    242.1613     33.9317   5.7757060627e+01   2.2555799557e+01    0.3340662    0.2246503 -64.99  0.001891658    1.232    0.188
       221  -9.5747    191.6808    245.0542   1.0928188426e+02  -5.5867343343e+00     0.300882     0.160879  28.36  0.001465614    1.820    0.450
       222 -10.4844    244.4744     51.3382   6.0913523175e+01   1.9664712103e+01    0.4332506    0.2490159 -73.15  0.001671979    1.765    0.433
       223 -10.3326    249.9041     46.5822   5.9451080690e+01   1.9244846710e+01    0.5570534    0.2076514 -38.92  0.002511295    2.608    0.617
       224 -10.9387    244.3881     41.9832   5.9098508382e+01   2.1008360791e+01    0.4435014    0.2955092 -50.45  0.001750507    1.341    0.254
       225  -9.4404    202.3768    242.1254   1.0666505276e+02  -6.7805456658e+00    0.2514328    0.1725524  37.15  0.001394625    1.385    0.278
       226  -9.1951    246.6772    240.8647   9.8076000754e+01  -1.2938446855e+01    0.1936304    0.1745844 -15.49 0.0006458097    1.314    0.239
       227  -8.9269    243.9004    236.9138   9.7888744983e+01  -1.1995802108e+01    0.1727651    0.1559542 -21.44 0.0009886544    1.318    0.241
       228  -9.7821    239.9855    240.2531   9.9179704767e+01  -1.1959762233e+01    0.2595856    0.2182755  43.59  0.001267881    1.617    0.381
       229  -9.4498    215.0150    240.4632   1.0391024020e+02  -8.4368916445e+00    0.2422166    0.1833394 -32.47  0.001013229    1.346    0.257
       230  -9.9969    225.0652    242.8443   1.0239577007e+02  -1.0272071323e+01    0.3196588    0.3100398 -28.09  0.002246587    1.414    0.293
       231  -9.9657    230.9303    236.7116   1.0023550020e+02  -1.0174016460e+01    0.2950959     0.181768 -39.23  0.001051478    1.659    0.397
       232  -9.9290    199.4427     46.3093   6.5141461991e+01   3.0244580582e+01    0.3661115    0.2099817 -34.22  0.001812453    1.963    0.491
       233 -10.6638    201.3146     53.0245   6.6436525440e+01   2.8853285923e+01    0.4511629    0.2825622  35.01  0.002045221    2.640    0.621
       234  -9.3786    197.5252     51.4919   6.6609444902e+01   2.9951806995e+01    0.2849223    0.1993804 -72.93  0.001522802    1.443    0.307
       235  -8.2980     43.7197     62.3449   1.0914174349e+02   5.9432718348e+01    0.1113056    0.1008363 -83.01 0.0005677621    1.635    0.388
       236  -8.8446    207.7481     53.7398   6.5726192570e+01   2.7275488422e+01    0.1839385    0.1333033 -68.68 0.0003933135    1.304    0.233
       237  -8.6975    221.8099     53.1331   6.3809898663e+01   2.4218389815e+01    0.1654572    0.1488991  68.07 0.0006788901    1.290    0.225
       238  -9.1816    163.4307     52.7715   7.2378494109e+01   3.7809607405e+01    0.2573301    0.1289318 -40.95  0.001134785    2.075    0.518
       239  -8.4705    152.6888     53.3128   7.4548119396e+01   4.0272958301e+01    0.1419571    0.1045458 -78.36 0.0007029892    1.631    0.387
       240  -9.5631    233.6001     44.4576   6.0674801756e+01   2.2914304596e+01    0.3748524    0.3050204 -65.77  0.002437861    1.093    0.085
       241  -9.0322    238.3568     45.1276   6.0314887657e+01   2.1818282723e+01    0.2390061    0.1641809  71.48 0.0009303116    1.422    0.297
       242 -10.0035    219.3922     42.7331   6.1875591496e+01   2.6231490165e+01      0.42283    0.3076171  70.63   0.00252896    1.310    0.236
       243  -9.9959    216.1989     40.9968   6.1871358406e+01   2.7176903077e+01    0.5189168    0.3353733 -15.44  0.002489951    2.857    0.650
       244  -8.5654    158.4775     61.4600   7.5648345679e+01   3.7685315276e+01    0.1428659    0.1304221  79.44 5.624395e-05    1.033    0.032
       245 -10.4494    190.1744     42.2143   6.5450770258e+01   3.2957856562e+01    0.4349874    0.3381337  18.42  0.002357812    2.025    0.506
       246 -10.4921    185.6278     37.6584   6.4994786437e+01   3.4621610264e+01    0.4868403     0.205275 -43.56  0.002148901    2.368    0.578
       247  -8.3345     76.7819     43.9841   9.1059342817e+01   5.7604523595e+01    0.1611487    0.1001337 -31.69  0.000860396    1.641    0.391
       248  -8.6329    183.6271     43.2760   6.6646030286e+01   3.4349427907e+01    0.1687367    0.1312812 -25.18 0.0009402721    1.617    0.381
       249 -10.6625    206.0657    235.8190   1.0486439713e+02  -6.3216846252e+00    0.4190848    0.3974533  56.39  0.002164522    1.380    0.276
       250 -10.6275    201.0115     38.8799   6.3236718857e+01   3.0894161771e+01    0.3796141    0.2407654 -31.80  0.001452963    1.878    0.467
       251  -9.3599    209.0721     39.2802   6.2335563538e+01   2.9006064012e+01     0.231296    0.1691192 -57.23 0.0005997894    1.277    0.217
       252  -8.7707    165.5522     39.6822   6.8550718536e+01   3.9092739212e+01    0.2205425    0.1372025 -28.47 0.0009703508    1.925    0.480
       253  -8.7799     61.4557     38.0484   9.4180625954e+01   6.0944488259e+01     0.180991    0.1130837 -32.50  0.001029801    1.597    0.374
       254  -9.1557    173.5057     39.9760   6.7354921481e+01   3.7174113969e+01    0.1914497    0.1297602 -40.69 0.0009637557    1.575    0.365
       255  -8.8536    190.5042     33.9553   6.3452745705e+01   3.3957084539e+01    0.1824815    0.1263081 -39.70 0.0008905678    1.561    0.359
       256  -8.1792    164.0000     32.9734   6.7044034396e+01   4.0295773555e+01    0.1945648   0.07619989 -31.98 0.0007935753    2.881    0.653
       257  -8.8447    170.3881     29.7271   6.5225740037e+01   3.9180366477e+01    0.1607374    0.1300577 -17.01 0.0009461874    1.612    0.380
       258  -9.7541    204.1810     31.5816   6.1215465937e+01   3.1113858377e+01    0.2736937    0.2249463  70.85  0.001438613    1.203    0.169
       259 -10.0009    219.6517    235.6076   1.0217933003e+02  -8.3601988532e+00    0.3404862    0.2195448  36.47  0.001916243    1.526    0.345
       260  -9.2377    118.5164     25.0596   7.3252908792e+01   5.1621995507e+01    0.1755219    0.1273488 -28.19 0.0006359681    1.570    0.363
       261 -10.4871    236.4158     53.6734   6.2238290459e+01   2.0996330958e+01    0.6589677    0.2771808  68.21    0.0030087    2.404    0.584
       262  -9.2183    199.6258     20.4977   5.9283721538e+01   3.3481404587e+01    0.1891223    0.1152481 -38.26 0.0006756941    1.780    0.438
       263  -9.8991    143.0020     24.9355   6.8383328333e+01   4.6117446749e+01    0.3915874    0.2110064  75.37  0.001835015    2.046    0.511
       264  -8.3464    248.5126    234.5039   9.6639268284e+01  -1.2255415714e+01    0.1208195   0.09954873  -6.45 4.608325e-06    1.050    0.048
       265  -9.6250    238.0506    231.4017   9.7983214948e+01  -1.0364642330e+01     0.417659    0.2747681  59.85  0.001983939    3.280    0.695
       266  -8.7457    244.6042    231.7558   9.6854664833e+01  -1.1322724774e+01    0.1565246    0.1072275 -41.30 0.0005187262    1.584    0.369
       267  -9.2010    215.7506    231.1282   1.0214822797e+02  -7.0476390397e+00    0.2699458    0.1391392 -30.16  0.001279873    2.086    0.521
       268  -8.5416    187.2170     16.4600   5.9786239420e+01   3.6762560394e+01    0.1676476    0.1029097  85.63 0.0003627462    1.499    0.333
       269  -9.2197    162.6239     15.1105   6.2615745273e+01   4.2589509408e+01    0.1955512    0.1455811 -62.57   0.00118216    1.431    0.301
       270  -8.2301    173.2886     14.3499   6.0993685847e+01   4.0195522430e+01    0.1224227    0.0878253  42.09 0.0007024909    1.664    0.399
       271  -8.8572    207.7740     13.2655   5.6876526590e+01   3.2466588466e+01    0.1553623    0.1242828  66.16 0.0004998088    1.319    0.242
       272  -9.2396    224.2389    225.4795   9.9508032022e+01  -7.4139458049e+00    0.2378517     0.196924 -26.54  0.001487795    1.172    0.147
       273 -10.7915    229.4124    226.2763   9.8672231578e+01  -8.3163053401e+00    0.6291126    0.2501955 -42.39  0.002543209    2.522    0.603
       274  -9.9697    227.4277    219.2657   9.7773996775e+01  -6.8715489672e+00    0.3823807    0.2056363 -26.85  0.001784881    1.993    0.498
       275  -9.4214    248.1679    227.0746   9.5382994301e+01  -1.1098678031e+01    0.2778475    0.1822761 -26.62 0.0009735088    1.355    0.262
       276 -11.0178    239.2011    220.7312   9.5854073314e+01  -8.8556533174e+00    0.5880796    0.4582963 -73.35   0.00318818    2.491    0.599
       277  -9.0748    199.0303    227.4987   1.0482332026e+02  -3.7841223443e+00    0.3058946    0.1446958 -55.71  0.001186487    3.347    0.701
       278  -8.3865    163.6937    228.3910   1.1234714762e+02   2.0397409718e+00    0.1398386    0.1072945  76.37 0.0003336731    1.816    0.449
       279 -10.7173    209.3506    224.5468   1.0223336380e+02  -4.9411516978e+00    0.4839536    0.4200461  59.54  0.002911212    1.539    0.350
       280 -10.1320    216.9773    222.2281   1.0031852625e+02  -5.7535393491e+00    0.2547822    0.1743148 -26.23  0.001398108    1.442    0.306
       281  -9.3166     99.1601    225.9393   1.2609205906e+02   1.3595708395e+01    0.2189806    0.1658534  70.99  0.000943563    1.303    0.232
       282  -9.6839    193.9371    219.5137   1.0444011221e+02  -1.5065747999e+00    0.3415124    0.2567871  45.00  0.001865388    1.400    0.286
       283  -8.7301     48.6382    219.7797   1.3626664169e+02   2.2349653955e+01    0.1776549    0.1058509 -84.88  0.000445617    1.581    0.367
       284 -10.7605    247.5503    215.8561   9.3457961294e+01  -9.2685614082e+00    0.5489325    0.2970286 -37.95  0.002909968    1.688    0.408
