#   1 NUMBER                 Running object number                                     
#   2 MAG_AUTO               Kron-like elliptical aperture magnitude                    [mag]
#   3 X_IMAGE                Object position along x                                    [pixel]
#   4 Y_IMAGE                Object position along y                                    [pixel]
#   5 X_WORLD                Barycenter position along world x axis                     [deg]
#   6 Y_WORLD                Barycenter position along world y axis                     [deg]
#   7 A_WORLD                Profile RMS along major axis (world units)                 [deg]
#   8 B_WORLD                Profile RMS along minor axis (world units)                 [deg]
#   9 THETA_WORLD            Position angle (CCW/world-x)                               [deg]
#  10 FWHM_WORLD             FWHM assuming a gaussian core                              [deg]
#  11 ELONGATION             A_IMAGE/B_IMAGE                                           
#  12 ELLIPTICITY            1 - B_IMAGE/A_IMAGE                                       
         1 -16.0075     29.3220    190.5447   1.2806337807e+02   3.2869571255e+01     5.693989     2.347234  86.42   0.03119488    2.369    0.578
         2 -13.0177      2.2400     63.7652   1.2272035577e+02   6.1987869944e+01     1.645735    0.3086586 -73.41  0.005550488    4.554    0.780
         3 -15.0382      7.0765     18.6771   1.0994190985e+02   7.1285804066e+01     3.223017      1.70014 -49.38   0.01605168    1.386    0.279
         4 -13.0456    214.3579     17.2560   5.0967497340e+01   2.9007966713e+01     1.059353    0.5878104  -6.05  0.003751681    2.339    0.572
         5 -13.1324    208.0500     20.8154   5.2719410570e+01   3.0249176624e+01     1.139205    0.6780888   1.65  0.004769809    2.306    0.566
         6 -11.6394    134.8564      6.6038   5.8405521923e+01   5.1126379524e+01    0.3273236    0.2568181 -58.03  0.001700692    1.470    0.320
         7 -13.1301    191.4385     49.5248   6.3816683626e+01   3.0933578780e+01    0.8944855    0.6458248  22.51   0.00408881    1.695    0.410
         8 -10.6345    233.5576      1.4847   4.4798733632e+01   2.5781627308e+01    0.4048687    0.1283783  74.66  0.001474059    3.185    0.686
         9 -13.7013     10.6447    206.5375   1.3212677707e+02   3.1818911042e+01    0.7449695      0.73626 -64.12  0.004766732    1.790    0.441
        10 -12.2306    246.7504    248.0386   9.7219588231e+01  -6.2077416908e+00    0.5360522    0.2319109  33.82  0.003385598    1.698    0.411
        11 -14.1580    113.7077    229.9982   1.1631186834e+02   1.5482795501e+01     3.748412    0.6098432  44.76    0.0138474    4.236    0.764
        12 -14.6232     18.1864    196.7604   1.3039614211e+02   3.2838068625e+01     1.492469     1.091808  71.63   0.01214658    1.075    0.070
        13 -10.8924     76.5678    172.1090   1.1725755955e+02   3.0783143641e+01    0.2108763     0.178362  76.09 0.0004167077    1.067    0.062
        14 -11.9771     84.0891    164.0189   1.1470723123e+02   3.1338908210e+01    0.6390735    0.4112249  59.55  0.002721582    1.421    0.296
        15 -12.8282     68.1097    145.6824   1.1588742195e+02   3.7377619690e+01    0.9678556    0.5210457 -86.33  0.004754499    2.110    0.526
        16  -9.5968     97.5568    148.6569   1.0956573693e+02   3.2448372648e+01    0.2270357    0.2003495  59.70 0.0008302832    1.116    0.104
        17 -11.9227     85.8969    147.4930   1.1204600307e+02   3.4487907010e+01    0.2473904    0.2150201 -62.23 0.0004159723    1.259    0.206
        18  -8.8415    100.6134    144.7011   1.0823397568e+02   3.2781987906e+01    0.1262902    0.1069382  -8.04 0.0007016432    1.782    0.439
        19  -9.2139    109.2272    134.9427   1.0452358924e+02   3.3385799450e+01     0.216045    0.1559235 -28.50  0.001063723    2.045    0.511
        20 -13.7163     31.7786    223.4905   1.2945211402e+02   2.6851270766e+01     1.297771    0.7512231 -49.48  0.002791499    3.499    0.714
        21 -10.2502     96.4010    131.7624   1.0700755460e+02   3.6221280426e+01    0.2281825    0.2122702 -15.50 0.0003669213    1.408    0.290
        22  -9.2395    106.5720    122.2989   1.0270813242e+02   3.6549940773e+01    0.1733405    0.1287288 -48.38 0.0003102335    1.392    0.282
        23 -12.7785     27.1685    110.1722   1.2151061770e+02   4.9811631913e+01    0.8341067    0.6220186  63.05  0.005573717    1.343    0.255
        24 -13.4915     49.0923    103.5493   1.1446332041e+02   4.9124020540e+01     2.412877     1.212479  83.73  0.009821586    3.187    0.686
        25 -11.1647    168.0977    112.9344   8.6331675412e+01   2.5969306108e+01    0.3938903     0.313164 -83.99  0.001106923    1.632    0.387
        26 -10.9025    149.2004     87.4045   8.3703321486e+01   3.5085241222e+01    0.2201913    0.1472513  63.18 0.0009573536    1.710    0.415
        27  -9.4970      1.6596    247.9966   1.3489537844e+02   2.5985485117e+01    0.1277308   0.07690551  73.49  0.000800164    1.161    0.139
        28 -13.7958    124.2987    247.2328   1.1616876816e+02   1.1576319512e+01     3.476318    0.4731244  43.39    0.0122548    4.975    0.799
        29 -12.1637    146.2367     28.9352   6.4936681989e+01   4.5599695240e+01    0.6747071    0.3817706 -47.96  0.002796875    1.994    0.498
        30 -11.5406     66.5502    183.4199   1.2044718893e+02   2.9918597689e+01    0.2278098    0.2042992 -72.51 0.0008553409    1.390    0.281
        31 -13.2255     63.3417    169.2948   1.1969479817e+02   3.3091798996e+01    0.5669955    0.3918939 -35.72  0.001632033    2.618    0.618
        32 -12.2965     60.4951    189.9973   1.2220951838e+02   2.9442603066e+01     0.660695    0.5309049 -49.01  0.001749538    1.839    0.456
        33 -14.3012     41.3355    179.1116   1.2501076440e+02   3.3761371781e+01     1.472282    0.8487281  77.12  0.008734306    1.499    0.333
