#   1 NUMBER                 Running object number                                     
#   2 MAG_AUTO               Kron-like elliptical aperture magnitude                    [mag]
#   3 X_IMAGE                Object position along x                                    [pixel]
#   4 Y_IMAGE                Object position along y                                    [pixel]
#   5 X_WORLD                Barycenter position along world x axis                     [deg]
#   6 Y_WORLD                Barycenter position along world y axis                     [deg]
#   7 A_WORLD                Profile RMS along major axis (world units)                 [deg]
#   8 B_WORLD                Profile RMS along minor axis (world units)                 [deg]
#   9 THETA_WORLD            Position angle (CCW/world-x)                               [deg]
#  10 FWHM_WORLD             FWHM assuming a gaussian core                              [deg]
#  11 ELONGATION             A_IMAGE/B_IMAGE                                           
#  12 ELLIPTICITY            1 - B_IMAGE/A_IMAGE                                       
         1 -19.0794    227.6566    106.2391   4.0094702524e+01   1.6181510141e+01     6.371001     4.620868 -44.47   0.03024991    1.136    0.120
         2 -11.5275    119.2756      9.7637   3.1655326304e+01   5.2532300879e+01    0.5991489    0.3726681  51.89  0.002700022    1.511    0.338
         3 -10.0984    153.6731     10.7456   2.7408784831e+01   4.4475422423e+01     0.333528    0.2236099  46.06  0.001490065    1.796    0.443
         4 -10.2597    143.4420      7.8407   2.7798042832e+01   4.7083791023e+01    0.3617011    0.1352303 -21.97  0.001538839    3.660    0.727
         5 -10.0068    183.0129      4.5030   2.3192859721e+01   3.8612330943e+01    0.1798155    0.1698885  -0.99 0.0009545764    1.542    0.352
         6  -8.8886     65.8623    228.1174   9.8106846136e+01   1.6968964019e+01    0.1977326    0.1616051  53.80  0.001153565    1.163    0.140
         7 -13.4446    212.1009    245.1503   6.7880807861e+01  -4.7347147161e+00     1.982551      1.07097  11.22   0.01134514    1.812    0.448
         8 -12.6992    243.4594    246.8248   6.2720878153e+01  -8.0397723658e+00     1.259476    0.7210991  24.87  0.008463803    1.815    0.449
         9 -10.8419    227.0341    248.3152   6.5709083548e+01  -6.6988456462e+00    0.5526914    0.3781821  15.36  0.003243617    1.361    0.265
        10  -9.0724    146.9230    250.5716   8.1792424635e+01   2.0051589697e+00    0.1897826     0.107084  25.87 0.0002982314    1.523    0.343
        11  -9.1726    138.8805    225.9254   8.0045933365e+01   7.6061060900e+00    0.2006255     0.178285   9.06  0.000444457    1.034    0.033
        12  -9.0184    243.2865    224.4139   5.9242616929e+01  -4.9189616235e+00     0.185724    0.0986327  21.49  0.001121312    1.973    0.493
        13  -8.9544    232.9145    210.2313   5.8604042193e+01  -1.7137382194e+00    0.2382699    0.1429262  34.05 0.0008773869    1.970    0.492
        14 -10.3320    171.7602    204.5084   6.9178599487e+01   7.0975633181e+00    0.4037345    0.2951375  65.73  0.001750596    2.503    0.600
        15 -11.3250    192.3761    194.0218   6.3077384812e+01   6.1211658240e+00    0.9558018    0.5006033 -62.39  0.003242087    4.894    0.796
        16  -8.7901    136.8670    200.0713   7.6357523163e+01   1.3207849081e+01    0.2099183    0.1948947  66.40 0.0008208607    1.317    0.241
        17 -10.8802    176.5886    247.1582   7.5049073784e+01  -1.0560865274e+00    0.3116231    0.2529544 -69.02  0.001458986    2.163    0.538
        18 -10.3595    100.2257    144.6061   7.5564549761e+01   3.2396516249e+01    0.2441467    0.2267883  89.35 0.0004574161    1.179    0.152
        19 -12.8635     56.7328    115.5300   8.3655807952e+01   4.6800448303e+01      1.04888    0.7828992 -50.59  0.001452766    1.284    0.221
        20 -13.0518     71.8795    117.1145   7.8526149224e+01   4.4116335389e+01     1.172107    0.8950674   5.10  0.002528219    1.520    0.342
        21  -8.8167     95.8114    138.1197   7.5485933186e+01   3.4790758194e+01    0.2154074     0.179771 -21.39            0    1.318    0.241
        22  -9.7843     90.5746    130.2840   7.5354126045e+01   3.7666016597e+01    0.4015801    0.2407863 -51.84  0.001678098    1.647    0.393
        23 -10.4155     91.3407    125.4272   7.3975145763e+01   3.8730992841e+01    0.3623735    0.3084544 -51.72 0.0005373103    1.174    0.148
        24 -10.2837    111.9671    130.9954   6.9044218522e+01   3.3549863244e+01    0.2439224    0.2366381 -44.66   0.00117816    1.031    0.030
        25 -10.6904    125.8792    127.3924   6.4333668746e+01   3.1666263173e+01    0.4117987    0.2230279 -50.38  0.001495603    1.857    0.461
        26  -9.3950    104.1611    129.1708   7.0900692995e+01   3.5465242700e+01    0.2415085    0.2157084 -12.41  0.001214136    1.200    0.167
        27 -10.0530     46.1109    126.8598   8.9941519950e+01   4.5235178292e+01    0.2174611    0.1975448  64.94 0.0002693974    1.194    0.162
        28 -10.3561    204.6885    189.5579   5.9921823309e+01   5.2110442582e+00    0.5066727    0.3654513 -78.01  0.002160721    3.191    0.687
        29  -9.7604    149.9671    173.8071   6.8376882684e+01   1.6775193879e+01    0.2432363    0.2043631 -46.21 0.0003292272    1.199    0.166
        30 -13.1632     34.3879    116.8010   9.2444164173e+01   4.9198647008e+01     1.049731    0.9466876 -51.85  0.003828362    1.035    0.034
        31  -9.6702    107.8191    116.1965   6.6624174936e+01   3.7815407674e+01    0.4167845    0.2032708 -54.20  0.001538177    2.223    0.550
        32  -9.0966     99.1124    113.7136   6.8623701065e+01   4.0090062934e+01    0.2804116    0.1852631  41.47  0.000800651    1.509    0.337
        33  -9.8311    106.3469    106.8634   6.4627485122e+01   4.0220477865e+01    0.5388465     0.240254 -48.81  0.001967226    2.279    0.561
        34 -12.4159     66.2267    112.1328   7.9354807787e+01   4.6252760729e+01     1.056523    0.6650799 -30.73  0.001406149    1.872    0.466
        35 -11.0131    118.8653     93.0046   5.7289609678e+01   4.0531988047e+01    0.7616589    0.4440317 -42.93   0.00328758    1.745    0.427
        36 -10.4648    124.9970     89.1544   5.4618667404e+01   3.9953320702e+01    0.5139223    0.3079269 -54.35  0.002212988    1.866    0.464
        37  -9.5479    121.4500    171.6088   7.5091268061e+01   2.2131231621e+01    0.3808693    0.2454195 -72.44  0.001166859    2.213    0.548
        38  -9.3634    116.7228    196.2339   8.0740784235e+01   1.7167336745e+01    0.2251416    0.2071619  58.44 0.0004117467    1.214    0.176
        39 -10.3726    135.1094     78.9567   4.9355714641e+01   3.9587812861e+01    0.5907613    0.3477913  50.16   0.00268364    1.666    0.400
        40  -8.5552    133.3076     73.3049   4.8173074641e+01   4.0980590637e+01    0.1407578    0.1132286  19.63    0.0002888    1.606    0.378
        41 -11.7243    151.4112     67.6251   4.2921758661e+01   3.7796321181e+01    0.6501991    0.3804598 -74.17  0.002671552    2.620    0.618
        42 -10.6330    153.8102     63.8648   4.1486689958e+01   3.7841537914e+01      0.39531    0.2583021 -12.00  0.001748213    2.615    0.618
        43  -8.3996    136.4123     70.4838   4.6697171261e+01   4.0749093064e+01    0.1394234    0.1335706  84.25 9.578304e-05    1.026    0.026
        44  -9.9903    144.3682    168.0073   6.8562544183e+01   1.9006297300e+01    0.4094703    0.2758204 -62.79  0.001286675    1.832    0.454
        45  -8.8452      2.4891    190.8730   1.1130454921e+02   3.2384675340e+01    0.1802173    0.1636046  52.84 0.0005540075    1.119    0.106
        46  -8.8914    106.1148     59.3687   5.0614117725e+01   4.9478397588e+01     0.219215    0.1930945 -20.01 0.0003083166    1.268    0.212
        47  -9.7430    153.7216    163.7659   6.5482093185e+01   1.8302487381e+01    0.3302247    0.2439332 -66.01 0.0009262076    1.714    0.416
        48 -12.0653    149.6611     49.7743   3.8417213552e+01   4.0857445943e+01    0.5308326     0.417695  66.88   0.00286845    1.187    0.158
        49  -9.9207    127.1312     45.5878   4.1357713818e+01   4.6676633648e+01    0.2478393    0.1873545  -1.86  0.001143718    1.879    0.468
        50 -11.1994    140.8313     42.2471   3.7823264823e+01   4.3918433003e+01    0.4536051    0.3043652 -13.50  0.002268363    2.186    0.542
        51  -8.8732     93.2041    164.9061   8.1704426145e+01   2.8468925355e+01    0.2203454    0.2052465  67.05 0.0003133611    1.142    0.124
        52 -10.5840    127.7701     39.2382   3.9308645796e+01   4.7363492272e+01    0.4337494    0.2763036  30.80  0.001562701    2.202    0.546
        53  -9.8063    168.3965    183.4326   6.6061967504e+01   1.1743794826e+01     0.725969    0.4666919  79.11  0.002153202    6.281    0.841
        54  -9.4646    132.7242     32.1009   3.6272638821e+01   4.7075206784e+01    0.2553085    0.1616442  46.71  0.001333098    1.668    0.400
        55  -9.3344    134.8717     28.4193   3.4831776263e+01   4.6996546749e+01    0.2250701    0.1606161  22.99 0.0007988734    2.034    0.508
        56 -10.7751    153.4370     26.4312   3.1564690550e+01   4.2908710574e+01    0.3455974    0.2219674  40.93  0.001313201    2.029    0.507
        57 -10.6201     70.7008    159.6222   8.7575088907e+01   3.3266985129e+01    0.4287849    0.2692445 -76.32  0.001289925    1.878    0.467
        58  -8.5930    138.4589     24.4542   3.3124830985e+01   4.6596328647e+01    0.1288084     0.110055  82.80 4.459674e-05    1.008    0.008
        59  -9.5226    178.0667    156.8196   5.8743811229e+01   1.5516274089e+01    0.2263885    0.1853438 -39.51 0.0003679672    1.124    0.110
        60 -10.7865     77.8056    154.6884   8.4470496583e+01   3.3509562032e+01     0.377331    0.2546601 -56.96  0.001088434    1.462    0.316
        61 -11.1763    110.8444    149.0397   7.3422569362e+01   2.9413475753e+01     0.602862    0.3402595 -66.66  0.001738664    2.384    0.580
        62 -12.9551     67.4971    142.6312   8.5512287517e+01   3.8207826339e+01     5.072815     1.336351 -47.69   0.01417365    3.890    0.743
        63  -8.8867    125.8474     14.1779   3.2003344094e+01   5.0591012481e+01    0.1987303    0.1572698 -84.72  0.001238463    1.213    0.175
        64  -9.4180    147.9400    247.0400   8.1082133828e+01   2.4906509636e+00    0.1935018    0.1608594   3.49 0.0003250539    1.040    0.038
        65 -10.2380    114.6269    237.9285   8.7409221747e+01   8.5504456861e+00    0.2506281    0.2208526 -27.66 0.0005835416    1.214    0.176
        66 -10.7486    184.6656    235.4736   7.1633273411e+01  -1.1831072743e-01    0.4442538    0.2296106  47.59  0.001911154    3.518    0.716
        67  -8.9811    128.8554    185.2734   7.5729471559e+01   1.7738413983e+01     0.372992    0.2527716 -85.92  0.001513071    2.629    0.620
