#   1 NUMBER                 Running object number                                     
#   2 MAG_AUTO               Kron-like elliptical aperture magnitude                    [mag]
#   3 X_IMAGE                Object position along x                                    [pixel]
#   4 Y_IMAGE                Object position along y                                    [pixel]
#   5 X_WORLD                Barycenter position along world x axis                     [deg]
#   6 Y_WORLD                Barycenter position along world y axis                     [deg]
#   7 A_WORLD                Profile RMS along major axis (world units)                 [deg]
#   8 B_WORLD                Profile RMS along minor axis (world units)                 [deg]
#   9 THETA_WORLD            Position angle (CCW/world-x)                               [deg]
#  10 FWHM_WORLD             FWHM assuming a gaussian core                              [deg]
#  11 ELONGATION             A_IMAGE/B_IMAGE                                           
#  12 ELLIPTICITY            1 - B_IMAGE/A_IMAGE                                       
         1 -14.8549     68.5313    144.2904   1.0775950617e+02   3.7263892794e+01     4.644715     2.401978  75.34  0.003635128    3.569    0.720
         2 -13.2364    230.7545      3.0004   3.6095173051e+01   2.7089685339e+01     1.632987    0.4919543  61.40  0.006161616    3.100    0.677
         3 -14.3923    196.6707     37.5896   4.8451528771e+01   3.1278973724e+01     1.598205     1.370443   2.58  0.005039893    1.423    0.297
         4 -14.6521    206.9417     26.4564   4.4139565151e+01   3.0130365855e+01      1.63133     1.279059  24.57  0.002311366    1.683    0.406
         5  -9.8224    155.1116     10.8431   4.6475869161e+01   4.4887169824e+01    0.2108468    0.1759362 -75.09 0.0006802382    1.279    0.218
         6 -12.0746     59.3873      3.3483   6.6603671721e+01   6.6835060584e+01    0.4103599    0.2635471  51.26  0.002372595    1.800    0.445
         7 -11.6842     41.3349      8.0033   7.6467039215e+01   6.9114528115e+01    0.2348336    0.1443932   9.96  0.001362294    1.626    0.385
         8 -11.2301     28.3255      2.2958   7.9645407542e+01   7.1530497129e+01    0.2490588    0.1240697  31.85  0.001427015    2.009    0.502
         9 -11.2009    208.2322    196.4679   8.5233496041e+01   1.6009362000e+00     0.306258    0.1950147 -21.40 0.0009718594    1.717    0.418
        10  -8.6078    159.2712    250.3228   1.0318114559e+02   1.5651779989e+00    0.1122393   0.08422026  12.02 0.0002470066    1.572    0.364
        11 -10.8641    139.6779    249.8703   1.0675237814e+02   4.6796117901e+00    0.2704921    0.1544174  50.43  0.001437138    1.547    0.354
        12 -11.0731    117.5217    249.9780   1.1085436999e+02   8.0443369289e+00     0.256934    0.1862799  72.74  0.001678408    1.499    0.333
        13 -14.8853     85.3900    229.5302   1.1479613470e+02   1.6312155848e+01     1.621992     1.106296 -79.04    0.0079053    1.543    0.352
        14 -16.4892     51.6693    198.5440   1.1851516672e+02   2.7006670455e+01     5.133569     3.378171  81.53   0.03101566    1.376    0.273
        15  -9.3299    159.8312    196.8892   9.5103331501e+01   1.0245523439e+01    0.1751844    0.1570523  72.66 0.0003957185    1.281    0.219
        16 -10.4315    112.2525    196.7400   1.0534278790e+02   1.8622594397e+01    0.4185295    0.2707487  -4.58  0.001550259    4.233    0.764
        17  -9.9590     81.7524    194.8357   1.1174103055e+02   2.3775256921e+01    0.2315348    0.1853227  70.28 0.0008310993    1.111    0.100
        18 -14.9244     47.4175    221.9499   1.2132439696e+02   2.2755327748e+01     1.522504    0.8790892 -88.73   0.00380565    1.619    0.382
        19 -11.2431     73.8063    188.4786   1.1271054757e+02   2.6285358637e+01    0.3290675     0.204807  71.20 0.0009357295    1.690    0.408
        20  -9.6254     95.0110    187.9377   1.0791299782e+02   2.3261253468e+01    0.1992316    0.1783592  72.86 0.0004856237    1.018    0.017
        21  -9.3630     97.5097    184.5187   1.0686335607e+02   2.3611247732e+01    0.5959122    0.2464189  60.71  0.001871954    4.400    0.773
        22 -10.4184     99.3361    180.7663   1.0589228313e+02   2.4142781356e+01    0.2545041    0.2321845  31.02 0.0006224779    1.254    0.203
        23 -10.8709    146.7574    183.3920   9.5553054681e+01   1.5256476400e+01    0.3338455    0.2241862  55.78  0.001472296    1.594    0.373
        24 -13.9839     20.0266    192.6844   1.2443609647e+02   3.1723180065e+01    0.7569479    0.5133412  55.14 0.0006032489    1.331    0.249
        25 -10.0949    204.4705    176.7601   8.2097795189e+01   5.5277354248e+00    0.2748146    0.2045332 -59.11  0.001381251    1.878    0.467
        26 -11.2390    140.6260    174.2424   9.5258468120e+01   1.8283686716e+01    0.4734291    0.3180611  84.14  0.001833966    2.444    0.591
        27 -10.9590     46.7438    172.0470   1.1690005805e+02   3.3444036238e+01    0.4971895    0.2549048 -81.56  0.001908727    1.898    0.473
        28 -14.2936     53.3783    146.4295   1.1205682185e+02   3.8683540825e+01     6.857501    0.9298083  45.25   0.01579669    8.872    0.887
        29 -17.8249      5.9478    240.6920   1.2956608848e+02   2.3723903603e+01     10.29786      1.61096 -77.67   0.02180666    5.475    0.817
        30 -10.4136     51.8925    164.3011   1.1479969271e+02   3.4627020734e+01    0.3418283    0.1923749 -42.66  0.001621262    2.432    0.589
        31  -9.7529    160.1767    164.0232   8.8806221746e+01   1.6594512454e+01    0.2414461    0.1758462 -77.33  0.001077254    2.011    0.503
        32 -12.2382     90.4488    155.0056   1.0389384827e+02   3.1464167723e+01    0.6091753    0.4388621 -26.64    0.0029241    2.005    0.501
        33 -11.3178    133.7716    144.8487   9.0950382046e+01   2.6021029517e+01     1.163161    0.3065908 -54.33  0.002866558    5.288    0.811
        34 -10.8094    174.3249    149.0142   8.2399050041e+01   1.6736998053e+01    0.3291096    0.2708332  43.91  0.001168237    1.214    0.176
        35 -10.2008    143.7953    146.3984   8.8845284880e+01   2.3654087073e+01    0.3222815    0.1868123 -77.01 0.0009621131    4.237    0.764
        36  -9.5032     85.6888    144.9392   1.0333993315e+02   3.4607013534e+01    0.1960355    0.1707972 -75.76 0.0002832969    1.070    0.066
        37 -11.0590    103.8111    140.0618   9.7604416670e+01   3.2771570481e+01    0.5513852    0.3715106 -26.27  0.002387327    2.140    0.533
        38 -12.4689     91.3007    140.0294   1.0092532914e+02   3.4893539204e+01    0.2863807    0.2598132 -48.76 0.0004806688    1.144    0.126
        39 -10.2653     40.5657    142.1788   1.1479252559e+02   4.1139935341e+01    0.2006705    0.1729587  54.96 0.0002956735    1.251    0.201
        40 -13.1684     83.7749    162.0646   1.0672817233e+02   3.0837889633e+01     1.394423    0.5637563  57.87 0.0003741992    3.954    0.747
        41 -11.5177    135.8416    128.7674   8.6729724245e+01   2.9212475309e+01     1.102626    0.1887026 -49.03  0.002335484    6.555    0.847
        42 -13.0031     43.6496    127.9716   1.1190700511e+02   4.4238733739e+01    0.8729481    0.4927539  76.26  0.003954401    2.390    0.582
        43 -13.7954     72.3527    157.1466   1.0880825885e+02   3.3659279482e+01    0.5725201    0.5232053 -38.75  0.002963993    1.316    0.240
        44 -10.5491    105.9560    130.7725   9.5046390549e+01   3.4587852554e+01     0.357152    0.3059565 -77.18  0.001096462    1.216    0.178
        45 -10.3681    112.4332    130.4657   9.3233914331e+01   3.3467944092e+01    0.3003887    0.2575954  -9.20 0.0007427612    1.418    0.295
        46 -10.3360    160.2100    127.5469   8.0499698151e+01   2.4228035156e+01    0.3651098    0.2601327 -49.93  0.001344977    1.442    0.307
        47 -11.1719     99.3505    126.7344   9.5957606304e+01   3.6718673048e+01    0.4308194     0.295296  14.36  0.001642608    2.120    0.528
        48 -11.1796    119.3036    123.3923   8.9734161829e+01   3.3791881516e+01    0.5743391     0.370808 -12.28  0.002080754    2.944    0.660
        49 -10.8023     24.7403    120.8034   1.1616914117e+02   4.7751080937e+01    0.2302812    0.1335123  58.44 0.0007460925    2.021    0.505
        50 -12.6736     43.2912    114.3353   1.0974027823e+02   4.7574408278e+01    0.6277877    0.4075216  86.18   0.00318535    1.845    0.458
        51 -11.8096     46.0611    109.7698   1.0806256082e+02   4.8381075708e+01    0.3764288    0.2753186  54.73  0.001542443    1.586    0.369
        52 -10.9877     41.5210    108.9703   1.0930836105e+02   4.9047553030e+01    0.2746132    0.1716051 -63.42   0.00145704    1.345    0.257
        53  -9.9994    108.5316    119.1962   9.1654064902e+01   3.6836158095e+01    0.2347267    0.2064642  42.65 0.0003372157    1.185    0.156
        54  -9.9676    167.9980    112.9679   7.4972436041e+01   2.5492061920e+01    0.3783607    0.2618611 -81.29  0.001466161    2.397    0.583
        55 -11.9836    118.0324    108.6141   8.6330404387e+01   3.7419209876e+01    0.7060874    0.5506521 -54.41   0.00302055    1.285    0.222
        56 -10.4760    134.5081    105.1220   8.0963311627e+01   3.4723794460e+01    0.5428442    0.1502361 -46.06  0.001512846    3.619    0.724
        57 -10.1041    205.4460    110.1755   6.6567723033e+01   1.7405185345e+01      0.30906    0.2162387  41.38 0.0008302624    1.525    0.344
        58 -11.1655     35.7648    101.2769   1.0967563748e+02   5.1445338387e+01    0.2690399    0.2114495  63.39  0.001216878    1.497    0.332
        59 -11.2022     19.7101    110.9291   1.1622107484e+02   5.0498481886e+01    0.2487845    0.1998137  53.75  0.000638805    1.429    0.300
        60  -8.8904    164.7211     97.3356   7.1453215358e+01   2.9390429985e+01    0.1598909    0.1237452 -70.57 0.0002886288    1.612    0.380
        61 -10.6579     56.4103     95.6923   1.0179340266e+02   5.0545349203e+01    0.4023553    0.2427629  46.32   0.00196273    1.983    0.496
        62 -10.7190     53.0798     90.6519   1.0170331928e+02   5.2121519013e+01    0.3170384    0.1837717 -56.39  0.001032695    1.493    0.330
        63 -11.2194     41.9141     91.5936   1.0568162134e+02   5.3128297754e+01    0.3244925    0.2372558 -16.02   0.00159514    1.667    0.400
        64  -9.1189    161.4079     88.4915   6.9674978494e+01   3.1900265221e+01    0.1560465    0.1507545 -43.03 0.0001321302    1.027    0.027
        65  -9.8547    157.4574     81.0729   6.8381715273e+01   3.4256932715e+01    0.2388982    0.1525005 -37.02 0.0004857848    1.551    0.355
        66  -9.2175    184.5822     77.2042   6.1635781305e+01   2.8273690544e+01    0.2148131    0.1480851 -21.14 0.0008319881    1.660    0.398
        67 -10.1448     60.6263     68.3665   9.2926764741e+01   5.6123568832e+01    0.2542912    0.2260859  74.98 0.0009381986    1.501    0.334
        68 -10.4874    107.9877    203.6834   1.0722828810e+02   1.7904680912e+01    0.1901011    0.1529209  51.90 0.0004819974    1.102    0.093
        69  -9.1744    176.0000    239.9672   9.8655979930e+01   4.1250882622e-01    0.1672436   0.07088182 -44.10 0.0005964526    2.860    0.650
        70 -13.8619    186.7111     45.3115   5.2103318684e+01   3.2741973120e+01     1.209667    0.9175838  31.70 0.0009539465    1.578    0.366
        71  -9.1931    130.8804    213.9001   1.0383404047e+02   1.2159605620e+01    0.1714692    0.1397936  69.94 0.0003923467    1.291    0.225
        72 -10.3465    105.5571    211.3977   1.0874285321e+02   1.6758227966e+01    0.3977432    0.2884833   3.19   0.00201385    2.480    0.597
        73 -11.2578    149.9173     53.5089   6.1440273653e+01   4.0847751516e+01    0.4907555    0.3271376 -77.30  0.001361212    2.320    0.569
        74 -15.5109      9.3476    206.6389   1.2734002161e+02   2.9857761674e+01    0.7551228    0.6152681  12.83  0.005276726    2.015    0.504
        75 -11.0175    151.6594     47.0621   5.8968338344e+01   4.1386173479e+01    0.3383491    0.2804531 -74.00  0.001113458    1.400    0.286
        76  -9.9455    189.5212     14.9792   4.3082007979e+01   3.5762518248e+01    0.2085781    0.1757051  79.11 0.0007582506    1.087    0.080
        77 -16.5952     57.3443    247.5165   1.2141247395e+02   1.6808160053e+01      8.01088     2.523229  30.17   0.02383724    8.466    0.882
        78 -10.5188    113.1249    207.4456   1.0664606167e+02   1.6325244624e+01    0.2269887    0.1811926 -83.22 0.0006619556    1.350    0.259
        79 -12.7441    196.5925    197.9880   8.7783389719e+01   3.4064016811e+00     1.252276     0.954353  79.80  0.006245593    2.393    0.582
