#   1 NUMBER                 Running object number                                     
#   2 MAG_AUTO               Kron-like elliptical aperture magnitude                    [mag]
#   3 X_IMAGE                Object position along x                                    [pixel]
#   4 Y_IMAGE                Object position along y                                    [pixel]
#   5 X_WORLD                Barycenter position along world x axis                     [deg]
#   6 Y_WORLD                Barycenter position along world y axis                     [deg]
#   7 A_WORLD                Profile RMS along major axis (world units)                 [deg]
#   8 B_WORLD                Profile RMS along minor axis (world units)                 [deg]
#   9 THETA_WORLD            Position angle (CCW/world-x)                               [deg]
#  10 FWHM_WORLD             FWHM assuming a gaussian core                              [deg]
#  11 ELONGATION             A_IMAGE/B_IMAGE                                           
#  12 ELLIPTICITY            1 - B_IMAGE/A_IMAGE                                       
         1 -14.9055    157.9915     43.5213   8.4838538259e+01   4.0316748269e+01     1.554345     1.094385 -19.16  0.003983566    1.404    0.288
         2 -14.6713    169.7900     11.0158   7.1438443888e+01   4.1089379405e+01     1.393605     1.075353  47.42  0.005297544    1.294    0.227
         3 -12.3455    189.6623     14.6049   7.0247827385e+01   3.5681337049e+01    0.4534905    0.2503769 -39.64   0.00160807    1.737    0.424
         4 -11.8061    167.8342    245.3313   1.2664890145e+02   6.8643813357e+00     0.174891    0.1345061  -5.73 0.0008060876    1.438    0.305
         5 -13.5906    189.4305    249.4608   1.2350351716e+02   3.7341560411e+00    0.5181079    0.1981889  31.26   0.00297271    1.969    0.492
         6 -12.0858    176.1863    248.8627   1.2563766561e+02   5.4345908268e+00    0.1896162     0.142179  -2.29 0.0005444322    1.411    0.291
         7 -19.8783     93.3457    232.8469   1.3867350338e+02   1.7690677500e+01     6.943912     4.898882  47.79   0.04701645    1.151    0.132
         8 -14.1557    207.5095    177.9746   1.0970436159e+02   9.4984691932e+00    0.8110548    0.5292153 -28.47  0.003438885    1.566    0.361
         9 -12.2710    203.1006    172.3264   1.0946609854e+02   1.0931498041e+01     0.323157    0.2598688 -20.51  0.001546166    1.280    0.219
        10 -12.4523     23.4506    218.4447   1.5058513764e+02   2.7164906450e+01    0.2846933    0.1484733 -66.93  0.001959397    2.187    0.543
        11 -14.5403    177.6974    171.8988   1.1422318298e+02   1.5082793438e+01    0.7583191    0.5973649 -52.72  0.004525559    1.767    0.434
        12 -10.0986     17.8337    222.2710   1.5172930343e+02   2.7017121629e+01    0.1051852    0.0935443  67.68 0.0003425506    1.274    0.215
        13 -11.9857     16.3388    250.1007   1.5284430198e+02   2.2877701214e+01    0.1207342   0.08919218  69.20  0.001071693    1.206    0.171
        14 -13.0981     11.6612    205.9991   1.5228237092e+02   3.0265548654e+01    0.4418898    0.2252766  25.26  0.002897603    2.133    0.531
        15 -12.4710    185.6491    168.0332   1.1195639562e+02   1.4355953289e+01    0.3467072    0.2167073 -34.36  0.001902222    1.681    0.405
        16 -12.0327    230.1773    166.6549   1.0364877131e+02   7.4201418230e+00    0.2809871    0.1498279 -40.59  0.001424006    2.464    0.594
        17 -11.9977    201.3664    165.3754   1.0847082434e+02   1.2157089929e+01    0.2741196     0.236644 -53.87 0.0009483684    1.791    0.442
        18 -11.2502    222.6525    162.0584   1.0402566887e+02   9.1634668628e+00    0.2777517    0.1899284 -45.71  0.001112429    2.198    0.545
        19 -11.4170     30.9601    205.9976   1.4863566852e+02   2.8617940000e+01    0.1913556    0.1775012 -36.62   0.00158394    1.541    0.351
        20 -11.4692     29.1785    156.7681   1.4606505114e+02   3.8307262666e+01    0.2696355    0.1802532 -70.41  0.001350073    1.438    0.305
        21 -10.2336      4.0944    157.8447   1.5196813591e+02   4.0010900258e+01    0.1587908    0.1134082 -53.01  0.001095922    1.708    0.415
        22 -14.2587    153.0183    145.2677   1.1431552531e+02   2.3661675599e+01     0.637377    0.5264735  88.66  0.003427225    1.838    0.456
        23 -13.4980    138.0825    198.3864   1.2635975649e+02   1.7105227126e+01    0.6041499    0.3876619  48.78  0.003542854    1.590    0.371
        24 -11.0608    192.2002    153.7432   1.0790431379e+02   1.5365584421e+01    0.2992326    0.1477564 -24.18  0.001327573    2.288    0.563
        25 -11.3791     18.2183    148.7716   1.4815722612e+02   4.0913672776e+01    0.2421346     0.221477  87.41  0.001028506    1.165    0.142
        26 -11.2909     17.3314    154.1616   1.4870852832e+02   3.9828473060e+01    0.2099333    0.1799066 -64.43 0.0007213492    1.321    0.243
        27  -9.8667     20.3582    151.3093   1.4780369494e+02   4.0201401303e+01    0.1406461    0.1202509  -8.95 0.0005997575    1.602    0.376
        28 -14.4770    133.7636    145.8696   1.1884663135e+02   2.6903063143e+01     1.324175    0.5161744 -57.28  0.004449672    4.076    0.755
        29 -12.8669    174.0422    148.5053   1.1046090954e+02   1.9366678825e+01    0.3846597     0.312265 -44.71  0.001564939    1.458    0.314
        30 -12.2964    140.3275    149.2675   1.1797319678e+02   2.5144972646e+01      0.45544    0.2491371  55.84  0.001336952    2.589    0.614
        31 -10.3517    182.4783    149.2748   1.0890143883e+02   1.7747614539e+01    0.1739091    0.1269061 -44.02 0.0009356229    1.621    0.383
        32 -10.9508    150.9992    241.1668   1.2910068464e+02   9.4766704230e+00    0.1603684    0.1519627  41.85  0.001354395    1.370    0.270
        33 -12.2844     27.6531    145.4810   1.4558036545e+02   4.0872707542e+01    0.3247771    0.3113411  76.53  0.001072242    1.192    0.161
        34 -11.9880    176.1354    142.8318   1.0884188115e+02   1.9917665662e+01    0.1986125    0.1913937  28.92 0.0006638371    1.248    0.199
        35 -14.2864    143.4275    143.9598   1.1622399486e+02   2.5592396046e+01    0.9239182     0.504284 -61.13   0.00371799    2.987    0.665
        36 -12.9184    134.6045    109.0985   1.1053340956e+02   3.3998151463e+01     1.341301    0.1721926 -44.56  0.002754388    7.892    0.873
        37 -14.0336    135.9130    127.9135   1.1463855581e+02   3.0008644486e+01     1.432273    0.3107991 -49.31  0.003666105    5.788    0.827
        38 -10.8791     26.2894    138.9043   1.4539626423e+02   4.2443277195e+01    0.1862331    0.1737292  16.72 0.0005803654    1.327    0.246
        39 -13.3508    147.2896    189.3127   1.2321471613e+02   1.7170455742e+01     0.516377    0.2714705  19.30  0.002389204    2.522    0.604
        40 -19.1330     77.3720     94.6647   1.2348901510e+02   4.7170965139e+01     18.16954    0.8551135 -55.83   0.02496789   18.360    0.946
        41 -11.8070    156.1825    132.8738   1.1098274615e+02   2.5316727680e+01    0.2003668    0.1957723  39.75 0.0003167173    1.187    0.157
        42 -13.3884    160.8043    128.2769   1.0891543953e+02   2.5271255138e+01     0.503829    0.4113335  35.31  0.002465147    1.196    0.164
        43 -13.0267     38.9571    124.0543   1.4045795752e+02   4.4734215200e+01    0.3018939    0.2826641 -14.95  0.001077865    1.305    0.234
        44 -11.9956    141.5343    121.0427   1.1171253399e+02   3.0303453018e+01    0.2788477    0.2016894  56.77  0.001004302    1.668    0.400
        45 -11.1992     21.8726    238.6963   1.5159505375e+02   2.4091466551e+01    0.1252581    0.1020791  70.13 0.0005698702    1.216    0.178
        46 -10.4739     28.2465    240.2117   1.5058145928e+02   2.3303892534e+01    0.1525097   0.07022931  55.59  0.001069123    1.633    0.388
        47 -10.8787    205.4067    110.1573   9.5561824607e+01   1.9459488420e+01    0.3048452    0.1897476  34.21   0.00102814    1.632    0.387
        48 -12.9797    198.8511    222.6513   1.1842272471e+02   5.3694084975e+00    0.3301271    0.1772154  35.61   0.00154464    1.540    0.351
        49 -11.8978     27.0285    105.8984   1.4187518421e+02   5.0069945410e+01    0.3261684    0.2398386  -9.69  0.001153067    1.815    0.449
        50 -12.0645     41.2865     93.8743   1.3543158892e+02   5.1750731434e+01    0.4560307    0.3313512 -47.40  0.002466316    1.353    0.261
        51 -10.7623    124.4883     95.4692   1.0960467165e+02   3.8761374779e+01    0.1496621    0.1428436 -13.91 5.818022e-05    1.010    0.010
        52 -11.6074     62.0329     93.7253   1.2834716174e+02   4.9484080463e+01    0.1833951    0.1786218 -53.02 0.0002124991    1.076    0.071
        53 -12.0276     50.9301     91.9107   1.3175637629e+02   5.1233158050e+01    0.3073172    0.2280962  19.76 0.0007548802    1.575    0.365
        54 -11.6669      5.8066     89.0905   1.4697892358e+02   5.5490477408e+01    0.5083708    0.2232439 -14.05  0.002204893    3.789    0.736
        55 -10.3782    105.9522     82.3057   1.1115871412e+02   4.5137394953e+01    0.2017961    0.1895828  21.15 0.0003547221    1.093    0.085
        56 -10.9610    142.2010     80.3498   1.0059693874e+02   3.8005622327e+01    0.2643341    0.2033087 -21.12 0.0008004364    1.312    0.238
        57 -10.4271     12.4318    243.5517   1.5329157871e+02   2.4159410800e+01   0.09126446    0.0646015  55.38 0.0001818588    1.032    0.031
        58 -14.5435    147.4932     58.0813   9.2107372494e+01   4.0685023052e+01     1.193739     1.009003  -4.60 0.0009483338    1.185    0.156
        59 -10.9865    160.2366    247.4872   1.2818733065e+02   7.5732954631e+00    0.2764659    0.1374667  20.03  0.001592237    2.236    0.553
        60 -13.2860    161.6376     34.8487   8.1107926963e+01   4.0556215805e+01    0.4865243     0.422143  11.45 0.0008911758    1.160    0.138
        61 -10.9404     13.4155     59.8668   1.4012188709e+02   6.2225494490e+01    0.1828244    0.1688776  68.20  0.000417756    1.250    0.200
        62 -13.9013    195.7494    171.3310   1.1064260690e+02   1.2242250067e+01    0.7219574    0.4067331 -43.78  0.002699564    2.255    0.557
