#   1 NUMBER                 Running object number                                     
#   2 MAG_AUTO               Kron-like elliptical aperture magnitude                    [mag]
#   3 X_IMAGE                Object position along x                                    [pixel]
#   4 Y_IMAGE                Object position along y                                    [pixel]
#   5 X_WORLD                Barycenter position along world x axis                     [deg]
#   6 Y_WORLD                Barycenter position along world y axis                     [deg]
#   7 A_WORLD                Profile RMS along major axis (world units)                 [deg]
#   8 B_WORLD                Profile RMS along minor axis (world units)                 [deg]
#   9 THETA_WORLD            Position angle (CCW/world-x)                               [deg]
#  10 FWHM_WORLD             FWHM assuming a gaussian core                              [deg]
#  11 ELONGATION             A_IMAGE/B_IMAGE                                           
#  12 ELLIPTICITY            1 - B_IMAGE/A_IMAGE                                       
         1 -13.0604    182.0190     36.4893   6.5220362641e+01   3.5617423548e+01     1.094546     0.905386  27.27  0.004356477    1.646    0.393
         2 -10.0298     84.7641     12.1851   7.7089915582e+01   5.9832822608e+01    0.6555313    0.2546618  64.72  0.002247709    5.011    0.800
         3 -12.3605    203.0238      4.8563   5.5566767761e+01   3.4409374614e+01    0.8469193    0.4960689  73.93  0.004541156    1.416    0.294
         4 -10.6595    156.1262    218.7038   1.1236540180e+02   5.2878569189e+00    0.4501241    0.2609735  36.17  0.001983384    1.644    0.392
         5 -11.2719    140.0011    248.1236   1.2037956632e+02   2.3363591182e+00    0.5590582    0.3643626 -62.80  0.002972991    1.866    0.464
         6 -19.5744     34.1546    151.6705   1.3161894623e+02   4.0414145560e+01     21.28791     3.367043 -67.41   0.05315166    6.194    0.839
         7  -9.3305     90.0977    183.8081   1.2204066557e+02   2.4909524733e+01    0.2339292    0.1823231  74.05 0.0005738429    1.329    0.247
         8  -9.9379     99.4612    180.6392   1.1916221286e+02   2.4129216298e+01    0.2673372    0.2497964 -59.35 0.0006235699    1.120    0.107
         9 -10.1938    163.8578    216.9807   1.1037563619e+02   4.2501558057e+00    0.2675834    0.2022032  36.37  0.001406376    1.245    0.197
        10  -8.5390    168.0101    176.1072   1.0165568240e+02   1.2141775313e+01    0.2392108    0.1860552 -85.11 0.0006108309    1.709    0.415
        11  -8.4121      9.9050    214.8509   1.4369212898e+02   2.7836941876e+01    0.3190345    0.1753899 -75.39  0.001869952    1.514    0.340
        12  -9.2614    130.5477    212.8040   1.1711350305e+02   1.1123735326e+01    0.1940713    0.1386473 -74.03 0.0006837994    1.656    0.396
        13  -8.7659    141.3234    169.6497   1.0660115985e+02   1.8975996190e+01    0.2409696    0.1826574  80.52 0.0006817376    1.685    0.407
        14  -9.9896    194.6026    168.0102   9.4163076333e+01   8.5769408786e+00    0.3289252    0.3030742 -14.45 0.0008287868    1.106    0.096
        15 -11.3424    103.7888    199.4605   1.2121056018e+02   1.8852252764e+01    0.4639542    0.3286849  36.97  0.001644967    1.443    0.307
        16  -8.7050    190.4957    160.9526   9.3503664964e+01   1.0885494716e+01    0.2312912    0.1444075 -43.44  0.000652536    1.541    0.351
        17 -10.1063     95.9750    160.2660   1.1634379460e+02   2.9782117102e+01    0.2859094    0.2474798 -58.78 0.0003170651    1.112    0.101
        18  -9.4028    189.4358    155.5818   9.2550772777e+01   1.2244360859e+01    0.3125406    0.2615663 -62.51    0.0015818    1.268    0.211
        19 -11.1317    100.7749    153.3904   1.1368753920e+02   3.0660045339e+01    0.6457829    0.4243682 -36.91  0.001949975    1.785    0.440
        20 -10.8504    107.0401    210.6590   1.2216968092e+02   1.5702521452e+01    0.3749385    0.2518571  46.70   0.00176298    1.392    0.282
        21  -8.4768    164.3641    152.6753   9.7428777228e+01   1.8144364135e+01    0.1650793    0.1245596  86.68 0.0007039626    1.792    0.442
        22  -9.7574    133.8987    145.1401   1.0312860410e+02   2.6297577759e+01     0.910296    0.2306518 -54.86  0.002043462    5.752    0.826
        23 -10.9932    110.4498    139.0794   1.0795911512e+02   3.2403341957e+01    0.5965451    0.3136196 -38.37  0.002237377    2.242    0.554
        24  -8.7082    128.7536    140.0144   1.0327587074e+02   2.8568335046e+01    0.2279055    0.2136735 -61.89  0.001171603    1.044    0.042
        25 -10.7813     99.7367    138.8224   1.1087095242e+02   3.4437938980e+01    0.3173842    0.2970438 -10.35 0.0005431475    1.185    0.156
        26 -10.0804    105.8862    131.0106   1.0736090700e+02   3.5204005926e+01    0.4021771    0.3264361 -57.30  0.001029778    1.206    0.171
        27  -9.4270    105.0341    125.6948   1.0633586696e+02   3.6625928859e+01    0.2962773    0.2438799 -21.64 0.0005233033    1.401    0.286
        28  -8.8833    160.5139    127.4937   9.2420586512e+01   2.4607527105e+01    0.1584227    0.1502775 -78.60 0.0008100218    1.048    0.046
        29  -9.5973    134.9966    126.4114   9.8392078062e+01   3.0431819497e+01    0.4298588    0.1584687 -49.40  0.001379287    2.735    0.634
        30  -8.5318    121.3188    123.3479   1.0124182681e+02   3.3986428691e+01    0.1611836    0.1245555 -10.59 0.0007048642    1.732    0.423
        31  -9.7678    116.5182    129.6773   1.0409733368e+02   3.3476026728e+01    0.3229408    0.2659269  -1.91  0.001218649    1.532    0.347
        32  -9.9958    126.8302    208.6751   1.1729197007e+02   1.2699980074e+01     0.285351    0.1951791 -31.23  0.001145881    1.982    0.495
        33  -8.6498    205.7068    110.0540   7.9008692569e+01   1.8085255093e+01    0.2095207    0.1843446 -51.78 0.0006670448    1.072    0.067
        34  -8.9727    167.8962    112.7772   8.7122620654e+01   2.6079908777e+01    0.3005936    0.1981791 -70.62  0.001219824    2.048    0.512
        35 -11.2251    107.4861    203.6132   1.2098773245e+02   1.7248537618e+01    0.6036031    0.1903978  35.90  0.001961352    3.320    0.699
        36  -9.5662     95.4012    200.7403   1.2339917248e+02   1.9951225390e+01    0.3537744     0.214938  75.65  0.001500734    2.190    0.543
        37 -10.0068    193.2813    195.1868   9.9998711310e+01   3.2670882029e+00    0.7814225    0.3908285 -65.57  0.002040477    6.520    0.847
        38  -8.7939    141.2173    197.9784   1.1210921911e+02   1.2459268195e+01    0.1962737    0.1215592 -53.16 0.0005388466    1.672    0.402
        39 -10.9524    112.8485    195.7429   1.1844072007e+02   1.8159165300e+01    0.6465316    0.4064558  -3.23  0.002104886    4.320    0.768
        40  -8.5991    153.7575    193.9919   1.0846748961e+02   1.0972756100e+01    0.1948652    0.1266126 -49.88 0.0004756213    1.579    0.367
        41 -10.3789    173.8477     72.7013   7.5687005182e+01   3.2226604091e+01    0.4739458     0.300151 -87.25 0.0006976454    2.223    0.550
        42  -9.8660     99.7326    192.0878   1.2100978746e+02   2.1297191477e+01     0.260301    0.1868561  64.88 0.0003773102    1.473    0.321
        43 -12.1597    167.6723     51.7667   7.1359940526e+01   3.6946821229e+01     0.655759    0.5850171 -18.00  0.001414911    1.368    0.269
        44 -10.5389    113.5860    185.8626   1.1656064542e+02   2.0381081188e+01    0.4983193    0.2984071 -22.65  0.001685226    3.643    0.725
        45 -11.7139    186.1989     29.9747   6.3078512183e+01   3.5450294368e+01      0.47032    0.4344676 -85.36  0.001411941    1.144    0.126
        46  -8.6533    168.8691    234.9312   1.1232143408e+02  -7.7766349429e-02    0.1982004     0.171919   1.57 0.0003989106    1.211    0.174
