#   1 NUMBER                 Running object number                                     
#   2 MAG_AUTO               Kron-like elliptical aperture magnitude                    [mag]
#   3 X_IMAGE                Object position along x                                    [pixel]
#   4 Y_IMAGE                Object position along y                                    [pixel]
#   5 X_WORLD                Barycenter position along world x axis                     [deg]
#   6 Y_WORLD                Barycenter position along world y axis                     [deg]
#   7 A_WORLD                Profile RMS along major axis (world units)                 [deg]
#   8 B_WORLD                Profile RMS along minor axis (world units)                 [deg]
#   9 THETA_WORLD            Position angle (CCW/world-x)                               [deg]
#  10 FWHM_WORLD             FWHM assuming a gaussian core                              [deg]
#  11 ELONGATION             A_IMAGE/B_IMAGE                                           
#  12 ELLIPTICITY            1 - B_IMAGE/A_IMAGE                                       
         1 -13.4455     67.6199    144.4797   1.2796765279e+02   3.8202875939e+01     3.053164     1.381965 -87.04  0.002262576    5.882    0.830
         2 -14.4336    201.1419     17.8964   6.3511270234e+01   3.1978745307e+01     2.575061     1.662758  33.11   0.01031785    2.151    0.535
         3 -13.9430    206.4423     11.1522   6.1213633316e+01   3.1371290883e+01     1.922713     1.079165  38.37  0.001469551    2.525    0.604
         4 -12.3122      2.8791     15.7925   1.2071386366e+02   7.1994055406e+01    0.4709983     0.275149 -55.42  0.002601128    1.708    0.415
         5 -11.6541      2.1037      5.2030   1.1664291464e+02   7.3765906487e+01     0.581252    0.1610405 -48.51  0.002766832    2.939    0.660
         6 -10.5997     57.3467    240.1889   1.4069684866e+02   1.9575604093e+01    0.2016931    0.1313851  54.59  0.001319597    1.170    0.145
         7 -10.4362    248.2116    250.0820   1.0711057047e+02  -1.0917583592e+01    0.3294036    0.1334176  26.99  0.001701881    2.277    0.561
         8 -12.1022    139.3934    248.5877   1.2632957467e+02   6.0422537819e+00    0.3684629    0.3110785  87.69  0.002588344    1.455    0.313
         9 -13.6687    104.0662    246.2457   1.3265821132e+02   1.1946450802e+01     1.259418     0.469475  40.62   0.00566969    2.162    0.538
        10 -12.7075     79.1221    233.2625   1.3610667375e+02   1.7861630172e+01     0.470936    0.3003726  46.42 0.0008651678    1.298    0.230
        11 -12.3131     89.8052    245.4876   1.3522134699e+02   1.4191146059e+01    0.5183424    0.3063472  68.10  0.001871438    1.679    0.405
        12 -12.3791     84.9744    239.5145   1.3557392361e+02   1.5915107064e+01    0.4591265     0.343144 -72.92  0.001765941    1.514    0.339
        13 -11.4101     81.8255    249.0469   1.3698412696e+02   1.4735668259e+01    0.4403124     0.177837  50.30  0.002326939    1.894    0.472
        14 -14.0218     23.7490    242.6884   1.4668814891e+02   2.3129668076e+01     2.692521    0.5141986  47.25   0.01270832    3.055    0.673
        15 -12.6161      3.7515    245.4671   1.5007011112e+02   2.4714301128e+01    0.8636451    0.4489832  79.94  0.006175607    1.502    0.334
        16 -15.8791      7.5734    207.7571   1.4770810245e+02   3.1265058359e+01     8.696774     1.235631 -74.43    0.0320217    5.194    0.807
        17 -11.4491     18.9241    230.0363   1.4685529298e+02   2.5916383144e+01    0.3590948    0.2531557  30.96  0.002077142    1.877    0.467
        18 -10.0260    229.0263    206.2896   1.0311212785e+02  -2.8929871685e+00    0.2263277    0.1759806 -41.56 0.0007076759    1.628    0.386
        19 -10.3772    192.8012    194.5077   1.0777111757e+02   5.2213285831e+00    0.7748646    0.3712879 -60.36  0.002096496    7.645    0.869
        20 -11.7794     67.8556    193.6299   1.3443911619e+02   2.7197901308e+01    0.3765949    0.2632661 -42.67  0.001574761    2.062    0.515
        21 -11.8206     72.8772    186.5540   1.3252030206e+02   2.7990745066e+01    0.2790368    0.2330183 -57.77 0.0007671415    1.395    0.283
        22  -8.8367    181.5081    192.4350   1.0965337195e+02   7.6849766933e+00    0.1389335    0.1209472  31.64 0.0001091512    1.010    0.010
        23 -11.1734     81.7739    174.7343   1.2894624009e+02   2.9245742739e+01    0.2410996     0.213991 -77.04 0.0004331399    1.150    0.130
        24 -13.2290     69.2253    172.2473   1.3157541003e+02   3.1635397963e+01    0.4769054    0.2803739 -44.29  0.001506129    2.281    0.562
        25 -12.5832     88.5057    166.3305   1.2610107477e+02   3.0061675940e+01     1.912611    0.5835858  50.30  0.006174612    3.783    0.736
        26 -11.4287     24.8614    237.9091   1.4625064479e+02   2.3854692812e+01    0.3483718    0.1784979  74.77  0.001639904    1.637    0.389
        27  -9.5621    230.6702    168.0079   9.5462442611e+01   2.3368203269e+00     0.212897   0.09861944 -52.81 0.0004397066    4.389    0.772
        28 -12.4141     32.5117    156.6099   1.3852022572e+02   3.9635954665e+01     0.411916    0.3196892 -70.77  0.002681854    1.203    0.169
        29 -10.8815    103.7800    236.5054   1.3172059683e+02   1.3627952727e+01    0.1964637    0.1634427 -85.75 0.0005860096    1.325    0.245
        30 -10.2024    100.9443    149.9870   1.2021858547e+02   3.1668279791e+01    0.3145968    0.2860064 -44.59 0.0009053086    1.229    0.186
        31  -9.4963    103.4600    146.0345   1.1882408361e+02   3.2120426364e+01    0.3304731    0.2215402 -33.04  0.001226031    2.020    0.505
        32 -12.2254     89.5936    149.2146   1.2300285688e+02   3.3769885201e+01    0.2759254    0.2606612 -35.73 0.0005330355    1.244    0.196
        33 -10.6416     40.9936    147.9907   1.3541373046e+02   4.0700785083e+01    0.2092545    0.1314456  70.08 0.0005396458    1.655    0.396
        34  -9.8738    111.3322    135.4695   1.1462179336e+02   3.3064096550e+01    0.3040209    0.2377419 -14.06  0.001089361    1.796    0.443
        35 -10.6502     98.8207    132.8392   1.1740918250e+02   3.5965541096e+01    0.2769044     0.235715 -20.41 0.0006800785    1.464    0.317
        36 -13.2482     42.8922    226.4646   1.4234827086e+02   2.3883565295e+01    0.5017688    0.3012219  59.56 0.0008872064    1.296    0.228
        37  -9.5387    107.9878    122.9939   1.1275061995e+02   3.6522773351e+01    0.2099812    0.2056787  83.01  0.001172703    1.023    0.023
        38 -15.5718     52.4446    215.7577   1.3972340750e+02   2.4753773700e+01     7.177172     1.031502  42.66   0.02613663    4.101    0.756
        39 -10.2830     24.6854    226.5422   1.4565185765e+02   2.5947818856e+01     0.222615    0.1575896  86.09  0.001647859    1.205    0.170
        40 -10.2554    173.7719    220.7794   1.1595205498e+02   4.5067989511e+00    0.2040297    0.1444081  69.27  0.001071745    2.091    0.522
        41 -10.8721    167.9709    113.0347   9.5269832280e+01   2.5533727747e+01    0.3751051    0.2996674 -81.19 0.0008545844    1.573    0.364
        42  -9.6090    204.6780    110.7965   8.7283463117e+01   1.7302267299e+01    0.3752667    0.1845273  38.86  0.001411135    2.423    0.587
        43 -10.7925     44.3821    109.3056   1.2857289962e+02   4.9329804134e+01    0.2881357    0.1845955  53.85  0.001523447    1.804    0.446
        44  -9.2005    156.2970     76.6736   8.7829360450e+01   3.5209030028e+01    0.1579297    0.1208764 -74.36 0.0002904181    1.630    0.387
        45 -10.9814      2.8299     75.0140   1.3628144067e+02   6.0362576930e+01    0.2883023    0.1404068 -67.29  0.001610219    1.631    0.387
        46  -9.6541    128.3652     54.3963   8.7394651410e+01   4.5826422763e+01    0.2776645      0.20498 -76.87 0.0007191176    1.919    0.479
        47 -11.0935    117.6155     47.8881   8.7924666063e+01   4.9369568879e+01       0.4589    0.3102108  79.95   0.00108963    2.249    0.555
        48 -12.3644    126.5743    245.4825   1.2837133935e+02   8.5692132396e+00    0.4381647    0.2632965  59.57  0.002521981    1.662    0.398
        49 -10.6679     69.9812    244.7569   1.3876948547e+02   1.7104148433e+01    0.1838636    0.1398184 -62.06  0.001296408    1.698    0.411
        50 -10.4589    249.4059    244.2256   1.0599947575e+02  -1.0477833389e+01    0.1345288   0.09886533 -28.38 0.0009504127    1.640    0.390
