#   1 NUMBER                 Running object number                                     
#   2 MAG_AUTO               Kron-like elliptical aperture magnitude                    [mag]
#   3 X_IMAGE                Object position along x                                    [pixel]
#   4 Y_IMAGE                Object position along y                                    [pixel]
#   5 X_WORLD                Barycenter position along world x axis                     [deg]
#   6 Y_WORLD                Barycenter position along world y axis                     [deg]
#   7 A_WORLD                Profile RMS along major axis (world units)                 [deg]
#   8 B_WORLD                Profile RMS along minor axis (world units)                 [deg]
#   9 THETA_WORLD            Position angle (CCW/world-x)                               [deg]
#  10 FWHM_WORLD             FWHM assuming a gaussian core                              [deg]
#  11 ELONGATION             A_IMAGE/B_IMAGE                                           
#  12 ELLIPTICITY            1 - B_IMAGE/A_IMAGE                                       
         1  -9.9779    210.3316     27.8441   4.2922395175e+01   2.9309176564e+01    0.4178238    0.3037378  -0.35  0.002158188    1.972    0.493
         2 -10.4097    238.5597      3.9314   3.4687114655e+01   2.5546293384e+01    0.4336752    0.3266844  56.89  0.001597663    1.574    0.365
         3  -7.4067    124.2866      4.2780   4.8020389973e+01   5.2961402189e+01    0.1686299    0.1132074 -28.30 0.0005997621    1.625    0.385
         4  -9.4625    226.9673    243.5569   8.8548258493e+01  -8.0751930391e+00    0.2477188    0.1287103 -14.23  0.001280424    2.451    0.592
         5  -7.8162    232.0000    250.0284   8.8693550034e+01  -9.5337058150e+00    0.1616666   0.06031779 -34.30 0.0007975591    2.909    0.656
         6  -9.9325    108.0031    250.2075   1.1137942674e+02   8.9379691996e+00    0.1808566    0.1367687  47.22 0.0004940766    1.085    0.078
         7  -9.4361     58.5929    243.9659   1.1979072812e+02   1.6798124294e+01    0.2463631    0.1780126 -86.97 0.0004492507    1.331    0.249
         8  -9.0860     48.0045    250.5470   1.2208882719e+02   1.6925020944e+01    0.3356148    0.1319423  34.70  0.001478246    2.723    0.633
         9  -8.8268     57.3987    249.7074   1.2041797069e+02   1.5923102219e+01    0.2651273    0.1549688  51.59  0.001271395    1.330    0.248
        10  -7.8504     52.9786    250.2323   1.2121752595e+02   1.6377296677e+01    0.1757533    0.1472379  19.16  0.001057123    1.884    0.469
        11 -11.4294     30.3164    248.0944   1.2491194056e+02   1.9401199658e+01      1.91369    0.8463894  70.11   0.01112385    2.046    0.511
        12 -12.3175      2.8950    194.2509   1.2673597789e+02   3.2679082922e+01     2.597936    0.3424332 -67.45  0.009536079    4.700    0.787
        13 -11.3575     10.4608    245.6302   1.2802194993e+02   2.1933053867e+01    0.5887869    0.4722637 -86.14  0.002741969    1.391    0.281
        14 -11.2372      3.3931    248.4507   1.2925603375e+02   2.2126616405e+01    0.9294793    0.2947869 -77.15  0.005201347    2.767    0.639
        15 -10.3242    243.5728    241.1517   8.5294676393e+01  -1.0072389182e+01    0.4206181    0.1690645  22.10  0.001867643    3.062    0.673
        16 -10.4023    249.8858    239.1013   8.3890784419e+01  -1.0675274245e+01    0.5827016    0.3691442  55.73  0.002846933    4.021    0.751
        17  -9.7714    233.1688    240.2236   8.6930907707e+01  -8.5407440719e+00    0.2752004    0.1346103  32.46  0.001535214    1.741    0.426
        18  -8.0797    111.0283    236.1386   1.0929900263e+02   1.0897863091e+01    0.1842598    0.1488456  52.15 0.0003427241    1.024    0.023
        19  -8.1506     84.3439    230.1135   1.1381689954e+02   1.5920666340e+01    0.3020131    0.1662588  89.55  0.001542621    2.317    0.568
        20  -8.8545    221.0048    228.4708   8.7142086360e+01  -5.2918168306e+00    0.2108833    0.1650802 -21.49 -3.054942e-05    1.308    0.235
        21  -9.1231    247.8766    219.5033   8.0867916604e+01  -8.0349584945e+00    0.1794808    0.1577101  -8.91  0.001275667    1.317    0.241
        22  -8.9150     43.1314    219.8352   1.2080149362e+02   2.3284762582e+01    0.1879085    0.1222927  67.32 0.0008806394    1.264    0.209
        23  -9.6155     49.7843    216.8386   1.1929197195e+02   2.3092879570e+01    0.2761935    0.1634669  26.26  0.001517572    2.325    0.570
        24 -10.8707      9.8429    250.0898   1.2831550842e+02   2.1204374381e+01    0.8847033    0.2800673  31.00  0.004076299    4.525    0.779
        25  -8.9536    219.7091    210.8757   8.4314349382e+01  -2.6372450033e+00    0.2562901    0.2350754 -68.89   0.00142574    1.705    0.414
        26  -7.4564    249.6484    211.2844   7.9086321964e+01  -7.2256293650e+00    0.1016641   0.09875109  42.03 0.0007019328    1.659    0.397
        27 -11.2373     52.6893    206.1956   1.1778965132e+02   2.4935310986e+01    0.6347435    0.3797645  69.22  0.003629561    1.557    0.358
        28  -9.2326     61.6874    185.2885   1.1371959608e+02   2.8358397416e+01    0.2993534    0.2134697 -48.25 0.0004268645    1.706    0.414
        29 -11.7284     34.5433    191.8261   1.2023889958e+02   3.0136286004e+01    0.7653564    0.3306434  47.96  0.003923694    2.089    0.521
        30 -11.3697     53.0176    192.3544   1.1638417941e+02   2.7879754209e+01    0.6831574    0.5675834  83.65  0.004511102    1.035    0.033
        31 -11.2261     22.9815    204.0491   1.2349957546e+02   2.8734113990e+01      0.42984    0.3386811  21.62  0.002964647    1.846    0.458
        32 -10.8561     27.1389    197.5336   1.2221065334e+02   2.9685657305e+01    0.3244438    0.2978965 -89.89   0.00242937    1.312    0.238
        33 -10.3804    239.1304    203.8356   7.9525857247e+01  -4.6592639418e+00    0.2308956    0.1904121  -2.46   0.00030254    1.046    0.044
        34  -7.4372    131.4886    203.5067   1.0080830451e+02   1.3705948271e+01       0.1355    0.1218265  52.74 -7.119182e-05    1.019    0.019
        35  -7.7324     63.2467    202.3674   1.1524452740e+02   2.4403165348e+01    0.1734936   0.09878368  49.16 0.0007434321    1.575    0.365
        36  -8.8307    208.8680    200.7077   8.4481305142e+01   6.8231252680e-01    0.2671855    0.2035358 -21.82 0.0003039106    1.292    0.226
        37  -8.3034    209.2101    195.9762   8.3525749655e+01   1.3778337517e+00    0.1930352    0.1738856   3.14 0.0004036539    1.074    0.069
        38  -9.7595     23.5237    194.4806   1.2270524326e+02   3.0710922231e+01    0.2329286    0.1421216  86.50  0.001428568    1.366    0.268
        39  -9.1772     69.2293    196.8148   1.1337862036e+02   2.4800510093e+01    0.4635654    0.2181785  71.14  0.001859178    3.101    0.678
        40 -12.6180      8.1143    227.1214   1.2754321237e+02   2.5587625775e+01     1.550107     1.185569  29.97   0.01172661    1.820    0.451
        41  -7.5120    219.3282    196.2017   8.1659984539e+01  -3.6898234359e-01    0.1751437    0.1150265 -41.02 0.0005043729    1.662    0.398
        42 -12.0043     43.4987    202.0741   1.1928476909e+02   2.6912056836e+01    0.8352913    0.5630505 -64.63  0.003552547    1.528    0.346
        43  -8.1006    235.9573    191.9493   7.7817419462e+01  -2.4447844414e+00    0.1727047    0.1626849 -65.98 0.0004928205    1.610    0.379
        44  -9.7852    177.0813    191.4258   8.9073173901e+01   7.8695048448e+00    0.2324933    0.2281726  38.41 0.0001764232    1.141    0.123
        45  -8.4211    129.0369    190.8782   9.9344254181e+01   1.6679093375e+01    0.2009128    0.1892774  52.64  0.000353363    1.026    0.026
        46  -8.8234    208.0011    205.5275   8.5534743306e+01   7.3217010466e-02    0.2976635      0.19721  43.37  0.001099477    1.559    0.359
        47 -10.1358     21.7635    181.9996   1.2209909607e+02   3.3618715636e+01    0.2807122      0.17014  81.15 0.0009913518    1.423    0.297
        48 -10.4021     25.7260    179.1361   1.2101432229e+02   3.3872063810e+01    0.3576948    0.1780787  87.90   0.00183547    1.915    0.478
        49 -12.2966     10.0331    207.2878   1.2614845940e+02   2.9329872030e+01     1.153409     0.619506 -72.95  0.006147344    1.659    0.397
        50  -8.3517     67.2227    177.8102   1.1155234210e+02   2.9329703719e+01    0.1960549    0.1594531  82.36 0.0007024212    1.099    0.090
        51  -7.1290    183.5270    173.4772   8.4216697457e+01   9.9931075449e+00    0.1428223    0.1351952  10.03 2.241848e-05    1.029    0.028
        52  -6.9522    245.3297    172.3243   7.2254164349e+01  -9.9627414285e-01    0.1389902   0.09186091   0.39 0.0007050086    1.700    0.412
        53  -8.0613     72.1725    172.0943   1.0963064062e+02   2.9975712850e+01    0.1921672    0.1728072 -61.21 0.0005031857    1.213    0.176
        54  -7.1732    107.4961    170.3837   1.0088613882e+02   2.4886226555e+01    0.1426485    0.1294718  69.81 8.525006e-05    1.050    0.048
        55  -8.8775     62.7563    169.3351   1.1150513556e+02   3.1896151931e+01    0.2207604    0.1914904 -72.36 0.0002874187    1.133    0.117
        56 -10.4821     19.3222    170.6716   1.2168352398e+02   3.6400455600e+01    0.3468969    0.1817108  78.67  0.001840885    1.839    0.456
        57  -7.5759    125.8490    167.7739   9.6026816321e+01   2.2227287352e+01    0.1937894    0.1649755  80.68 0.0006022021    1.276    0.216
        58  -8.5084     80.9748    163.0761   1.0616228670e+02   3.0831671728e+01    0.2909852    0.1818185 -58.90 0.0006101291    1.519    0.342
        59  -8.7808    198.0518    175.9650   8.1758644614e+01   6.7773596311e+00    0.2064162    0.1884374   2.13            0    1.006    0.006
        60  -7.2991    131.2150    163.6257   9.3953620145e+01   2.2153799732e+01    0.1452748    0.1117902 -82.02 0.0003483655    1.586    0.370
        61  -9.5898     11.9623    157.2388   1.2217869983e+02   4.0125007766e+01    0.2561204    0.1308409 -67.40 0.0008392456    1.606    0.377
        62  -9.8392     68.7624    158.7091   1.0853947979e+02   3.3618285743e+01    0.4021507    0.2599308 -44.37  0.001072364    1.802    0.445
        63  -7.8310     86.3460    156.8142   1.0379233178e+02   3.1509908693e+01    0.1981439    0.1713025  59.52 0.0006688984    1.150    0.130
        64  -9.4383     68.9677    144.7705   1.0627456970e+02   3.6969265175e+01     0.399697    0.2799236  58.56   0.00170424    1.530    0.346
        65  -8.5624      8.1963    142.0840   1.2168583554e+02   4.3951012100e+01    0.2699397   0.08408419 -57.96  0.001176771    2.656    0.624
        66  -8.6277     89.3999    140.7009   1.0005739559e+02   3.4917643729e+01    0.2524029     0.229119 -49.93 0.0003951047    1.130    0.115
        67  -7.5011      2.9796    138.6756   1.2265494920e+02   4.5115770608e+01    0.1678908   0.08224401 -22.05 0.0007050399    4.388    0.772
        68  -7.7220     98.9306    127.0563   9.4580882459e+01   3.6621962765e+01    0.2444124    0.1858344 -15.78  0.001133871    1.784    0.439
        69  -8.5899    144.9096    123.7268   8.1657289843e+01   2.8322898893e+01     0.265927    0.2174547 -51.19 0.0002601479    1.218    0.179
        70  -9.6345    201.2494    121.9080   6.8856129935e+01   1.6228894565e+01    0.2722438    0.2430329 -34.98 0.0002474164    1.055    0.052
        71  -7.2988    245.4591    122.4789   6.1372352390e+01   7.0326516180e+00    0.1403642    0.1209773 -30.54 0.0001132442    1.016    0.015
        72  -8.1841    206.0289    118.6403   6.7144517451e+01   1.5798105807e+01    0.2070504    0.1950607  22.99 0.0005793697    1.114    0.102
        73  -7.7930    107.7484    118.2252   9.0040304056e+01   3.7127679253e+01    0.2549652    0.1819431 -53.14   0.00062892    1.344    0.256
        74  -7.2846    205.4785    111.4788   6.5459519740e+01   1.7244628321e+01     0.151527    0.1407485 -40.07 -4.153964e-05    1.035    0.034
        75  -7.4933    148.0972     97.7727   7.3898786790e+01   3.3165263624e+01    0.2073374     0.180789   2.48 0.0003425671    1.297    0.229
        76  -8.6979     90.7549     97.9751   8.9763633263e+01   4.4908369900e+01    0.2394295    0.2126882  47.95 0.0002262585    1.231    0.188
        77  -7.9497    123.3850     83.7732   7.6089590334e+01   4.1582187109e+01    0.2582462    0.1887922  19.97 0.0006344548    1.695    0.410
        78 -10.3212    106.9130     77.9141   7.8922971379e+01   4.6230832240e+01    0.2537952    0.2352961 -25.89            0    1.021    0.021
        79  -8.9608    203.1287     74.1779   5.6151904518e+01   2.4361198657e+01    0.3807382    0.2495863 -26.66  0.001743418    1.621    0.383
        80  -7.8215    118.7234     76.1668   7.4982245422e+01   4.4109716914e+01    0.2092719    0.1751905   7.36 0.0005440604    1.335    0.251
        81  -7.4460    177.9778     64.0758   5.7660179700e+01   3.2154328468e+01    0.1749807    0.1641384 -46.84 0.0004038691    1.045    0.044
        82  -7.8136    152.9343     51.8808   5.8782349736e+01   4.0307771040e+01    0.2208857    0.1902882  25.13  0.000293887    1.255    0.203
        83  -7.6171    134.0287     30.7008   5.5613029184e+01   4.7883132712e+01    0.1950969    0.1680482  46.74  0.000243943    1.089    0.082
        84 -10.0883    242.9884    248.1091   8.6516763862e+01  -1.0786257316e+01    0.2588667     0.256679 -18.04  0.002025486    1.843    0.458
        85  -7.8047    172.4946     22.9746   4.6368640999e+01   3.9217856925e+01    0.1954599    0.1376552 -27.32 0.0004214346    1.521    0.343
        86  -8.2951    164.8485     21.9184   4.7175490750e+01   4.1257823865e+01    0.2012564    0.1879865  73.52 0.0003716806    1.011    0.011
        87  -8.9320    132.0193     18.6489   5.1753101400e+01   4.9751268911e+01    0.2687736     0.195146 -26.70  0.001441654    1.466    0.318
        88  -8.5296     67.7052    247.2816   1.1842614548e+02   1.5037387686e+01    0.3424298    0.1771024  27.85  0.001754201    2.792    0.642
