#   1 NUMBER                 Running object number                                     
#   2 MAG_AUTO               Kron-like elliptical aperture magnitude                    [mag]
#   3 X_IMAGE                Object position along x                                    [pixel]
#   4 Y_IMAGE                Object position along y                                    [pixel]
#   5 X_WORLD                Barycenter position along world x axis                     [deg]
#   6 Y_WORLD                Barycenter position along world y axis                     [deg]
#   7 A_WORLD                Profile RMS along major axis (world units)                 [deg]
#   8 B_WORLD                Profile RMS along minor axis (world units)                 [deg]
#   9 THETA_WORLD            Position angle (CCW/world-x)                               [deg]
#  10 FWHM_WORLD             FWHM assuming a gaussian core                              [deg]
#  11 ELONGATION             A_IMAGE/B_IMAGE                                           
#  12 ELLIPTICITY            1 - B_IMAGE/A_IMAGE                                       
         1 -14.5550    219.4356      5.3600   4.0232753182e+01   2.8930464377e+01     3.047019     1.647459  49.07    0.0110273    2.169    0.539
         2 -13.8250    179.2073     47.6924   5.7687976039e+01   3.4113114383e+01     1.209432    0.9998829  24.89 0.0008250409    1.374    0.272
         3 -14.0397    191.0056     37.7702   5.2758623640e+01   3.2418966238e+01     1.231608     1.048548 -38.64  0.003294201    1.125    0.111
         4 -14.0269    198.1467     29.0499   4.9154285818e+01   3.1678808885e+01     1.034095    0.9007327  -6.91  0.001344539    1.268    0.212
         5 -11.1394    161.9870     55.0573   6.3209777297e+01   3.7455682407e+01    0.3124933    0.2813277  85.02 0.0005225693    1.194    0.162
         6 -19.4990     15.8420    144.4544   1.2341881117e+02   4.2933530510e+01     18.46221     5.267026 -81.30   0.07207016    3.324    0.699
         7 -12.1106     38.5983    212.2559   1.2363009585e+02   2.6493147150e+01    0.2571419    0.1144776  50.40 0.0009317691    1.751    0.429
         8 -10.7868     43.4728    206.9844   1.2237760089e+02   2.6935896245e+01    0.4334346    0.2155049 -79.12  0.001539088    1.898    0.473
         9 -10.2070     35.3141    208.3444   1.2398432173e+02   2.7591119013e+01    0.5581852    0.1600575  64.27  0.002062275    4.745    0.789
        10 -12.1254    194.3884    196.8695   9.1708307921e+01   5.5427484120e+00     1.125414    0.6748123 -62.92  0.004778129    3.860    0.741
        11 -11.9132    204.8927    199.8513   9.0317694907e+01   3.3541027474e+00    0.3979999     0.372458 -17.87  0.002770372    1.277    0.217
        12 -11.5969     97.0159    200.4384   1.1131353810e+02   2.1118091672e+01    0.3475086    0.2775318 -27.26  0.001063437    1.969    0.492
        13 -10.6193     44.1781    198.9122   1.2165971835e+02   2.8417557778e+01    0.2395519    0.2075851 -43.11  0.001723521    1.780    0.438
        14 -11.6478    134.9152    198.3504   1.0342038375e+02   1.5490211242e+01    0.2306188    0.1943114 -43.39  0.001261487    1.401    0.286
        15 -12.4625     30.9606    197.6748   1.2411894971e+02   3.0121135918e+01    0.2098476    0.1446569  58.41 0.0009492385    1.190    0.160
        16 -10.9828     35.7349    197.6125   1.2319879577e+02   2.9620035533e+01    0.1952097    0.1156929  53.29 0.0005685857    1.391    0.281
        17  -9.9960    159.9731    197.2678   9.8301902041e+01   1.1413892283e+01     0.177067    0.1509397  39.30 0.0003893638    1.022    0.022
        18 -10.1345     82.4135    195.2497   1.1369200404e+02   2.4237241771e+01    0.2665409    0.1728946  63.31  0.001480856    1.403    0.287
        19  -9.3409     87.4191    202.7800   1.1349127992e+02   2.2076174283e+01    0.1500985    0.1085667 -57.18 0.0004696082    1.625    0.384
        20 -10.0544     94.0695    250.0220   1.1663921578e+02   1.3168485056e+01    0.1606171    0.1210356  52.89 0.0004617477    1.054    0.051
        21  -9.2481     35.9652    234.1928   1.2535951481e+02   2.2872806097e+01    0.1507418   0.09104579  61.57 0.0003743044    1.195    0.163
        22  -9.6609     61.9472    220.1774   1.1992543468e+02   2.2275958892e+01    0.1409299     0.111545  76.01 0.0005786333    1.114    0.103
        23 -11.2450     96.9841    192.7008   1.1040304622e+02   2.2604598311e+01    0.3514103    0.2809221 -18.93  0.001121414    2.047    0.511
        24 -13.1778     66.2147    188.7285   1.1634572910e+02   2.7749941043e+01    0.6761364    0.5872443 -66.75  0.003551681    1.361    0.265
        25 -16.1994     70.6173    146.6219   1.1020681468e+02   3.6349863782e+01     11.47762     5.125765  77.75   0.02747721    8.412    0.881
        26  -8.5169     50.1275    216.7066   1.2182600744e+02   2.4344384079e+01    0.2708358    0.2091401   5.46   0.00173589    2.543    0.607
        27  -9.2895     73.7399    189.6162   1.1487494647e+02   2.6563643337e+01    0.1622771   0.09509835  52.18 0.0002641658    1.484    0.326
        28 -12.2730    148.9156    186.3681   9.8759548470e+01   1.5203505449e+01    0.4020218    0.2849898  83.90  0.002029796    2.142    0.533
        29 -11.5692     99.3199    180.7229   1.0837023704e+02   2.4629477973e+01    0.2723019    0.2158797  48.69 0.0005842283    1.174    0.148
        30 -10.4933    204.2363    175.2460   8.5939276655e+01   7.0124754125e+00    0.3856503    0.1820554 -52.90  0.001410763    4.013    0.751
        31 -10.0035     68.9271    177.0774   1.1453177678e+02   2.9812163025e+01    0.2022339    0.1410868  70.71 0.0006018547    1.306    0.234
        32 -12.4142    141.8840    172.5539   9.7899336008e+01   1.9010966876e+01    0.6126065    0.4177765  49.46  0.002713246    1.384    0.277
        33 -12.1851     70.5814    206.9158   1.1720154445e+02   2.3607084921e+01    0.6580611    0.3289163  25.14  0.002016239    3.458    0.711
        34 -11.1039     43.2970    172.7461   1.1967358368e+02   3.3914448290e+01    0.3311403    0.1888812  57.37  0.001015184    1.563    0.360
        35  -9.7525    185.1433    169.7247   8.8489520848e+01   1.1424299945e+01    0.2514998    0.1567504 -53.18  0.001194895    2.069    0.517
        36  -7.7050     58.5521    227.5292   1.2107145946e+02   2.1398271891e+01    0.1130058   0.07973534  64.21  0.000659745    1.067    0.063
        37  -9.7198    162.4990    167.8651   9.2697232669e+01   1.6045394397e+01    0.1918282    0.1376298 -46.03 0.0007496687    1.500    0.333
        38 -10.0220     62.8734    205.0796   1.1853135268e+02   2.4954338251e+01    0.2111404    0.2023628  70.36 0.0008121456    1.384    0.277
        39  -9.4538    192.4951    164.9494   8.6112622924e+01   1.0820628046e+01    0.2005334    0.1331499 -35.55 0.0005750642    1.554    0.357
        40 -11.6959     55.7373    212.2759   1.2046924775e+02   2.4486869467e+01    0.3661497    0.2142836  61.39  0.001509825    1.395    0.283
        41 -10.4980    157.6046    161.0648   9.2414453550e+01   1.8244347904e+01    0.2453769    0.1849376  53.71 0.0005727948    1.352    0.260
        42 -12.6371     94.8665    153.8903   1.0540230621e+02   3.1062096380e+01    0.6419392    0.5020361 -22.61  0.003377971    1.906    0.475
        43 -10.3994    188.5192    154.5148   8.4725002600e+01   1.3350374833e+01    0.4883757    0.1651376  43.17  0.001732057    2.865    0.651
        44 -11.5925    133.8258    145.4809   9.4586884973e+01   2.5975408942e+01     1.196185    0.3010639 -54.59  0.002976026    5.898    0.830
        45  -9.6409    113.1713    151.0019   1.0052560505e+02   2.8613210684e+01     0.241701    0.1592926 -89.54  0.001078326    2.104    0.525
        46 -10.7312    174.3714    148.8159   8.6360285755e+01   1.7206423640e+01    0.3472983    0.2694083 -66.28  0.001250145    1.674    0.403
        47 -10.6462    143.9693    146.0154   9.2365474111e+01   2.3879944545e+01    0.2384848    0.1815776  84.61   0.00114245    1.737    0.424
        48 -11.6671    106.7676    139.3013   9.9882527740e+01   3.2339890670e+01    0.5839214    0.3297709 -38.68  0.002461571    2.278    0.561
        49  -9.5608    112.4913    141.9848   9.8988982331e+01   3.0720696763e+01    0.1961094    0.1231159 -82.70 0.0006719165    2.323    0.570
        50 -12.5740     94.7487    139.3924   1.0292530778e+02   3.4364845132e+01    0.3233712    0.2766601  29.86 0.0006329413    1.364    0.267
        51  -9.9486    135.6232    134.1939   9.1757766569e+01   2.8017496438e+01    0.2072616    0.1380404 -39.38 0.0004673202    1.602    0.376
        52 -11.1402    105.7629    131.0629   9.8484733559e+01   3.4390754278e+01    0.3990009    0.3432448 -44.57  0.002178426    1.235    0.191
        53 -11.1631    114.2540    130.0788   9.6108854971e+01   3.3066583985e+01    0.3319084    0.2914265 -26.12 0.0008611145    1.337    0.252
        54 -10.8960    135.7305    127.7356   9.0265657414e+01   2.9379405348e+01    0.5248572    0.1653379 -49.79  0.001627338    3.309    0.698
        55  -9.9948    161.4320    128.1505   8.4423744076e+01   2.3881739183e+01    0.2960953    0.2089163  87.02  0.001221794    2.321    0.569
        56 -11.0794    101.8065    126.0844   9.8471669818e+01   3.6236622100e+01    0.2923459    0.2410191 -29.41 0.0009823329    1.473    0.321
        57 -11.2523    120.1278    123.1916   9.3078956558e+01   3.3494437505e+01    0.5615371    0.3332991 -22.36  0.001951022    3.366    0.703
        58 -10.2865    109.7852    119.0197   9.4798806331e+01   3.6414833453e+01    0.2324769    0.2084207  53.77 0.0004115238    1.144    0.126
        59 -10.2349    167.5583    112.4210   7.9137420696e+01   2.5629453629e+01    0.3575152    0.2670163 -82.99  0.001355848    1.946    0.486
        60 -11.5246    118.3627    110.5599   9.0483167495e+01   3.6674310666e+01    0.5324239    0.3745838  67.77  0.002389318    1.780    0.438
        61 -10.1152    205.4797    110.1811   7.1047963311e+01   1.7447644042e+01    0.2553512    0.2100037  43.94 0.0006250418    1.270    0.213
        62  -9.7714    135.0000    119.9712   8.8594016002e+01   3.1202694887e+01    0.2500393   0.08525617 -46.15 0.0007276793    2.888    0.654
        63 -13.5470     56.2693    202.5143   1.1959580051e+02   2.6274428746e+01    0.4762253    0.4088175 -82.26  0.001776752    1.294    0.227
        64 -11.1077     41.9251     91.8005   1.0895276388e+02   5.3021672523e+01    0.2195202     0.214634 -83.11 0.0007523317    1.185    0.156
        65  -9.3003    183.5018     83.4821   6.7850069421e+01   2.7236931583e+01     0.155423    0.1485864 -29.00 6.111885e-06    1.004    0.004
        66  -9.0082    155.2880     80.3852   7.2753169178e+01   3.4714523240e+01    0.1647285    0.1240655   4.22 0.0007011863    1.749    0.428
        67  -9.6004     67.6613     71.0971   9.4879918294e+01   5.4627198013e+01    0.1982771    0.1592819 -48.80 0.0004257218    1.095    0.087
        68 -11.4059    160.0852     61.6318   6.5758886587e+01   3.6865951497e+01    0.4120275    0.3022626 -84.71 0.0009285261    1.809    0.447
        69 -11.3449     62.0372    235.7230   1.2103089235e+02   1.9573597163e+01    0.1729884    0.1262181  80.28 0.0004824604    1.233    0.189
        70 -11.0193     51.0901    225.8659   1.2227405313e+02   2.2587772313e+01    0.1908371    0.1138599  72.46  0.000674131    1.424    0.298
        71 -11.9309     49.6516    233.9316   1.2303594969e+02   2.1363858368e+01    0.2158127    0.1249501  64.25 0.0003804941    1.347    0.258
        72 -10.9763     53.5888    231.2753   1.2219195789e+02   2.1351493412e+01     0.183908     0.132746  72.18 0.0005624358    1.111    0.100
