#   1 NUMBER                 Running object number                                     
#   2 MAG_AUTO               Kron-like elliptical aperture magnitude                    [mag]
#   3 X_IMAGE                Object position along x                                    [pixel]
#   4 Y_IMAGE                Object position along y                                    [pixel]
#   5 X_WORLD                Barycenter position along world x axis                     [deg]
#   6 Y_WORLD                Barycenter position along world y axis                     [deg]
#   7 A_WORLD                Profile RMS along major axis (world units)                 [deg]
#   8 B_WORLD                Profile RMS along minor axis (world units)                 [deg]
#   9 THETA_WORLD            Position angle (CCW/world-x)                               [deg]
#  10 FWHM_WORLD             FWHM assuming a gaussian core                              [deg]
#  11 ELONGATION             A_IMAGE/B_IMAGE                                           
#  12 ELLIPTICITY            1 - B_IMAGE/A_IMAGE                                       
         1 -13.8770    178.0141     57.6612   9.9512478179e+00   3.2599230773e+01     1.061915    0.9767036  28.01  0.003884211    1.347    0.258
         2 -14.2840    198.6649     32.1815   1.0578183091e+00   3.1322874851e+01    0.9752945    0.8694707  89.87  0.003756695    1.157    0.136
         3 -12.0568    189.4691     14.8949   3.5768724687e+02   3.5352873268e+01     0.270923    0.2120145 -49.73 0.0009191377    1.201    0.168
         4 -10.9092     11.0595    174.7246   8.1952363607e+01   3.5785566629e+01    0.1602806     0.153916 -48.66 0.0003039519    1.236    0.191
         5 -13.7861    248.3242    245.4074   3.6619094668e+01  -7.8802421395e+00     1.459476    0.4297938 -34.27  0.007426341    2.976    0.664
         6 -18.3467     52.6178    206.7250   7.3347879585e+01   2.3878956674e+01     7.979202     6.586167  45.12   0.03805586    1.054    0.051
         7 -11.9745    180.7580    169.0570   3.5705217477e+01   1.2118408673e+01    0.7189307    0.4948958 -65.32  0.002533599    2.363    0.577
         8 -12.2976    229.9221    166.6486   2.6294816050e+01   4.9390183283e+00    0.3245493    0.2402877 -47.79  0.001988695    1.578    0.366
         9  -9.1350    188.2350    212.9467   4.2141325470e+01   3.4070515053e+00    0.1511674   0.09861397 -36.51 0.0004082673    1.547    0.354
        10 -11.8568    242.0056    166.0131   2.4309846356e+01   3.3858659409e+00    0.1913575     0.151313 -22.17 0.0005308518    1.020    0.020
        11  -4.5582     10.3364    166.2489   8.1597026673e+01   3.7966557655e+01    0.3350184    0.1656822  -0.77  0.001387019    3.097    0.677
        12 -10.9176    149.6414    162.2693   4.1231029340e+01   1.8891214656e+01    0.2454886     0.233683  89.02 0.0006945424    1.254    0.203
        13 -11.1163    128.0643    162.7023   4.6694392997e+01   2.2702559544e+01    0.3407555     0.247564 -83.19  0.001311111    2.078    0.519
        14 -11.5535    151.8183    199.5365   4.7623213568e+01   1.1064502811e+01    0.2380637    0.1893634 -37.88 0.0007075911    1.325    0.245
        15 -11.6594    124.3349    156.7888   4.6495558475e+01   2.4719063962e+01    0.3923692    0.2701183 -68.66  0.001141513    1.880    0.468
        16 -11.3310    121.9078    153.1244   4.6398606984e+01   2.6008165772e+01    0.2833999    0.2337448 -66.77  0.000451741    1.378    0.274
        17 -11.4628    235.3117    160.4222   2.4273874988e+01   5.1423194357e+00    0.2142999    0.1145262  33.62  0.001145232    2.152    0.535
        18 -13.5149    134.0818    146.9624   4.1872667686e+01   2.5113333962e+01      1.48753    0.6144546 -57.60   0.00470514    3.389    0.705
        19 -11.3639    132.6908    140.3386   4.0769868668e+01   2.6868221861e+01    0.4148302    0.2324586  43.91  0.001303753    1.785    0.440
        20 -11.0635    161.5360    198.4593   4.5267347134e+01   9.7631256009e+00    0.3607664    0.2162814  39.13  0.001420551    1.656    0.396
        21 -19.1413     40.0396     91.8521   6.0789506703e+01   5.4836893937e+01     19.50842     1.016758 -62.27   0.02697326   17.519    0.943
        22 -10.2154      1.3836    153.7524   8.3420992886e+01   4.1783395284e+01     0.169581    0.1070833 -68.92 0.0003857818    1.467    0.318
        23 -11.3011    143.3754    145.4227   3.9189410397e+01   2.3658159873e+01    0.5099758    0.2828341 -64.84  0.001802971    2.986    0.665
        24 -11.2763    135.8280    129.1942   3.7373101485e+01   2.8722217768e+01    0.4979957    0.1919927 -49.84  0.001652273    2.735    0.634
        25  -9.9359    122.5184    135.9450   4.2500892771e+01   2.9875216418e+01    0.2292413    0.1548005 -49.94 0.0004472171    1.510    0.338
        26 -11.3032    238.1497    249.8387   3.8915060884e+01  -7.4174143259e+00    0.2454077    0.1467141  -1.96 0.0009299197    1.340    0.254
        27 -12.2438    118.5379    133.1149   4.2958547180e+01   3.1319326736e+01    0.6241918    0.4228982   1.89  0.001542817    2.347    0.574
        28 -12.2707    112.1184    131.1191   4.4334410635e+01   3.3051342275e+01    0.4960879    0.4398898 -27.05  0.001735343    1.195    0.164
        29 -12.2264    101.3556    129.7887   4.7245087189e+01   3.5440064126e+01    0.4108764    0.3571074  48.85 0.0002608509    1.156    0.135
        30 -10.3354    160.8028    128.0893   3.1134946582e+01   2.3826034347e+01    0.3266183    0.2055968 -53.94  0.001431629    1.757    0.431
        31 -10.8343    117.4895    125.0248   4.1338448466e+01   3.3418278266e+01    0.2797725    0.2445258  -6.16 0.0006210915    1.288    0.223
        32 -12.0924    121.2164    123.9938   4.0035025401e+01   3.2897414730e+01    0.6588318    0.3771677 -33.41  0.002529302    2.135    0.532
        33 -11.4602     93.6237    121.8031   4.7811218902e+01   3.8856037977e+01    0.5006772    0.2453122 -50.70  0.001878593    2.040    0.510
        34 -11.1290     97.9018    120.3778   4.6100895873e+01   3.8398485765e+01    0.4107757    0.2614063  50.35  0.001068251    1.679    0.404
        35 -11.3278    134.8430    105.8759   3.1732699108e+01   3.3985836640e+01    0.5254316    0.2093919 -49.51  0.001747023    2.714    0.632
        36 -10.3757    178.8003    118.7992   2.5205235233e+01   2.1975780625e+01    0.4436101    0.2455611 -67.41  0.001440294    4.069    0.754
        37 -10.7164    105.7696    119.8151   4.3516801719e+01   3.6999971979e+01    0.2937912    0.2509103  -7.14 0.0005903005    1.356    0.263
        38 -11.3092     87.2437    116.4103   4.8612415377e+01   4.1370669422e+01    0.4245619    0.2426844  54.14  0.001620751    2.127    0.530
        39 -11.1243    171.1049    114.0763   2.5598330694e+01   2.4455702432e+01    0.4574766    0.3215463 -80.96   0.00189552    2.215    0.549
        40  -9.8862    112.0792    115.3224   4.0489711801e+01   3.6781830488e+01    0.2206984    0.1982808  45.69 0.0003633448    1.104    0.094
        41 -12.3682    119.0329    111.1607   3.7393417781e+01   3.6276524817e+01    0.6204837    0.4761083  75.19  0.002035205    1.678    0.404
        42 -11.7013     82.7507    106.7142   4.7719134008e+01   4.4589399095e+01    0.5438144     0.344148 -80.97  0.002014392    2.591    0.614
        43 -12.7495    120.5925    106.1151   3.5607931990e+01   3.7065949172e+01    0.8453597    0.5492494  84.90  0.002157983    3.025    0.669
        44  -9.5429      1.4725    102.0001   7.9057891423e+01   5.5290729130e+01    0.2071625    0.1168121 -73.27 0.0003762503    1.543    0.352
        45 -11.5216    135.1661    119.7508   3.5236349860e+01   3.0934968989e+01    0.5818281    0.2077023 -47.72  0.001737445    2.863    0.651
        46  -9.6988    143.6519     97.8891   2.7421735451e+01   3.3644850213e+01    0.2152436    0.1888689 -54.57 0.0006540898    1.147    0.128
        47  -9.2542    145.6373    112.2850   3.0746028414e+01   3.0272095022e+01    0.1562843    0.1223071  87.18 0.0004278998    1.686    0.407
        48  -9.4596     96.1267    111.1932   4.4368488407e+01   4.0968382533e+01    0.2191974    0.1855652  67.00 0.0005945839    1.325    0.245
        49  -9.8511    137.6129     91.1502   2.6998464436e+01   3.6366156963e+01    0.3797801      0.22855 -83.67  0.001162768    4.042    0.753
        50 -10.1697    151.7967     87.1262   2.2644997545e+01   3.3841809366e+01     0.229242    0.2017529 -70.46 0.0005133531    1.174    0.148
        51 -10.2295     89.8675    109.8216   4.6080766513e+01   4.2505161473e+01    0.2689149    0.2203915  51.86 0.0004155078    1.266    0.210
        52  -8.9034    147.2710     83.2847   2.2551746138e+01   3.5610457820e+01    0.1423644    0.1194225  12.16            0    1.501    0.334
        53 -10.7160     98.5539    249.4910   6.6534683967e+01   9.3988065784e+00    0.2472178    0.2201548  19.65 0.0008867831    1.147    0.128
        54 -11.4790    159.3069    192.1050   4.4653879056e+01   1.1295231635e+01    0.3024626    0.2396184 -45.94 0.0008672053    1.399    0.285
        55 -10.7468     74.0379     77.7079   4.2558677998e+01   5.3023977585e+01    0.2298682    0.2057995  64.04 0.0005335114    1.259    0.206
        56 -10.6583     69.9880     76.7456   4.3844409277e+01   5.3986170708e+01    0.3036023    0.2471647  48.96 0.0008163863    1.301    0.232
        57 -13.6038    163.9397     70.3353   1.5634391125e+01   3.3926084691e+01     1.122227    0.9000882  -0.30  0.001003287    1.706    0.414
        58  -9.6976    213.9214    244.8601   4.2320268785e+01  -4.3058182485e+00    0.1714544    0.1143663  -5.18  0.000684659    1.217    0.178
        59 -10.5204     64.9891    251.0000   7.4096692716e+01   1.3279925823e+01    0.1726231   0.05675803  29.84 0.0004226632    2.442    0.591
        60 -12.4310    184.2516     50.9189   7.3398014987e+00   3.2127839463e+01    0.4287058    0.3794027 -76.09 0.0009346542    1.027    0.026
        61 -11.4163     81.8971    235.7723   6.8954800443e+01   1.4080851776e+01     0.190142    0.1702946 -29.11 0.0005626529    1.364    0.267
        62  -9.6138     21.6930     70.3781   6.4251991013e+01   6.2057972030e+01    0.1821768    0.1264299  -0.50 0.0009369239    1.540    0.351
        63 -13.1475    172.8020    174.1304   3.8365182292e+01   1.2497961973e+01      0.79316    0.6241643 -17.62  0.001546147    1.247    0.198
        64  -9.2407    109.7635     63.5533   2.5759364542e+01   4.8161671524e+01    0.2103067    0.1428097  64.75 0.0007104499    1.615    0.381
        65 -10.0279     13.1606     59.8327   6.6144044246e+01   6.5248303808e+01    0.1859044    0.1819078  85.44 0.0005118137    1.203    0.169
        66  -9.4018     96.5318     57.5389   2.7599023915e+01   5.2324451661e+01    0.2609957    0.1411453  61.17 0.0007876584    2.199    0.545
        67 -11.3868     95.1166    249.4108   6.7288816967e+01   9.8525485539e+00    0.1826997    0.1739974  -9.52 0.0004349401    1.254    0.203
        68 -11.5602     60.7737     21.5676   2.5208804118e+01   6.5762660181e+01     0.332293    0.2117774  51.98   0.00126744    1.500    0.333
