#   1 NUMBER                 Running object number                                     
#   2 MAG_AUTO               Kron-like elliptical aperture magnitude                    [mag]
#   3 X_IMAGE                Object position along x                                    [pixel]
#   4 Y_IMAGE                Object position along y                                    [pixel]
#   5 X_WORLD                Barycenter position along world x axis                     [deg]
#   6 Y_WORLD                Barycenter position along world y axis                     [deg]
#   7 A_WORLD                Profile RMS along major axis (world units)                 [deg]
#   8 B_WORLD                Profile RMS along minor axis (world units)                 [deg]
#   9 THETA_WORLD            Position angle (CCW/world-x)                               [deg]
#  10 FWHM_WORLD             FWHM assuming a gaussian core                              [deg]
#  11 ELONGATION             A_IMAGE/B_IMAGE                                           
#  12 ELLIPTICITY            1 - B_IMAGE/A_IMAGE                                       
         1 -14.8411     68.5742    144.3159   9.8660638024e+01   3.7663937777e+01     4.958427     2.607414  70.45  0.004845913    3.617    0.724
         2 -14.4199    204.5160     40.9208   4.0875484480e+01   2.9427056338e+01     1.769032     1.471442  31.38  0.006974551    1.680    0.405
         3 -14.3341    217.0411     29.2265   3.6879597550e+01   2.8141286729e+01     1.071792     0.871321  39.59   0.00669631    1.733    0.423
         4 -13.4011    243.0271      5.0067   2.9868496299e+01   2.5513004987e+01    0.7681428    0.4830099  87.75    0.0050649    1.388    0.280
         5 -10.2627     47.7734      2.3101   6.1758795795e+01   6.8430266489e+01    0.1805775     0.158527  28.73 0.0004760521    1.239    0.193
         6  -9.7345     56.6919      1.5374   5.8011500028e+01   6.6958901609e+01    0.1503933    0.1046977  53.49 0.0009331494    1.514    0.340
         7 -11.6621    184.3971    214.3544   8.2627232096e+01   2.3446255591e+00    0.3171953    0.2257719  47.74  0.001719405    1.584    0.369
         8 -11.2008    139.7121    248.9538   9.7171205374e+01   3.3507507529e+00    0.3441353    0.2159176 -57.52  0.001914357    1.983    0.496
         9 -16.7091     31.1629    180.9278   1.1382191356e+02   3.3145905660e+01     10.33249     4.196334  71.35     0.036499    3.835    0.739
        10  -9.6763     84.6808    185.3407   1.0092074049e+02   2.5155159382e+01    0.3026677    0.1981209 -87.39  0.001145565    1.821    0.451
        11 -10.5957     81.2591    182.0114   1.0130179072e+02   2.6470137719e+01    0.4446374    0.3382504  65.96   0.00120402    1.335    0.251
        12 -10.0225     99.3689    180.8495   9.6496619926e+01   2.3886919428e+01    0.2581967    0.2078636  32.05 0.0005852208    1.285    0.222
        13 -10.7980    241.0260    178.4996   6.5329313242e+01  -4.8808780563e-01    0.1835425    0.1234358  35.12  0.001042798    1.620    0.383
        14 -10.3345    187.9001    176.2976   7.4824184658e+01   8.8049310026e+00    0.3598556    0.3117665  74.74  0.001670524    1.507    0.336
        15 -12.1416     69.1579    168.8184   1.0251225848e+02   3.1456981209e+01    0.3514462    0.2783276 -38.21 0.0005967465    1.490    0.329
        16  -9.5721     90.5126    175.5165   9.7910456341e+01   2.6599756545e+01    0.1463342    0.1351288  73.94 3.875801e-05    1.026    0.026
        17  -9.5123    147.9849    174.0231   8.3229119564e+01   1.6737371279e+01    0.2223983    0.1803602  78.63   0.00035392    1.558    0.358
        18 -12.6090    173.5262    212.4339   8.4557592939e+01   4.4637420593e+00    0.6683344    0.2599179  26.57  0.002209415    3.810    0.738
        19 -12.9234     78.5549    159.8305   9.8521657954e+01   3.2312864722e+01     1.099837    0.5194811  49.43 0.0004426721    2.311    0.567
        20 -13.6495     65.9981    155.4689   1.0130246768e+02   3.5225418022e+01    0.6080795    0.4609925 -50.96  0.001473578    1.334    0.250
        21 -14.0380     16.9740    216.8635   1.1990589098e+02   2.6387001048e+01    0.7364854     0.471115  35.87  0.003497258    1.608    0.378
        22 -11.6482     34.7023    160.9639   1.1073663391e+02   3.7647376795e+01    0.4236975      0.30404  36.04  0.001641056    1.489    0.328
        23 -11.7777    193.6168    195.8620   7.7430804637e+01   4.1292685880e+00     1.030417    0.5868667 -67.14  0.003409628    4.973    0.799
        24  -8.9571    130.9919    157.4718   8.4049306298e+01   2.3717482095e+01    0.2221621    0.1264402  60.84 0.0005142067    2.493    0.599
        25 -12.3358     85.8455    153.3347   9.5344457821e+01   3.2790968315e+01    0.6411327    0.4665284 -21.37  0.002950191    1.906    0.475
        26 -11.0995    133.5887    144.2673   8.0548786678e+01   2.6256949264e+01     1.123268    0.2916088 -55.06  0.002547885    6.013    0.834
        27  -8.9557    112.1756    150.3860   8.7502502466e+01   2.8954531086e+01    0.2114484    0.1392295  49.41 0.0004990119    1.566    0.362
        28 -10.1960    174.8909    149.1510   7.1882533362e+01   1.6773687090e+01    0.2277541    0.2080883 -83.26 0.0005533444    1.244    0.196
        29 -17.2188     18.4495    242.7598   1.2116188520e+02   2.0869335337e+01     6.838172     2.186525  27.46   0.01779933    4.139    0.758
        30 -11.2104     31.7088    144.0193   1.0942227120e+02   4.2167113021e+01     0.582206    0.2251393  34.72  0.002471864    2.607    0.616
        31 -10.3895     99.3323    140.3210   8.8950031382e+01   3.3723491795e+01     0.304316    0.2851398  47.43 0.0008750398    1.080    0.074
        32 -10.1310    102.0162    137.5065   8.7582507829e+01   3.3927338057e+01    0.3430502    0.2579693  -8.15  0.001533605    1.866    0.464
        33 -12.5864     87.6024    138.6534   9.1984007706e+01   3.6145663372e+01    0.3044392    0.2715324 -42.58 0.0004757362    1.151    0.131
        34 -10.2421    121.3596    196.6495   9.3649398287e+01   1.6566461481e+01    0.3562907    0.2139638 -81.96 0.0009389141    2.791    0.642
        35 -10.5292    105.9818    130.8159   8.4958946881e+01   3.4809110384e+01    0.3956626    0.3198024 -60.72  0.001684018    1.253    0.202
        36 -10.3508    110.1665    129.8429   8.3548894571e+01   3.4248742900e+01    0.3430242    0.2561028  20.63 0.0007855695    1.608    0.378
        37  -9.2586    194.1236    171.1818   7.2520158678e+01   8.6592107869e+00    0.1886739    0.1752558  89.19  0.001074739    1.335    0.251
        38  -8.9339    200.0299    142.9604   6.5386904116e+01   1.2994115041e+01     0.174458     0.151227 -38.28 0.0009525237    1.082    0.076
        39 -10.8947    134.9796    128.0918   7.6441934858e+01   2.9662210862e+01     0.459633    0.3126246 -47.90  0.002052637    1.463    0.316
        40  -9.8967    160.8636    128.3306   7.0223410914e+01   2.4088821575e+01    0.2804247    0.2130018 -55.32  0.001290697    1.364    0.267
        41 -10.6487    230.3113    166.6584   6.4836236208e+01   3.1878648317e+00    0.2252737    0.1240588 -42.40 0.0008304952    1.677    0.404
        42 -11.1553     97.4213    125.6616   8.6253378214e+01   3.7617237387e+01     0.307127    0.2554238   6.90 0.0006087365    1.436    0.304
        43  -9.1944    116.4647    124.4769   8.0514162247e+01   3.4278441573e+01    0.1537036    0.1505154 -24.22 0.0001633108    1.047    0.045
        44 -11.4721     44.6038    123.6089   1.0229068234e+02   4.5910836867e+01    0.2942885     0.239431 -49.51  0.001072426    1.163    0.140
        45  -9.8451    106.9821    118.8507   8.1826887714e+01   3.7444760316e+01    0.2157726    0.2131976 -25.30 0.0003368426    1.025    0.025
        46 -15.4312      9.3786    207.5590   1.2089396528e+02   2.9151623645e+01     1.296122     1.126895 -68.00  0.007829527    1.361    0.265
        47  -8.9390     81.5805    116.4990   8.8943360271e+01   4.2547732066e+01    0.1476717    0.1402965 -54.70 0.0001029883    1.016    0.016
        48 -10.5236     21.9817    114.0352   1.0804350303e+02   5.0449470537e+01    0.1968175    0.1432367  67.18 0.0003872556    1.602    0.376
        49 -12.3192     64.5867    173.4233   1.0439314454e+02   3.0955414471e+01    0.4743337    0.3130648 -37.57  0.002262444    1.963    0.491
        50 -10.8135     33.5353    109.5150   1.0336973904e+02   5.0523217818e+01    0.3410233    0.2043856  84.58   0.00143023    2.402    0.584
        51 -10.2201    205.4421    110.1112   5.6997213689e+01   1.8097872948e+01    0.2936129    0.2162851  48.05 0.0009895327    1.474    0.321
        52 -10.6385     28.2709    107.3595   1.0477913147e+02   5.1531685820e+01    0.2743259    0.2047575  -8.34 0.0007518694    1.592    0.372
        53  -9.7397    147.8427    186.7234   8.5676772438e+01   1.4027027104e+01    0.2906668    0.1652325 -35.94  0.001224729    2.075    0.518
        54 -10.1253     39.0845    101.8777   9.9922336647e+01   5.1798268929e+01    0.2011249    0.1760253  72.08 0.0005121648    1.324    0.245
        55 -10.2274    120.8359     98.0564   7.2450108364e+01   3.9249251327e+01    0.2418833    0.2114994 -86.13 0.0009517961    1.315    0.240
        56 -13.1819    243.2782     93.4654   4.7713731715e+01   1.3373645240e+01    0.7101964    0.3035413 -48.13  0.003170019    2.084    0.520
        57  -9.5577     32.5193     96.5052   1.0115061803e+02   5.3723218749e+01     0.225363    0.1091945  37.99   0.00102477    2.326    0.570
        58 -10.2002     11.0808     92.7582   1.0827418701e+02   5.6298602727e+01     0.174016    0.1617995  83.74 0.0005327291    1.223    0.183
        59 -10.3222     53.1341     90.8682   9.2301090248e+01   5.2724988297e+01     0.205577    0.1901482 -77.08 0.0005283177    1.213    0.176
        60  -9.3638    152.0390     83.9891   6.0799554438e+01   3.4988217069e+01    0.2447489    0.1801517 -79.48 0.0007439954    1.748    0.428
        61 -10.2898     72.0238     83.1345   8.3404456293e+01   5.1695067118e+01    0.4139692    0.2399664  57.72  0.001670067    2.710    0.631
        62  -9.7281    160.1736     82.8122   5.8734439752e+01   3.3295528909e+01     0.201395    0.1790975  19.50 0.0004256824    1.325    0.246
        63  -9.4411     92.3955     66.7082   7.1446620790e+01   5.1304972599e+01    0.2427065    0.1723709  54.70 0.0006881853    1.572    0.364
        64 -10.8067     13.4389     59.9190   1.0024940705e+02   6.3380046723e+01    0.2397367    0.1923168 -52.45 0.0004173144    1.168    0.144
        65 -13.2501    195.2760     47.3797   4.3576462841e+01   3.0661985797e+01    0.8214425    0.6448578  31.92  0.001171231    1.760    0.432
        66  -9.7958    135.2726    246.6532   9.7791073636e+01   4.4223532130e+00    0.1237734   0.09159476  63.95 0.0002720707    1.624    0.384
        67  -9.0378     72.3559     54.7403   7.4172761480e+01   5.7144840111e+01    0.1270687    0.1079959  69.33 0.0005780073    1.618    0.382
        68  -9.9223    137.0048     43.2261   5.2133209801e+01   4.5147941443e+01    0.2588351    0.1907276 -79.96  0.000932747    1.667    0.400
        69  -9.9011     47.9757     42.4747   7.9220115113e+01   6.3061185255e+01    0.3810915    0.1787688  46.08   0.00167501    2.838    0.648
        70  -9.9272     89.4907    211.4216   1.0331363451e+02   1.8448902497e+01    0.2282183    0.2034727  79.79  0.000579173    1.090    0.082
        71 -10.2798    198.0072     23.9390   3.7633260284e+01   3.3038986818e+01    0.2626235    0.1901103 -22.04  0.001037358    1.793    0.442
        72  -9.6001    189.4985     15.0066   3.6419518459e+01   3.6002266186e+01    0.1744813    0.1195734 -38.21 0.0005769238    1.545    0.353
        73 -11.8853    156.5452    217.9385   8.9100324578e+01   6.2556346706e+00    0.3179596    0.2380108 -53.07  0.001251944    1.530    0.347
        74 -10.8095    111.5460    204.4139   9.7183018503e+01   1.6510558420e+01    0.3206852    0.2372098  86.29 0.0005326023    1.656    0.396
