#   1 NUMBER                 Running object number                                     
#   2 MAG_AUTO               Kron-like elliptical aperture magnitude                    [mag]
#   3 X_IMAGE                Object position along x                                    [pixel]
#   4 Y_IMAGE                Object position along y                                    [pixel]
#   5 X_WORLD                Barycenter position along world x axis                     [deg]
#   6 Y_WORLD                Barycenter position along world y axis                     [deg]
#   7 A_WORLD                Profile RMS along major axis (world units)                 [deg]
#   8 B_WORLD                Profile RMS along minor axis (world units)                 [deg]
#   9 THETA_WORLD            Position angle (CCW/world-x)                               [deg]
#  10 FWHM_WORLD             FWHM assuming a gaussian core                              [deg]
#  11 ELONGATION             A_IMAGE/B_IMAGE                                           
#  12 ELLIPTICITY            1 - B_IMAGE/A_IMAGE                                       
         1 -14.7314    160.1532     52.3487   7.4596443333e+01   3.8578280795e+01     1.148147    0.9304966  -6.12  0.003401905    1.304    0.233
         2 -14.6336    173.1301     23.6140   6.2568196887e+01   3.8943693520e+01    0.9374756    0.8827631  68.67  0.004417973    1.054    0.051
         3 -12.7253    144.3700    213.0849   1.1495515287e+02   1.3088651425e+01     0.267363    0.2075594  47.92  0.001435782    1.208    0.172
         4 -20.2488     75.2855    175.2319   1.2499264608e+02   2.9947712880e+01     13.52093     6.133768 -68.04   0.06593332    2.334    0.571
         5 -16.1600     43.0472    152.0955   1.3014428777e+02   3.8538853568e+01     1.316945    0.8183995 -72.67  0.005244721    1.476    0.323
         6 -11.4076     11.1986    238.3333   1.4150800864e+02   2.5358185052e+01    0.1432494   0.08882909  39.01 0.0006593792    1.492    0.330
         7 -11.3004      9.5728    212.7681   1.4091294349e+02   2.9722513257e+01    0.1420943   0.07987427 -82.16 0.0006108393    1.664    0.399
         8 -12.4462    207.6858    220.0790   1.0396384314e+02   2.3119269947e+00    0.1654491     0.129034  11.53 0.0006497013    1.118    0.106
         9 -10.3087     17.0186    209.2502   1.3944801437e+02   2.9695543088e+01    0.1773309    0.1172097  36.09  0.001329582    1.530    0.346
        10 -13.2330     11.8087    206.1227   1.4026073723e+02   3.0700783590e+01    0.3937975    0.2498733  25.37  0.002652388    1.938    0.484
        11 -13.4410    133.2789    195.1567   1.1478567238e+02   1.7716631275e+01    0.4179423    0.2451138  57.13  0.001683603    2.007    0.502
        12 -12.6738    128.2757    194.7729   1.1578776172e+02   1.8573569874e+01     0.243473    0.1781988  58.20 0.0006859706    1.432    0.302
        13 -12.0784     15.4239    195.6269   1.3913924723e+02   3.2300254377e+01    0.1698285     0.138951  86.76 0.0007839765    1.205    0.170
        14 -11.6187    161.2111    236.7545   1.1474731202e+02   7.2291579161e+00    0.2085805     0.142321  50.17 0.0008225577    1.510    0.338
        15 -10.6439    141.1779    237.0429   1.1846465739e+02   1.0104285690e+01    0.1442558    0.1166665  36.26 0.0003359801    1.074    0.068
        16 -10.8488     40.1727    245.0739   1.3705077308e+02   2.1553583518e+01     0.129257   0.09930993  65.19 0.0009528557    1.127    0.112
        17 -12.0092    119.3975    234.7183   1.2225389335e+02   1.3516880851e+01    0.2030234    0.1678366 -26.58  0.001483155    1.698    0.411
        18 -11.1944    121.8807    230.6511   1.2137283690e+02   1.3768901311e+01    0.2909087    0.1685819  69.96  0.001543453    2.737    0.635
        19 -12.7354    193.3367    170.0938   9.8050742505e+01   1.1416079080e+01    0.2634661    0.2326278   7.18 0.0006269396    1.090    0.083
        20 -11.3090    134.8069    233.3917   1.1924233453e+02   1.1528979413e+01    0.1544364    0.1509523  57.74 0.0002940999    1.286    0.223
        21 -13.2977    132.0008    129.0716   1.0336940992e+02   3.0552953373e+01    0.3159239    0.2706419  23.76 0.0007354383    1.178    0.151
        22 -15.6448    134.0285    146.3984   1.0648277759e+02   2.6651673366e+01     1.596763     0.633141 -57.33  0.005378709    3.695    0.729
        23 -13.4699    128.4096    143.6567   1.0731957927e+02   2.8229408658e+01    0.3100908    0.2862736 -76.61  0.001111879    1.206    0.171
        24 -14.5002    135.9182    128.1716   1.0217506693e+02   2.9979642753e+01     2.131573    0.3692727 -50.20  0.004154387    9.397    0.894
        25 -15.3004    143.2986    143.6359   1.0369095574e+02   2.5463881112e+01     1.228506    0.6093273 -62.97  0.004081956    3.998    0.750
        26 -12.0168    191.8389    151.7993   9.4643214059e+01   1.4562141171e+01    0.3408975     0.245907 -48.06  0.001700051    1.748    0.428
        27 -13.4959    163.3475    151.7881   1.0073393520e+02   2.0086590300e+01    0.3216397    0.2838597 -18.57  0.000968166    1.177    0.150
        28 -12.5407    174.6553    149.3011   9.7728615821e+01   1.8328338804e+01    0.2635601    0.2148961  38.14 0.0006555492    1.163    0.140
        29 -10.9338    117.8618    243.2879   1.2336793356e+02   1.2497320686e+01    0.1246318   0.09880525  34.26 0.0004201729    1.179    0.152
        30 -13.4843    128.2666    228.6466   1.1995096345e+02   1.3156113998e+01    0.7518635    0.3022581  32.39  0.003156956    2.355    0.575
        31 -12.4331     11.0668    144.1862   1.3722752935e+02   4.2982098331e+01     0.302607    0.2046309 -37.63  0.001646675    2.029    0.507
        32 -11.5695     18.0053    154.5938   1.3630063517e+02   4.0242721479e+01    0.1960851    0.1288601 -56.84  0.001058489    1.670    0.401
        33 -11.2563     26.9579    225.5021   1.3839748175e+02   2.5992675984e+01    0.1790003    0.1134186 -69.19  0.001342387    1.812    0.448
        34 -13.1989    160.4024    127.7192   9.6120704726e+01   2.5119223576e+01    0.3948942    0.2887124 -51.00  0.001391208    1.580    0.367
        35 -11.3560    137.0211    222.7653   1.1760301895e+02   1.2747141014e+01    0.1680079    0.1626828  26.40  0.000578562    1.236    0.191
        36 -12.3266    130.1737    238.4935   1.2064799802e+02   1.1469343119e+01    0.2045872     0.162549 -39.49  0.001083407    1.689    0.408
        37 -11.8723    151.8170    229.1457   1.1555806566e+02   9.6312748317e+00    0.1958714     0.164414 -76.58  0.001186612    1.733    0.423
        38 -15.3535    151.9710    151.5173   1.0325805475e+02   2.2310206078e+01     1.396147    0.8642405 -84.75   0.00392212    6.611    0.849
        39 -11.1604    231.2795    113.8589   7.8552109547e+01   1.2495614952e+01    0.2185394    0.1955128  45.74 0.0008752164    1.296    0.228
        40 -12.0372      6.3623    221.9306   1.4177870310e+02   2.8433103030e+01    0.2491053   0.09677661 -80.97    0.0015703    2.399    0.583
        41 -11.2391    205.8001    110.1967   8.2170396743e+01   1.8392918252e+01    0.2083936    0.1626025  12.98 0.0006231327    1.303    0.233
        42 -12.6927    187.3630    153.9078   9.6007308794e+01   1.5084416811e+01    0.4717099    0.2418395  36.62  0.002087144    1.811    0.448
        43 -11.7483     32.0728    104.2455   1.2755396405e+02   5.0439922271e+01    0.2613781     0.187506 -11.59  0.001457351    1.865    0.464
        44 -11.9786    144.2430    221.1270   1.1600902510e+02   1.1907005859e+01    0.2250655    0.1878181  49.60  0.001023466    1.204    0.169
        45 -13.6409    149.0415     65.8359   8.1570331297e+01   3.9184245901e+01    0.4789739    0.4276447  51.09 0.0008878281    1.153    0.133
        46 -15.2369    186.6165    242.4239   1.1089023251e+02   2.8406215926e+00      1.01455    0.3608298  35.74  0.005044669    2.116    0.527
        47 -13.3919    164.8063     43.5086   7.0693940857e+01   3.8655093778e+01    0.4843183    0.4328088 -12.73 0.0007651221    1.129    0.114
        48 -12.6806    139.3016    215.6557   1.1628637988e+02   1.3474204735e+01    0.4152537    0.2574964 -65.41 0.0008376824    2.385    0.581
