#   1 NUMBER                 Running object number                                     
#   2 MAG_AUTO               Kron-like elliptical aperture magnitude                    [mag]
#   3 X_IMAGE                Object position along x                                    [pixel]
#   4 Y_IMAGE                Object position along y                                    [pixel]
#   5 X_WORLD                Barycenter position along world x axis                     [deg]
#   6 Y_WORLD                Barycenter position along world y axis                     [deg]
#   7 A_WORLD                Profile RMS along major axis (world units)                 [deg]
#   8 B_WORLD                Profile RMS along minor axis (world units)                 [deg]
#   9 THETA_WORLD            Position angle (CCW/world-x)                               [deg]
#  10 FWHM_WORLD             FWHM assuming a gaussian core                              [deg]
#  11 ELONGATION             A_IMAGE/B_IMAGE                                           
#  12 ELLIPTICITY            1 - B_IMAGE/A_IMAGE                                       
         1 -12.3353    174.2774     42.2141   7.9656279167e+01  -8.4373313022e+01   0.07479496   0.02143132  48.44  0.009639685    3.478    0.712
         2 -12.7941    159.9012     37.9497   8.0013004494e+01  -8.4471822298e+01   0.02822911   0.01583399  56.31  0.004079456    1.776    0.437
         3 -13.9884    193.7159     81.7911   7.6894162041e+01  -8.4248565627e+01   0.05300456    0.0344591   3.65   0.01031043    1.576    0.365
         4 -14.0721    193.3018     64.8381   7.8048568236e+01  -8.4248214422e+01   0.06050244   0.02242278   2.10  0.008401577    2.770    0.639
         5 -13.4074    183.6057     57.7664   7.8552440339e+01  -8.4314035330e+01   0.04842541   0.01928623  19.35  0.007456766    2.474    0.596
         6 -13.2179    201.9630     33.4384   8.0144012343e+01  -8.4175546392e+01   0.04085908   0.01767861  80.51  0.006410614    2.324    0.570
         7 -13.6777    210.1724     59.4222   7.8380732459e+01  -8.4128604907e+01   0.03149266   0.01932627 -64.05  0.003175382    1.605    0.377
         8 -10.5925     39.9062     41.6684   8.0311046451e+01  -8.5312460220e+01   0.01993266   0.01396605 -28.98  0.004005499    1.483    0.326
         9 -14.1204     56.8794     66.6629   7.8185334421e+01  -8.5203767587e+01   0.05990069   0.02462471  16.01  0.009341881    2.423    0.587
        10 -14.1872     10.7761     69.0078   7.8093637852e+01  -8.5527127757e+01    0.0532736   0.03234426  81.24   0.01000522    1.610    0.379
        11  99.0000     30.7371     20.8834   8.2111660584e+01  -8.5363272227e+01   0.02589847   0.01667065  -0.26  0.004993976    1.618    0.382
        12 -11.6664     41.8480     20.7257   8.2034300286e+01  -8.5285702598e+01   0.01838856   0.01231698  73.80  0.001946981    1.489    0.329
        13 -13.6831     62.5860     34.9818   8.0728406387e+01  -8.5150306530e+01   0.08088472   0.03007123   4.27   0.01188014    2.770    0.639
        14 -12.8451     46.9130     30.7158   8.1174156492e+01  -8.5257173297e+01   0.04010795    0.0175622 -61.85   0.00647109    2.184    0.542
        15 -12.5287     53.3608     21.2824   8.1898306121e+01  -8.5205834838e+01   0.03352437   0.01172644 -50.33    0.0040921    2.827    0.646
        16 -14.0628      9.7305     38.2863   8.0779642443e+01  -8.5521385650e+01   0.05241882   0.03446053 -20.91    0.0101918    1.600    0.375
        17 -12.7087     25.0561     41.1286   8.0440626737e+01  -8.5415935236e+01   0.04102194   0.01559638  22.55  0.006226979    2.528    0.604
        18 -12.9212     72.4214     25.3520   8.1433849516e+01  -8.5075672091e+01   0.02265525   0.01644274  10.52 0.0006948565    1.404    0.288
        19 -12.5288     80.1772     22.2801   8.1621788859e+01  -8.5019491974e+01   0.02294732   0.01833647 -18.65  0.004933635    1.305    0.234
        20 -12.8072    226.1470     22.7395   8.0741151662e+01  -8.4000763963e+01   0.01429462   0.01257029  88.38   0.00188794    1.107    0.097
        21 -12.3735    217.8263     28.1435   8.0426391650e+01  -8.4061912854e+01     0.021789   0.01403733 -43.51  0.002408793    1.580    0.367
        22 -11.3740    212.4117     20.1865   8.0976947828e+01  -8.4095167155e+01    0.0159247  0.005515424  17.16  0.002306362    2.774    0.640
        23 -11.7413    192.3699     19.5996   8.1122593493e+01  -8.4234731366e+01   0.01585929   0.01009798  64.89  0.001356348    1.569    0.363
        24 -11.9141    204.4810     17.6218   8.1189249400e+01  -8.4148946040e+01   0.01476256  0.006162762 -56.49   0.00149361    2.320    0.569
        25 -11.5520    130.0154     19.1536   8.1523478857e+01  -8.4669648606e+01   0.00803942  0.006277312 -58.71 0.0005180914    1.267    0.211
        26 -10.7208    121.9859     17.8872   8.1669183911e+01  -8.4724808334e+01   0.01139412  0.005113023 -28.71  0.001783747    2.444    0.591
        27 -14.0580    244.5991      8.1689   8.1581080977e+01  -8.3862819307e+01   0.03195088   0.01127044 -57.65  0.003098365    2.689    0.628
        28 -11.8331    232.5679      3.8012   8.1931060051e+01  -8.3943672810e+01   0.01954387  0.009629197 -12.41  0.003239958    2.214    0.548
        29 -10.9430    228.7674     10.2561   8.1537202609e+01  -8.3974666266e+01   0.01933088   0.01059109 -35.95  0.002425048    1.912    0.477
        30 -12.8320    221.3005      8.1304   8.1718839229e+01  -8.4025299377e+01   0.01822224  0.007687352 -30.22  0.001238615    2.616    0.618
        31 -11.1340     94.1527     16.0078   8.2006425999e+01  -8.4917593325e+01  0.008317355  0.005311752  76.59  0.001583377    1.564    0.361
        32 -10.9839    149.9678     13.0146   8.1835593866e+01  -8.4526227341e+01  0.006711839  0.005170613 -55.58  0.001212549    1.290    0.225
        33  -9.4186    133.4232     12.5731   8.1980193104e+01  -8.4641283888e+01  0.008999866  0.004916952 -20.56  0.001567098    1.980    0.495
        34 -10.7403    124.9305     10.8874   8.2164001545e+01  -8.4699250887e+01   0.01403901  0.007073327  21.74  0.002221132    1.944    0.486
        35  -9.5234    167.1818     12.5727   8.1754210958e+01  -8.4405855933e+01  0.006936797  0.002711426   0.82  0.001015721    2.709    0.631
        36 -10.0803    142.0579     12.1514   8.1950819149e+01  -8.4580770710e+01  0.006822518  0.003471025  41.72  0.001162687    1.937    0.484
        37 -10.3844    108.7301      9.5740   8.2383405468e+01  -8.4811157157e+01  0.009337081  0.005040227  -5.47  0.001079446    1.978    0.494
        38 -10.9633    111.7314      4.9322   8.2706587012e+01  -8.4786574811e+01   0.01151464  0.005503517 -73.48  0.001171141    1.985    0.496
        39 -11.1741    116.2968      8.9100   8.2374587935e+01  -8.4757919912e+01   0.01073096  0.005467126   7.15  0.001314142    2.010    0.503
        40 -10.6221     88.5867     11.5993   8.2387938073e+01  -8.4953078716e+01  0.007650044  0.005831139  21.50  0.001602125    1.319    0.242
        41  -9.3949    213.0520     12.0462   8.1510577409e+01  -8.4085506638e+01  0.006478652  0.003466996 -45.39  0.001122777    1.898    0.473
        42 -12.4328     57.9060      4.4722   8.3216068841e+01  -8.5160833120e+01   0.01895723   0.01184725 -80.87  0.003093976    1.551    0.355
        43 -11.0754     77.0308      4.8181   8.3012032249e+01  -8.5028058074e+01  0.007106283  0.005138271  23.48 0.0003893953    1.383    0.277
        44 -12.4114     78.8789      9.8552   8.2602633135e+01  -8.5019336144e+01   0.01083673  0.006569818  80.20  0.001304198    1.654    0.395
        45 -12.3474     68.2288      6.8140   8.2934083788e+01  -8.5091002008e+01   0.02547477   0.01266132  82.33    0.0042662    2.054    0.513
        46 -10.7881     65.8398      2.0602   8.3332757906e+01  -8.5103529607e+01   0.01058858  0.004865189 -49.38  0.001350131    2.171    0.539
        47 -10.4230     47.4033      6.7353   8.3133100452e+01  -8.5235861253e+01   0.01304323  0.007777832  19.23  0.001587511    1.668    0.401
        48 -10.7612     47.3412      1.6126   8.3550848927e+01  -8.5231754538e+01  0.009926597  0.004482279  84.23  0.001564363    2.292    0.564
        49 -10.2371    130.9127      8.5792   8.2288749548e+01  -8.4655815199e+01  0.006985088  0.004554076  34.50  0.001351753    1.516    0.340
        50 -11.2424    100.9739      7.2600   8.2619413878e+01  -8.4863369561e+01   0.01074188  0.005687787   6.16  0.001094813    1.944    0.485
        51 -10.7512    104.5118      6.0685   8.2680444306e+01  -8.4837771753e+01  0.006036779  0.005471878 -84.32 0.0004545941    1.075    0.069
        52 -10.2215     26.9683      9.4129   8.3109053492e+01  -8.5380342417e+01  0.008578239  0.005223618  70.72  0.001588562    1.669    0.401
        53 -11.4238    193.9206      7.6550   8.1919550880e+01  -8.4215901717e+01  0.008808839  0.006488103  64.26  0.001225193    1.349    0.259
        54 -12.6815    173.1727      6.0086   8.2169433205e+01  -8.4359339724e+01   0.01455256  0.006848457  21.35  0.002434017    2.071    0.517
        55  -9.4521    157.0015      7.2956   8.2192226979e+01  -8.4473018287e+01  0.003917405  0.003113411 -85.90 0.0003259017    1.226    0.184
        56 -11.1911      2.8952      6.0285   8.3648543964e+01  -8.5544723172e+01   0.00790656  0.006952073 -60.00  0.001048249    1.127    0.113
        57  -9.1321    210.5129      6.4869   8.1892513390e+01  -8.4099371462e+01  0.003677249  0.003221672  53.73 0.0001532285    1.129    0.114
        58  -9.2483    163.4784      6.5078   8.2202003726e+01  -8.4427283512e+01  0.003500133  0.003409443 -84.74 2.929346e-05    1.012    0.012
        59  -9.3807    146.1515      5.8430   8.2373363905e+01  -8.4547527044e+01  0.004994802   0.00365326  45.53 0.0004380117    1.357    0.263
        60  -9.5410     91.2650      6.6295   8.2747976474e+01  -8.4930473349e+01   0.00364547  0.003449887  59.71 0.0002894354    1.043    0.041
        61  -9.6768     93.2116      4.0323   8.2930123191e+01  -8.4914774544e+01  0.005145018   0.00374344  51.58            0    1.369    0.269
        62 -10.5647    206.9339      3.2807   8.2127402780e+01  -8.4121988099e+01  0.005905911  0.004735143  12.84 0.0009610066    1.271    0.213
        63 -10.0616    183.5379      3.5542   8.2266296691e+01  -8.4285252090e+01  0.006467783   0.00508545 -57.66 0.0007133896    1.259    0.206
        64 -11.1286    187.0505      1.4381   8.2385621863e+01  -8.4259156219e+01  0.007796466  0.004214323  81.95 0.0004988073    1.864    0.463
        65  -9.8183    217.8567      1.8688   8.2149129388e+01  -8.4044807911e+01   0.01020644  0.005835258 -89.90   0.00175232    1.722    0.419
        66 -10.0116    213.3109      2.2701   8.2152402972e+01  -8.4076789521e+01  0.005639103   0.00457839  57.55 0.0004740099    1.220    0.180
        67 -12.1377     85.2023      1.5444   8.3192330091e+01  -8.4968389807e+01  0.009605873  0.004913532  89.48  0.001069233    1.949    0.487
        68  -9.4497      7.5156      2.5014   8.3902678117e+01  -8.5509317121e+01   0.00351264   0.00339737 -67.65 -3.78122e-05    1.031    0.030
        69  -9.7084    250.4087      1.4951   8.1969230985e+01  -8.3817635154e+01  0.003453818  0.003399379  67.41 8.290088e-05    1.017    0.017
        70  -9.9855     78.1856     92.1512   7.6119837268e+01  -8.5058467152e+01  0.005797903  0.004275292  44.80 0.0006613168    1.340    0.254
        71 -11.2136    216.0119     90.5468   7.6306169538e+01  -8.4093208029e+01  0.007308198  0.004538838 -26.04  0.001373541    1.655    0.396
        72 -11.0383    212.4747     88.9522   7.6411073262e+01  -8.4117880827e+01  0.005591537  0.004725866 -89.55 0.0005249791    1.154    0.133
        73 -13.2338    177.3733     85.3336   7.6653817102e+01  -8.4363397849e+01   0.05587719  0.007644576  59.60  0.005065571    6.937    0.856
        74 -12.4128    177.1334     71.6757   7.7602671583e+01  -8.4363014107e+01   0.03198082   0.00971415 -27.22  0.004038534    3.533    0.717
        75 -11.8706    166.1579     65.3585   7.8060973115e+01  -8.4438378325e+01   0.02184082    0.0105291  76.47  0.003642606    2.040    0.510
        76 -12.0590    170.6132     56.0485   7.8704035422e+01  -8.4404401569e+01   0.03803175   0.01317417 -83.01  0.002096593    2.784    0.641
        77 -10.7555     36.5569    248.7065   6.3125157040e+01  -8.5233361357e+01  0.006832825   0.00351451  -3.72  0.001143743    2.119    0.528
        78 -11.2435    113.6087    246.5632   6.4638908918e+01  -8.4709996689e+01    0.0111225  0.006546466  30.40  0.001234472    1.821    0.451
        79 -10.5717    180.8160    243.8087   6.5793552705e+01  -8.4252046820e+01  0.005252688  0.003992523 -53.00  0.001083348    1.359    0.264
        80 -14.2402    203.7092     77.7292   7.7163975862e+01  -8.4178020261e+01   0.03097273   0.02403121   3.00  0.005036373    1.322    0.243
        81  -9.8138    218.5245    239.5318   6.6540115672e+01  -8.3997249481e+01  0.003496992  0.003402136 -81.42 0.0001546535    1.031    0.030
        82 -10.1267     88.3317    238.7095   6.4818706542e+01  -8.4893522609e+01  0.003786507  0.002462317 -55.12 0.0003355173    1.628    0.386
        83  -9.7883     15.9739    238.5105   6.3552872100e+01  -8.5388672344e+01  0.005219071  0.002213249  49.54  0.000804354    2.262    0.558
        84 -14.0286    119.3738     63.8001   7.8268000106e+01  -8.4765474045e+01   0.06299663   0.02413032 -72.44  0.007385312    2.518    0.603
        85 -12.0435    144.1898     67.8679   7.7920539716e+01  -8.4592817636e+01   0.03474081   0.01498479 -44.37  0.005474947    2.365    0.577
        86 -12.4351    154.1849     63.1774   7.8238913990e+01  -8.4521603765e+01   0.03132932   0.01819534 -54.35  0.005754394    1.720    0.418
        87 -11.9700    197.4720     50.3277   7.9022949233e+01  -8.4214415006e+01   0.01525417   0.01110646 -27.78  0.002665654    1.421    0.296
        88 -12.7356    209.8455     46.8227   7.9220827415e+01  -8.4126494352e+01   0.05459837   0.01208254 -69.44  0.006442156    4.071    0.754
        89 -13.4549    219.0311     56.5966   7.8548585915e+01  -8.4065730689e+01   0.02922727   0.02527876   9.58  0.003656156    1.182    0.154
        90  -9.8123    157.6949    222.6956   6.6944299505e+01  -8.4435012123e+01  0.003819709  0.002390265  41.85 0.0007012526    1.600    0.375
        91 -11.3725    223.0506     88.4738   7.6445000816e+01  -8.4043792662e+01   0.01264582  0.005457091 -77.43  0.001992209    2.278    0.561
        92  -9.9489    225.6969     85.6600   7.6629962621e+01  -8.4025033910e+01  0.005436274  0.003258054  28.90  0.000329868    1.670    0.401
        93 -12.3497     48.2240     85.4823   7.6649806366e+01  -8.5267868898e+01   0.01202434  0.006724021  86.31   0.00179975    1.741    0.426
        94 -12.1714      3.8252     87.9183   7.6436951101e+01  -8.5578964460e+01   0.01464986  0.008152389 -84.41  0.002628488    1.757    0.431
        95 -11.4955    237.8141     86.4868   7.6576246024e+01  -8.3940261477e+01   0.01015409  0.006381067 -74.29  0.001008851    1.567    0.362
        96 -11.5896    231.6828     84.1837   7.6725919527e+01  -8.3982975636e+01   0.01170639  0.006531381 -56.13  0.001453838    1.797    0.443
        97 -12.8583    115.2084     80.2702   7.7038539734e+01  -8.4798157201e+01   0.01834303   0.01089501  31.22  0.002460999    1.679    0.404
        98  -9.7876    236.7051    145.9901   7.2727862029e+01  -8.3939563726e+01  0.004804359  0.004530472   7.52 0.0003862544    1.085    0.078
        99  -9.5299    229.1528    138.4010   7.3188044918e+01  -8.3994938172e+01  0.004952832  0.003102673 -72.74 0.0003209503    1.606    0.377
       100 -11.7538     12.0503     24.9455   8.1919840257e+01  -8.5496507939e+01   0.01092134  0.008460577 -44.36 0.0009600024    1.310    0.236
       101 -12.8602     37.7818     82.0769   7.6936474590e+01  -8.5340613292e+01   0.02067357   0.01297623  21.88  0.002025514    1.605    0.377
       102  -9.6315    184.7341    134.9877   7.3236192102e+01  -8.4306501874e+01  0.004473088  0.003093666  -1.13 0.0004843723    1.484    0.326
       103  -9.0400    203.0023    132.0000   7.3510963441e+01  -8.4179655626e+01  0.005654472  0.001969648  86.82 0.0004845173    2.797    0.643
       104  -8.9704    182.3046    125.3001   7.3894094168e+01  -8.4326118004e+01  0.003823309  0.002367627  45.72  0.000700566    1.591    0.371
       105 -13.8826     43.2706     72.2954   7.7748412767e+01  -8.5300452471e+01   0.03411707   0.02159802 -80.66   0.00654798    1.542    0.351
       106 -13.0973     32.8379     66.2578   7.8276675633e+01  -8.5371942011e+01   0.02464768   0.01495527  38.72  0.003971743    1.632    0.387
       107  -9.2349    152.6841    124.2616   7.3865687114e+01  -8.4533560576e+01  0.003693107  0.002430145 -52.13 0.0001583019    1.542    0.351
       108 -13.3546     79.5177     59.2947   7.8716575427e+01  -8.5043040517e+01   0.03712533   0.01260157  88.38  0.005194467    2.896    0.655
       109 -11.1321    182.2428    117.2091   7.4452240849e+01  -8.4328161441e+01   0.01100771  0.008255666 -39.94  0.002289686    1.357    0.263
       110  -9.9308    140.9831    120.0000   7.4133821148e+01  -8.4616357471e+01   0.00589022  0.001969783  87.45 0.0007982548    2.914    0.657
       111  -9.9714     72.8954    119.0691   7.3968200137e+01  -8.5092917124e+01  0.005231097  0.004397342 -53.30 0.0002662195    1.202    0.168
       112 -10.1625    203.9338    116.0574   7.4585817943e+01  -8.4176547186e+01   0.01312806  0.003457773 -72.63  0.001560763    4.024    0.752
       113 -12.7407     47.6003     56.1326   7.9076785010e+01  -8.5265241160e+01   0.02344543   0.01117383  18.22  0.001844144    2.086    0.521
       114 -10.1160    127.1788    114.8207   7.4472151402e+01  -8.4713907775e+01  0.005006402  0.003799723  51.13 0.0002957958    1.292    0.226
       115 -11.2853    165.1050    110.9677   7.4845906076e+01  -8.4448999304e+01  0.005395939  0.005114386  59.95 0.0004452679    1.033    0.032
       116 -12.7148     39.3402     57.1906   7.9018771018e+01  -8.5323432296e+01   0.02002644   0.01498824 -19.19  0.004166929    1.386    0.278
       117 -12.7596     28.6566     56.5101   7.9115577810e+01  -8.5397917208e+01   0.02295609   0.01622689  67.68   0.00258239    1.391    0.281
       118 -13.0029     80.9326     49.5024   7.9482718589e+01  -8.5029372545e+01   0.01987908   0.01523618  83.51  0.004192412    1.273    0.215
       119 -11.9122     75.9414     52.0061   7.9304763282e+01  -8.5065336298e+01  0.006872369  0.006229647 -14.99 0.0003251712    1.139    0.122
       120 -12.0852     75.2725     41.7987   8.0115674313e+01  -8.5065347801e+01  0.009527895  0.008592665 -68.45  0.001499802    1.095    0.087
       121 -12.5916     81.4353     40.4494   8.0191208987e+01  -8.5021583487e+01   0.01486925  0.009388145  83.52  0.001735785    1.556    0.358
       122 -11.7907    161.7885     84.0255   7.6747337338e+01  -8.4472408583e+01   0.02024194  0.009847813  69.83  0.003402699    2.003    0.501
       123 -12.1114    168.5210     80.4541   7.6997020850e+01  -8.4424828864e+01   0.01179069    0.0090836 -87.72  0.001050289    1.266    0.210
       124 -10.8591    168.5107     76.4663   7.7277070134e+01  -8.4424294353e+01  0.008277049  0.006290323 -75.75  0.001037686    1.292    0.226
       125 -10.3125     30.8925     85.3942   7.6658319651e+01  -8.5389226375e+01  0.007279303   0.00499496  16.14 0.0009167767    1.479    0.324
       126 -10.7219    246.6630     83.0192   7.6798446270e+01  -8.3877960124e+01  0.007289273  0.006698227  17.40 0.0008938471    1.107    0.097
       127 -10.8503    250.6962     81.6728   7.6883323422e+01  -8.3849564170e+01   0.01039613  0.006183078  21.19    0.0016598    1.694    0.410
       128 -11.6959    214.7798     83.4559   7.6776552832e+01  -8.4101257341e+01  0.006735663  0.006731391 -87.84   0.00075117    1.029    0.028
       129 -12.2262     51.1202     45.0825   7.9970596976e+01  -8.5235814217e+01   0.03054628   0.01111113  74.69  0.003660381    2.837    0.648
       130 -11.7579     96.9666     68.9140   7.7925015276e+01  -8.4923706994e+01  0.009203807  0.006449121  -5.01  0.001846605    1.472    0.321
       131  -9.5487    238.0239     81.0160   7.6929747193e+01  -8.3938209058e+01  0.004114579  0.003928861  82.03 0.0009501799    1.019    0.018
       132 -11.7503    221.2718     79.2628   7.7051529701e+01  -8.4055271032e+01  0.008713209  0.006471017  -4.08 0.0008046888    1.386    0.278
       133 -12.9626    217.7110     74.8886   7.7342702237e+01  -8.4079506942e+01   0.01862424  0.007835595  25.40  0.002928989    2.357    0.576
       134 -12.8867    220.8282     69.9909   7.7662690966e+01  -8.4056724841e+01   0.01361087   0.01082365  17.45   0.00292349    1.275    0.216
       135 -12.5913    232.6864     71.6546   7.7540134586e+01  -8.3974048213e+01   0.02553868   0.01184253   8.26  0.004201598    2.191    0.544
       136 -11.0016    249.8812     74.3230   7.7351960478e+01  -8.3854168851e+01   0.00899331  0.006646533   1.38  0.001114003    1.389    0.280
       137 -10.9360    248.9486     69.0236   7.7690697306e+01  -8.3859650794e+01   0.01416503  0.005672802  29.81  0.001778531    2.454    0.593
       138 -12.4998    234.3883     64.3638   7.8010956912e+01  -8.3960473437e+01   0.02587433   0.01592426  -3.04  0.004888007    1.676    0.403
       139 -11.4328    241.9411     67.7480   7.7781362792e+01  -8.3908421118e+01   0.01948565  0.006964374  31.00  0.001689856    2.730    0.634
       140 -10.9582    225.9382     50.5139   7.8930634630e+01  -8.4015319392e+01   0.01242194  0.007000611  27.32  0.001103711    1.760    0.432
       141 -11.6090    247.9991     60.9331   7.8208124418e+01  -8.3864288083e+01   0.01133963  0.007760731 -75.62  0.001107436    1.429    0.300
       142 -12.5462    242.2602     61.1246   7.8206334365e+01  -8.3904508129e+01   0.00865082  0.007921923 -14.98 0.0003721195    1.126    0.112
       143 -10.9351    239.9963     56.4747   7.8509755164e+01  -8.3918973009e+01  0.008429246  0.004096797  78.22 -5.781088e-05    2.029    0.507
       144 -11.4955    238.2610     51.4643   7.8836499979e+01  -8.3929442530e+01     0.014117     0.010186  -8.39  0.002107101    1.435    0.303
       145 -12.7021    233.3853     46.6835   7.9158772006e+01  -8.3961772915e+01   0.02162517   0.01265611  76.60  0.002534192    1.684    0.406
       146 -11.2470     82.6019     78.5970   7.7189815656e+01  -8.5026251125e+01  0.009193276  0.007783033 -41.72  0.001756195    1.202    0.168
       147 -10.7339     86.7727     74.4498   7.7510852131e+01  -8.4996308736e+01   0.01361935  0.005129158   4.92  0.002011015    2.707    0.631
       148 -11.3070     82.3856     72.9033   7.7638090285e+01  -8.5026712739e+01   0.01087137  0.005765383  70.64  0.001897533    1.849    0.459
       149 -12.8236     98.2656     77.7855   7.7239832185e+01  -8.4916429455e+01   0.02571227  0.009382783 -33.53  0.002680543    2.858    0.650
       150 -10.0453    155.7700     76.9396   7.7254111047e+01  -8.4513593115e+01   0.00802309  0.004844025 -69.50  0.001219295    1.631    0.387
       151 -11.2052    226.0350     74.2846   7.7375139957e+01  -8.4021117086e+01  0.007096056  0.004266787  37.41  0.001189119    1.649    0.394
       152 -12.5069     72.7884     73.8708   7.7574960369e+01  -8.5094113902e+01   0.01834706   0.01403904 -78.15  0.003090549    1.280    0.219
       153 -12.5122     87.2624     64.1907   7.8311690500e+01  -8.4990377338e+01     0.021742   0.01309232  86.59 0.0004315409    1.620    0.383
       154 -10.4453    106.0213     71.4666   7.7714485107e+01  -8.4860903297e+01  0.006889128  0.004547994 -24.50 0.0006389185    1.566    0.362
       155  -9.9071    103.9731     75.6882   7.7395153254e+01  -8.4876097121e+01  0.004992459  0.004475908  88.62 0.0005865751    1.086    0.080
       156 -10.9691    127.6824     58.5883   7.8634966729e+01  -8.4705710881e+01    0.0130723   0.00543924  62.83  0.001970897    2.403    0.584
       157 -10.6318     99.1437     47.6559   7.9552612606e+01  -8.4901197648e+01    0.0106858  0.004421965  18.38  0.001668234    2.374    0.579
       158 -11.6015     98.5473     55.7253   7.8935762431e+01  -8.4908613220e+01   0.01615894   0.00907465 -28.20  0.002895217    1.860    0.462
       159  -8.4465    102.7144     53.5357   7.9089701282e+01  -8.4878635145e+01   0.02331872   0.01030087 -74.24   0.00349283    2.179    0.541
       160 -10.9376    248.7380     55.4700   7.8554872988e+01  -8.3857481691e+01   0.01186499  0.005481605  73.16  0.001361749    2.147    0.534
       161 -10.0478    143.0000     55.3754   7.8827487764e+01  -8.4597414029e+01  0.006937867  0.004932441   4.70  0.001397707    1.441    0.306
       162 -11.0403    146.1277     52.1444   7.9051441120e+01  -8.4574346479e+01   0.00816804  0.005148474  53.45 0.0004920634    1.568    0.362
       163 -10.5978    135.8482     52.9828   7.9022941578e+01  -8.4646588617e+01     0.011749  0.005084276 -87.66  0.001854228    2.251    0.556
       164 -11.0487     90.5653     51.1892   7.9313534745e+01  -8.4962701325e+01  0.005820571  0.005397652  89.41 0.0002335137    1.050    0.048
       165 -10.2340    245.2843     50.1898   7.8900118366e+01  -8.3879849940e+01  0.005476731  0.004152376   6.55 0.0002288636    1.350    0.259
       166  -9.9240    160.5298     50.5369   7.9120750841e+01  -8.4472962577e+01   0.00715698  0.004270588  37.71 0.0009677447    1.657    0.397
       167 -10.1567    161.6570     47.4400   7.9335896476e+01  -8.4463838684e+01  0.008913189  0.004644093 -77.32  0.001544598    1.857    0.461
       168  -9.9542    250.3216     49.1348   7.8954071564e+01  -8.3844225029e+01  0.005966066  0.004163185  30.40  0.001189043    1.429    0.300
       169 -11.3411    247.9654     42.5777   7.9377939296e+01  -8.3858134958e+01   0.01484422  0.007195418 -44.31  0.002283039    2.103    0.525
       170 -10.6875    167.9824     89.9469   7.6330026179e+01  -8.4429512181e+01  0.008431874  0.005121793 -83.47 0.0008704615    1.611    0.379
       171 -10.4060    131.7587     33.8401   8.0439244239e+01  -8.4666393429e+01  0.007333977  0.005260392 -25.05 0.0008043922    1.453    0.312
       172 -10.6636    133.8393     40.6554   7.9931105112e+01  -8.4655347176e+01   0.02039859   0.01257135 -65.71  0.003867107    1.584    0.369
       173 -12.1047    148.9176     40.8082   7.9856018616e+01  -8.4549995556e+01   0.01750716  0.009358146 -26.39  0.002728761    1.978    0.494
       174 -11.3742    142.2918     46.7068   7.9457182734e+01  -8.4598990725e+01  0.006161795  0.005415912 -50.30 0.0001876216    1.147    0.128
       175 -11.9944    144.9814     44.0319   7.9640169149e+01  -8.4579008191e+01   0.00874141   0.00563292  18.98 0.0006342988    1.558    0.358
       176  99.0000    239.9471     30.3788   8.0186361958e+01  -8.3908519987e+01   0.01476096  0.009468125  75.88  0.002837683    1.541    0.351
       177 -10.6754    241.0047     39.9999   7.9565392392e+01  -8.3905707369e+01  0.009987459  0.005151021  53.40  0.001291202    1.928    0.481
       178 -11.5956    234.4639     36.7217   7.9799498429e+01  -8.3949953728e+01   0.01902156  0.008983857 -76.24  0.001884662    2.037    0.509
       179 -11.3578    215.4248     42.0572   7.9518679504e+01  -8.4085485559e+01   0.01069228   0.00820531 -85.03 0.0008456179    1.269    0.212
       180 -12.6008    221.1615     38.8820   7.9707499997e+01  -8.4043956659e+01   0.01659551   0.01013538 -31.00 0.0005758046    1.705    0.414
       181 -11.2559    229.2771     39.8725   7.9613924453e+01  -8.3987656909e+01   0.01400735   0.00719984  70.97  0.002399272    1.943    0.485
       182 -10.4267    217.0912     34.6945   7.9998332517e+01  -8.4070430113e+01  0.006701448  0.005483216 -85.17 0.0006265126    1.191    0.160
       183 -10.8443    123.0523     43.6082   7.9759638638e+01  -8.4732169052e+01   0.01029109  0.007520009  68.68  0.001396138    1.347    0.258
       184 -10.4653    105.3014     43.6445   7.9832736245e+01  -8.4856309851e+01   0.00610363  0.005568825  88.79 0.0008207178    1.067    0.063
       185 -10.4648     99.8556     41.7370   8.0002621430e+01  -8.4893467110e+01  0.007667883  0.005340441  13.43  0.001147492    1.455    0.313
       186 -10.1814     94.0629     41.4257   8.0053684452e+01  -8.4933809169e+01  0.006647203  0.004515659  32.13 0.0007279328    1.462    0.316
       187  -9.6674    249.3295     36.4013   7.9766053493e+01  -8.3845877584e+01   0.01094903  0.005191541 -19.01  0.001356755    2.260    0.558
       188  -9.4109    114.5137     38.5289   8.0176458940e+01  -8.4789389935e+01  0.003515742  0.003389925 -68.06 -2.640338e-05    1.035    0.034
       189  -9.0933    168.2539     37.3426   8.0019936353e+01  -8.4413130752e+01  0.003774777  0.002362642  42.97 0.0004403938    1.581    0.367
       190 -11.2162    122.3789     33.2607   8.0529740649e+01  -8.4731615361e+01  0.009607413  0.005523349 -30.39 0.0005688409    1.828    0.453
       191 -10.2469    123.8625     28.8867   8.0845278257e+01  -8.4718746977e+01  0.005554117  0.005011546 -50.07 0.0006831159    1.117    0.105
       192  -9.4224     96.4389     36.5251   8.0418752656e+01  -8.4914657371e+01  0.003525998  0.003354282 -54.99 0.0002134047    1.059    0.056
       193 -11.3289     92.0952     33.8565   8.0647547411e+01  -8.4943526832e+01   0.01155812  0.007124813  61.48  0.001513208    1.619    0.382
       194 -10.9616    112.3021     32.8240   8.0615540518e+01  -8.4801774214e+01   0.01005928  0.006600856  87.77 0.0006661518    1.492    0.330
       195 -10.0954    104.6279     28.0314   8.1020500360e+01  -8.4852556825e+01  0.007885939  0.005971333 -42.09   0.00164128    1.345    0.257
       196 -10.7095     74.6673     33.5145   8.0774054494e+01  -8.5065069319e+01   0.01043908  0.006491405  69.59  0.001967549    1.604    0.376
       197  -9.1778    152.2812     33.6861   8.0350087418e+01  -8.4522897780e+01  0.003741966  0.002426468 -42.60 0.0005497364    1.572    0.364
       198 -11.4865    137.7339    112.4916   7.4671665654e+01  -8.4640387605e+01    0.0117676  0.005052443  73.60  0.001862495    2.226    0.551
       199 -10.9096    224.0224     31.4981   8.0179743809e+01  -8.4020382997e+01   0.01408114  0.004423528 -87.71  0.001889036    3.121    0.680
       200 -10.5089     95.6354    112.0663   7.4592035233e+01  -8.4935102667e+01  0.009813271  0.004417034 -35.33  0.001576011    2.256    0.557
       201  -9.9456    173.3670    112.5392   7.4754355852e+01  -8.4390972723e+01  0.006343485  0.002807742  69.32 0.0006880615    2.159    0.537
       202 -10.2257    209.4940     21.5475   8.0901821778e+01  -8.4116359199e+01  0.006405928   0.00540603  51.23 0.0007476131    1.172    0.147
       203 -10.0434     80.4958     30.4539   8.0979882194e+01  -8.5022542890e+01  0.005567649  0.003653312  42.35 0.0005391028    1.509    0.337
       204 -11.7404     85.8458     28.5824   8.1092861201e+01  -8.4984037571e+01    0.0114718  0.006522537 -84.59  0.000787938    1.710    0.415
       205  -9.8133    168.8490     26.8380   8.0750538254e+01  -8.4403334988e+01  0.004962584  0.003879966 -39.21 0.0004834097    1.308    0.235
       206 -11.1866    197.4892     25.9597   8.0666906945e+01  -8.4202776620e+01   0.01021922  0.006827926 -86.46  0.001830829    1.458    0.314
       207 -10.1797     38.3178    110.6753   7.4535612065e+01  -8.5336453541e+01  0.003896635  0.002365674 -47.09 0.0004723345    1.672    0.402
       208 -12.9828    176.2059     23.5114   8.0942661877e+01  -8.4349987892e+01  0.008342001  0.007829991  41.58 0.0005113201    1.065    0.061
       209 -11.1608    147.6629     25.2344   8.0977666430e+01  -8.4550345962e+01   0.01137298  0.007890115  76.19  0.002271556    1.424    0.298
       210 -10.4479    112.9490     23.7923   8.1288742846e+01  -8.4791802528e+01   0.01002592   0.00737658  53.62  0.001757952    1.348    0.258
       211 -10.7292     21.3646     24.9543   8.1843629625e+01  -8.5431568569e+01   0.01248627  0.007819588 -57.83  0.002381406    1.568    0.362
       212  -9.8215     19.7281     19.5680   8.2316422517e+01  -8.5439002981e+01   0.00841641  0.004758747 -29.60 0.0009517679    1.888    0.470
       213  -9.3907    153.4416     25.0731   8.0957050548e+01  -8.4509895429e+01   0.00494976  0.003479975   4.75 0.0003623447    1.461    0.316
       214  -9.6293    135.5119     25.4517   8.1030889240e+01  -8.4635326418e+01  0.003511072  0.003384859 -71.80 0.0002422722    1.030    0.029
       215 -11.9397    126.6620     24.6408   8.1141987017e+01  -8.4696613536e+01    0.0079817   0.00589149 -71.17 0.0002369155    1.320    0.242
       216 -10.4735    244.7387     18.7992   8.0904532114e+01  -8.3868620473e+01  0.008637683  0.006470634 -38.91  0.001089646    1.367    0.269
       217 -11.1107    247.1662     22.6158   8.0650395444e+01  -8.3853891549e+01  0.008441955  0.005916101  71.62  0.001056552    1.411    0.291
       218 -11.9940    242.3611     22.5980   8.0673699421e+01  -8.3887441605e+01   0.01278047  0.006433773 -85.96  0.001356324    1.935    0.483
       219  -9.7209    102.6833     23.2870   8.1392297168e+01  -8.4863124302e+01   0.00509423  0.004214746   1.35 0.0004794205    1.247    0.198
       220 -10.6931     98.1925     21.6057   8.1549930720e+01  -8.4893343031e+01   0.00857022  0.006476575 -67.62  0.001217707    1.293    0.227
       221 -11.3873    202.1983     21.0128   8.0975042980e+01  -8.4166980176e+01   0.00919825  0.006492799 -31.98  0.001331299    1.470    0.320
       222  -9.7989    233.8415    108.8981   7.5120727022e+01  -8.3968067323e+01   0.00553777  0.004355636  57.09  0.001169699    1.242    0.195
       223  -9.0806    138.2901     22.3848   8.1237048902e+01  -8.4614012307e+01  0.004007884  0.002264968  45.14 0.0007013771    1.753    0.430
       224  -9.7871    119.6325     22.1584   8.1368419500e+01  -8.4744095006e+01  0.005446672  0.004221656 -24.78 0.0006296772    1.343    0.256
       225 -10.9434    196.7299    108.4055   7.5087249447e+01  -8.4227891814e+01   0.01155493  0.006376423 -46.63  0.002055953    1.841    0.457
       226 -10.4738    191.7559    103.8499   7.5389001288e+01  -8.4263045358e+01   0.01038208  0.004266536 -18.58  0.001595114    2.487    0.598
       227 -11.0172    234.2434     24.1242   8.0613341557e+01  -8.3945004745e+01  0.007185974  0.006111368  22.50  0.001082013    1.188    0.158
       228 -10.1784    139.0191     17.8537   8.1560180367e+01  -8.4605950156e+01  0.005963667  0.004673181   8.97  0.000657395    1.305    0.234
       229 -12.6574    156.1665    104.5562   7.5283288151e+01  -8.4512174519e+01   0.01793999  0.009324257 -35.04  0.003110044    1.962    0.490
       230 -11.2227    152.1071     95.8943   7.5897720224e+01  -8.4540869662e+01   0.01621604   0.01140383 -69.20  0.002223677    1.411    0.291
       231 -10.6349    159.2838     99.2904   7.5662806183e+01  -8.4490585731e+01  0.005314398  0.004850807  48.61 0.0003905497    1.082    0.076
       232 -10.3689    157.6631     96.2579   7.5876847865e+01  -8.4501964425e+01  0.006116275    0.0047883 -23.37  0.000459301    1.312    0.238
       233  -9.6766    153.4597     17.0849   8.1523954320e+01  -8.4504674517e+01  0.005130525  0.003471359   9.22 0.0005264676    1.508    0.337
       234  -9.7584    209.5156    105.5371   7.5302112329e+01  -8.4138609102e+01  0.006366294  0.002883565 -20.73  0.001015747    2.256    0.557
       235  -9.4657    160.2117     14.0204   8.1697603246e+01  -8.4455480911e+01  0.004720715  0.004353805  18.47 0.0004448863    1.104    0.094
       236 -11.9628     68.6607    105.0218   7.5079611501e+01  -8.5124773173e+01   0.01002071  0.004657672  22.99  0.001634413    2.188    0.543
       237 -12.3794    145.5345    103.0534   7.5373792371e+01  -8.4586707976e+01   0.01513019    0.0104371 -73.55   0.00232909    1.436    0.303
       238 -10.9454    109.4159    104.3612   7.5214135098e+01  -8.4839505056e+01   0.00642823  0.003346694   8.50 0.0007150715    1.968    0.492
       239 -10.1617    187.1857     13.1489   8.1589858707e+01  -8.4266710736e+01  0.005727657  0.003616303 -43.04 0.0005542501    1.616    0.381
       240 -12.0285    147.5993     83.2472   7.6805981152e+01  -8.4571693155e+01   0.01741016   0.01021435 -12.12  0.003206022    1.760    0.432
       241 -11.3640    140.7238     96.0007   7.5879444102e+01  -8.4620584002e+01  0.009483854  0.007605511 -60.48 0.0009439939    1.248    0.198
       242 -12.7173    135.5967     83.2284   7.6810421819e+01  -8.4655748035e+01   0.02374137   0.02040152 -31.84  0.004155626    1.192    0.161
       243 -13.1623    131.2285     96.0673   7.5865411043e+01  -8.4687077960e+01   0.01913971   0.01653865  49.92  0.004289332    1.140    0.123
       244 -10.7822    114.9854     12.9709   8.2082595537e+01  -8.4770124493e+01  0.006365056  0.004541685 -62.56            0    1.372    0.271
       245 -13.1255    122.9922     98.4459   7.5680035961e+01  -8.4744730088e+01   0.01991677  0.009464656  32.93  0.003312013    2.104    0.525
       246 -11.9072    127.4534     89.9779   7.6312723688e+01  -8.4713345401e+01   0.01408021  0.007515423  75.38 0.0006143692    1.819    0.450
       247 -12.7850      4.4476     56.3699   7.9223414236e+01  -8.5567209761e+01   0.02417587   0.01694571  58.59   0.00410321    1.408    0.290
       248 -12.0156    121.3890     87.5575   7.6491031670e+01  -8.4755658784e+01   0.01217512   0.00860999 -16.81  0.001580311    1.457    0.314
       249 -12.2487    125.4278     83.6504   7.6781790027e+01  -8.4727011518e+01   0.01378438  0.009782203  29.15  0.001741846    1.413    0.292
       250 -12.6932     73.6333     99.1103   7.5561760859e+01  -8.5090333395e+01   0.02067791  0.006461894 -25.05  0.002781932    3.269    0.694
       251 -10.1932    227.2757    103.0031   7.5495041991e+01  -8.4014410376e+01  0.004956542  0.004554851  17.25 0.0004348376    1.107    0.097
       252  -9.9423    215.2918    102.3146   7.5524915066e+01  -8.4098337782e+01   0.00382451  0.002366744  44.92 0.0003317953    1.594    0.373
       253 -10.2895    165.4780    101.9606   7.5481875969e+01  -8.4447124485e+01  0.005307925   0.00349769   0.13 0.0006601622    1.557    0.358
       254 -10.6940     96.0390    100.9627   7.5450996477e+01  -8.4933374553e+01  0.006278438   0.00365404  46.80  0.001141227    1.691    0.409
       255 -11.8023     87.1561     98.3213   7.5643271401e+01  -8.4995669435e+01   0.01322559  0.008656152  69.01  0.001755921    1.482    0.325
       256 -11.4042     81.7895     98.7821   7.5599648807e+01  -8.5033234556e+01    0.0078944  0.006791269 -43.56  0.001373937    1.181    0.153
       257 -11.7105    226.3785     97.5596   7.5850464806e+01  -8.4020807943e+01   0.01070829  0.008791286  67.05  0.002333756    1.185    0.156
       258 -12.0214    102.3375     96.3378   7.5815282011e+01  -8.4889391713e+01   0.01241607  0.007191856 -28.76 0.0005882937    1.769    0.435
       259 -12.1644    106.9387     96.0042   7.5845648674e+01  -8.4857172516e+01  0.008672918   0.00610115  19.28 0.0006594594    1.441    0.306
       260 -10.6502    170.4093     97.9939   7.5766860942e+01  -8.4412702679e+01  0.009316585   0.00593414 -23.82  0.001781624    1.611    0.379
       261  -9.5513    244.5711     97.9902   7.5838661289e+01  -8.3893434149e+01  0.005349794  0.003456716   3.34 0.0005239378    1.586    0.369
       262 -12.0230     12.0038     97.3101   7.5618359012e+01  -8.5521891256e+01  0.009342208  0.007355776  65.41 0.0009473181    1.236    0.191
       263 -11.1300    199.8266     95.4584   7.5968191491e+01  -8.4206708469e+01   0.01324236  0.006201119 -13.20  0.001709359    2.197    0.545
       264 -12.5953     55.5865     94.3258   7.5925695319e+01  -8.5216763970e+01   0.01028403  0.007003504 -56.79   0.00128351    1.475    0.322
       265 -12.8926     62.2933     90.0569   7.6278291201e+01  -8.5169673485e+01   0.02148112  0.008135209 -14.83  0.002696732    2.729    0.634
       266 -12.3652     57.5241     88.9281   7.6368099332e+01  -8.5203009136e+01   0.01026483   0.00753686  14.88 0.0008986471    1.385    0.278
       267 -10.5253     70.8425     87.8425   7.6459605501e+01  -8.5109668946e+01  0.007316514  0.005768816 -54.48 0.0007294366    1.275    0.215
       268 -12.6231     66.6254     82.4689   7.6891399353e+01  -8.5138678540e+01   0.01983756   0.01230115 -48.33 0.0006761461    1.630    0.387
       269 -11.5971     49.5545     95.2278   7.5845137282e+01  -8.5259005134e+01   0.00678096  0.004838583  88.23 0.0005962364    1.365    0.267
       270 -10.3246     28.4602     94.9894   7.5840917657e+01  -8.5406707604e+01  0.006501863  0.004455278  62.27 0.0003637467    1.421    0.296
       271  -9.5006    232.6882     94.2073   7.6074023060e+01  -8.3976585669e+01  0.004650542  0.003094148  16.36 0.0008947168    1.527    0.345
       272 -11.9424    184.6912     92.2970   7.6173954519e+01  -8.4312613131e+01   0.01128545  0.008496149  65.28  0.001412031    1.293    0.227
       273 -12.1979    115.6596     93.3993   7.6050590534e+01  -8.4796071975e+01   0.01300977  0.004806258  51.37  0.001908623    2.635    0.620
       274 -10.5396    206.4104     95.2348   7.5988245565e+01  -8.4160603810e+01  0.005099148  0.003174773 -19.51  0.000949981    1.651    0.394
       275 -11.7826     96.0954     90.4890   7.6260374133e+01  -8.4932977945e+01   0.01311161  0.009547136 -66.49  0.002689685    1.364    0.267
