#   1 NUMBER                 Running object number                                     
#   2 MAG_AUTO               Kron-like elliptical aperture magnitude                    [mag]
#   3 X_IMAGE                Object position along x                                    [pixel]
#   4 Y_IMAGE                Object position along y                                    [pixel]
#   5 X_WORLD                Barycenter position along world x axis                     [deg]
#   6 Y_WORLD                Barycenter position along world y axis                     [deg]
#   7 A_WORLD                Profile RMS along major axis (world units)                 [deg]
#   8 B_WORLD                Profile RMS along minor axis (world units)                 [deg]
#   9 THETA_WORLD            Position angle (CCW/world-x)                               [deg]
#  10 FWHM_WORLD             FWHM assuming a gaussian core                              [deg]
#  11 ELONGATION             A_IMAGE/B_IMAGE                                           
#  12 ELLIPTICITY            1 - B_IMAGE/A_IMAGE                                       
         1 -13.3938    248.2115    112.5118   6.6799582114e+01   8.4430736126e+00     3.843085     1.190094 -31.62   0.01395573    2.841    0.648
         2  -8.8371     80.0421     12.3807   6.9856842981e+01   6.3078641492e+01    0.2499817    0.1752737 -39.74  0.001061977    1.569    0.363
         3  -8.5641    142.1873     11.8519   5.4155412081e+01   4.8591819565e+01    0.2071629    0.1562665  37.86 0.0004744822    1.319    0.242
         4  -7.9384    171.7829      4.1636   4.6933696408e+01   4.1522074077e+01    0.1902243    0.1570884  34.16 0.0002757041    1.291    0.225
         5  -9.1142    138.3126      3.3285   5.1508462922e+01   5.0419067966e+01    0.2456106    0.1950527  36.58 0.0006057289    1.229    0.186
         6  -8.0604     16.7914      2.9560   9.3951723221e+01   7.3813671015e+01    0.1544197   0.07450187 -43.37 0.0003859217    1.664    0.399
         7  -8.3376    106.9865      1.7593   5.7067079433e+01   5.8349081971e+01    0.1858995    0.1098135  59.14 0.0008883113    1.628    0.386
         8  -8.4623    220.5943    240.6634   9.5803275209e+01  -3.1024571913e+00    0.1851747   0.09897742 -23.51  0.001143761    2.235    0.553
         9  -8.7579    207.9897    249.9051   9.9100943857e+01  -2.2474953141e+00    0.2729779    0.1333764  29.60  0.001642624    1.702    0.413
        10  -9.5117    199.6552    248.5813   1.0028638749e+02  -9.1679052427e-01    0.4039751    0.2748629  48.30  0.002825404    1.558    0.358
        11  -9.6656    193.2042    250.0173   1.0152766951e+02  -1.3943939550e-01    0.2799823    0.1190744  36.98   0.00158822    1.770    0.435
        12 -10.4488    165.2370    248.3031   1.0598020172e+02   4.1463022551e+00    0.6494166    0.2711344  41.04  0.003624674    1.785    0.440
        13  -9.2711    215.9244    239.8296   9.6445632408e+01  -2.3458324124e+00    0.2245451    0.1497585 -47.90 0.0009229164    2.465    0.594
        14  -8.5299    159.3100    240.8693   1.0612718119e+02   5.9580913037e+00    0.2285318     0.120254  53.79  0.001291645    1.991    0.498
        15  -8.3899    249.6951    240.3365   9.1154235374e+01  -7.0944541110e+00   0.08916599   0.07913245  33.11 0.0006825193    1.670    0.401
        16 -10.0977    143.3839    238.2195   1.0859023904e+02   8.6988943868e+00    0.5388689    0.2273852  41.97   0.00291315    1.811    0.448
        17  -9.0376     89.7560    238.2820   1.1794788847e+02   1.6329932369e+01    0.1866436    0.1571262  -3.90  0.001341935    2.111    0.526
        18  -7.6184     38.6652    238.3092   1.2652975839e+02   2.2525255558e+01    0.1106324   0.05073259  61.64 0.0007042789    1.676    0.403
        19  -9.9964    152.6004    218.7335   1.0458667409e+02   1.0053187756e+01    0.6399949    0.2639512  37.29  0.003073022    2.125    0.529
        20 -10.1294    147.9150    228.4903   1.0666145822e+02   9.3734642606e+00    0.3317998    0.2633279 -44.24  0.001550692    1.607    0.378
        21 -10.9448    155.1236    228.9000   1.0542015728e+02   8.2003775266e+00    0.5903727    0.4852274  84.50  0.004149545    1.617    0.382
        22  -9.5815    157.0129    223.5050   1.0439898838e+02   8.6628430240e+00    0.2911642    0.1908713  42.70  0.001413598    1.219    0.180
        23 -12.3516    185.3849    209.1460   9.7209134252e+01   6.0786235730e+00     1.939868     1.341291 -57.74   0.01133737    2.176    0.540
        24  -8.2419    114.9982    231.5252   1.1290281641e+02   1.3862701296e+01    0.1807479   0.08947174  42.10  0.001034531    1.599    0.375
        25  -8.0172     72.1097    231.5503   1.2048471375e+02   1.9697412893e+01    0.1573956   0.08337096  44.52 0.0003100198    1.501    0.334
        26  -9.6943    140.6226    227.4896   1.0785601922e+02   1.0640419308e+01    0.3101811    0.2031636  40.53  0.001991567    1.231    0.188
        27  -7.6810    112.3015    226.3659   1.1286876058e+02   1.5056869503e+01    0.1030885   0.08754763   6.41 0.0007034521    1.734    0.423
        28 -10.0066    105.5835    222.5804   1.1371389396e+02   1.6637446080e+01    0.2480695     0.224985  51.28   0.00188733    1.224    0.183
        29 -12.6732    179.6776    239.6838   1.0248697222e+02   3.0397262386e+00     1.211112     1.042134   0.53  0.006042718    1.327    0.247
        30  -8.3229    121.2054    221.1820   1.1068662186e+02   1.4559979530e+01    0.2030437    0.1137033  65.47  0.001077065    2.202    0.546
        31  -9.6188    163.4983    215.9660   1.0220949842e+02   8.7046070551e+00    0.4112851    0.1708762 -51.18  0.001944087    3.206    0.688
        32  -7.8849    127.4064    218.1806   1.0919352965e+02   1.4093063755e+01    0.1472376    0.1090556 -83.25  0.000940781    1.686    0.407
        33 -11.6492    190.0619    233.8500   9.9946134424e+01   2.1665934915e+00    0.9211105    0.4528533  27.63  0.004941234    2.071    0.517
        34  -8.1793     62.3086    215.7104   1.2105345222e+02   2.3621757752e+01    0.1162379   0.06339022  63.47 0.0002141579    1.578    0.366
        35  -8.6092    151.9928    212.4603   1.0386703079e+02   1.1090911921e+01    0.1685127    0.1449795  41.97 0.0003763699    1.048    0.046
        36  -7.9073     20.6768    212.3055   1.2827230222e+02   2.8840652007e+01    0.1126204     0.052885  63.20 0.0007032897    1.641    0.391
        37  -8.4520    143.9516    249.4971   1.0970608067e+02   7.1092614106e+00    0.1711976    0.1390194  79.04 0.0009094483    1.543    0.352
        38 -10.7448    110.8385    209.1323   1.1129406373e+02   1.8114784768e+01    0.4655155    0.2756953 -75.39  0.002602902    2.137    0.532
        39  -8.7272    102.9712    211.3403   1.1304461816e+02   1.8902353450e+01    0.1745723    0.1274302  50.70 0.0007589495    1.118    0.105
        40  -8.1779     65.6684    211.6746   1.2012184757e+02   2.3924142580e+01   0.09536493   0.08915395 -23.89 0.0007050875    1.707    0.414
        41  -8.0498    241.3824    209.2007   8.7556260726e+01  -2.8312088300e+00    0.1397334    0.1019692 -29.57  0.000563979    1.602    0.376
        42 -10.1517    157.3275    203.7564   1.0163606302e+02   1.1552499312e+01     0.285687    0.1826037  35.90 0.0004078332    1.383    0.277
        43 -10.0772    128.3576    204.4295   1.0732902882e+02   1.6196927978e+01    0.3936551    0.1956018 -56.02  0.002032881    2.372    0.578
        44 -10.4609    162.2529    201.4936   1.0036049384e+02   1.1074919155e+01    0.3003789    0.2855559 -50.37  0.001414372    1.259    0.206
        45  -8.1886     97.6362    202.7127   1.1314955512e+02   2.1206043314e+01    0.1091654   0.09355854  10.16 0.0007022913    1.694    0.410
        46  -8.5663    114.3482    200.4390   1.0958365644e+02   1.9095944760e+01    0.1920434    0.1148151 -60.50 0.0008310537    1.901    0.474
        47  -9.8600    138.4414    199.2584   1.0466081551e+02   1.5430344591e+01    0.2622561    0.1932764 -30.43 0.0009604567    1.843    0.458
        48  -9.2146    139.4102    195.2436   1.0390177713e+02   1.5950264236e+01    0.2240878    0.1855652  60.68 0.0007807534    1.178    0.151
        49  -8.3772     67.8058    197.7926   1.1853533256e+02   2.6220383175e+01    0.1691632    0.1232734 -25.71 0.0009473412    2.802    0.643
        50  -8.7359    239.5049    191.4570   8.4768559991e+01  -5.2002043137e-01    0.1908063    0.1060045 -39.76 0.0008687258    2.236    0.553
        51 -12.1052    163.2871    195.2438   9.9204546242e+01   1.1878440143e+01     1.005086    0.4262471 -46.55  0.004586894    2.762    0.638
        52 -11.8043    139.7999    187.9021   1.0274352571e+02   1.7158285481e+01     0.687489    0.4361767  30.89  0.003629206    1.678    0.404
        53 -10.2227    154.8153    187.9807   9.9726522943e+01   1.4541047116e+01     0.282618    0.2231213 -53.41  0.001702622    1.473    0.321
        54 -11.8960    168.9399    204.6386   9.9565132466e+01   9.4685032405e+00       0.8942    0.5698246  18.98  0.003924009    1.967    0.492
        55 -10.1473    248.7636    173.0067   7.9783921660e+01   2.2082343516e-01    0.3650363    0.1976922 -15.54  0.001875874    1.934    0.483
        56  -8.1584     24.8843    177.2762   1.2550510244e+02   3.5138311277e+01    0.1553855    0.1207866  70.93 0.0007538176    1.077    0.071
        57  -8.4825    228.9817    175.8324   8.3624428210e+01   3.1852557111e+00    0.2348683    0.1483308 -13.53  0.001267782    1.672    0.402
        58 -10.2768    101.0131    175.9972   1.0919833026e+02   2.5790445426e+01    0.1827442    0.1584375  65.55  0.001161873    1.004    0.004
        59  -8.1349    104.1930    187.6433   1.1005017245e+02   2.3022557326e+01    0.1710685    0.1096255  33.32 0.0004840592    1.681    0.405
        60  -8.8844    196.5309    173.6837   8.9065187348e+01   9.2933098728e+00    0.2248268    0.2010488  41.87 0.0005570051    1.187    0.158
        61 -10.6435    243.7309    171.2986   8.0266947533e+01   1.2671804701e+00    0.3291736     0.226215  15.62  0.001650903    1.358    0.264
        62 -10.2443    157.5273    172.2835   9.6538035701e+01   1.6768227655e+01    0.3217929       0.2669  42.49  0.001681231    1.091    0.083
        63  -7.9512     28.3315    171.3329   1.2438040538e+02   3.6023481701e+01    0.1056472   0.08073471 -52.57 0.0003986989    1.726    0.421
        64  -7.9923     78.9217    170.5119   1.1333903709e+02   3.0180630444e+01    0.1804805    0.1126275  44.12 0.0004037999    1.499    0.333
        65 -10.5034    157.4532    165.0921   9.5250873323e+01   1.8073560361e+01    0.3620813    0.2984672 -16.48  0.002033347    1.440    0.306
        66  -7.8507     92.7748    166.9594   1.0978086515e+02   2.8904088897e+01    0.1633439     0.102239 -63.79 0.0005007864    1.618    0.382
        67  -8.4519     56.8146    167.3835   1.1788696068e+02   3.3730677164e+01     0.153425    0.1151291  28.66 0.0005001126    1.668    0.400
        68  -8.3607    228.5706    181.3003   8.4735263280e+01   2.5379903709e+00    0.1610228    0.1103363 -13.24 0.0006664937    1.459    0.315
        69  -8.6768    116.2165    164.9614   1.0421238847e+02   2.5545861063e+01    0.1751425    0.1082183 -58.39 0.0008764462    1.711    0.416
        70  -9.2029     47.4816    163.1031   1.1953060784e+02   3.5741292420e+01    0.1888937    0.1725561  11.49  0.000827465    1.568    0.362
        71 -10.6023     36.1393    161.2083   1.2188203702e+02   3.7376532763e+01    0.2884353    0.1972848  61.15   0.00186675    1.285    0.222
        72  -9.7732    111.1406    160.7019   1.0467585285e+02   2.7274439943e+01    0.2559097    0.1542937 -47.24  0.001257161    1.864    0.463
        73 -10.5557     23.1017    158.0948   1.2451203351e+02   3.9316505270e+01     0.443226    0.1853862 -61.44  0.002313336    2.304    0.566
        74  -8.0450     14.0354    160.4668   1.2665143512e+02   3.9612345521e+01    0.1441281    0.1031137  41.03 0.0003765002    1.521    0.343
        75  -9.6016     47.9296    158.6269   1.1897958439e+02   3.6658879120e+01    0.2189099     0.186936 -31.76  0.001440391    1.712    0.416
        76 -10.2488     29.6730    158.3604   1.2307641488e+02   3.8638267594e+01    0.1958427    0.1879134 -37.35 0.0009294503    1.493    0.330
        77 -10.9908    243.4349    155.0832   7.7031194867e+01   3.4291447320e+00    0.4448889     0.271705 -39.84  0.001878091    1.833    0.454
        78 -10.7942    249.5197    153.5223   7.5725990655e+01   2.5711902843e+00    0.6027091    0.3147597 -28.49   0.00304296    1.775    0.437
        79 -11.3767    246.0496    145.3960   7.4556149871e+01   4.2681793816e+00    0.8621614    0.5658666  58.79   0.00443933    2.150    0.535
        80  -8.7207    139.6373    247.6238   1.1024347231e+02   7.9805180593e+00    0.1534924    0.1148235  20.82  0.001080002    1.609    0.378
        81  -8.9416    101.8418    156.3863   1.0613205693e+02   2.9713737860e+01    0.1886702     0.126038  30.60 0.0009524987    1.743    0.426
        82  -9.4265     56.2717    155.0378   1.1665976397e+02   3.6468496343e+01    0.1819789    0.1471871  86.72  0.001173954    1.045    0.043
        83  -8.8737     60.0000    152.9585   1.1553581346e+02   3.6470690166e+01    0.2082182   0.06477677 -67.32 0.0008081059    2.982    0.665
        84 -11.1077     36.6013    147.4757   1.2048496088e+02   4.0335361303e+01      1.18506    0.5851671  30.02  0.002340584    2.360    0.576
        85  -9.2617    138.8097    157.1874   9.7818811310e+01   2.3075095038e+01    0.1883155    0.1677353   2.56 0.0007798359    1.330    0.248
        86  -9.5027     57.0166    146.2877   1.1543049885e+02   3.8326572845e+01    0.1711778    0.1462833  71.45 0.0002053178    1.089    0.082
        87 -10.4570     55.2477    150.4791   1.1636898614e+02   3.7601343516e+01    0.3321575    0.1838751 -42.70  0.001587597    2.664    0.625
        88  -7.9976     81.6737    150.6765   1.1004388240e+02   3.4055778159e+01    0.1257464    0.1031002 -30.02 0.0003438878    1.690    0.408
        89 -11.3791    247.9607    135.2238   7.2031653029e+01   5.3109537821e+00    0.9137808    0.5100916  50.56  0.004504663    2.034    0.508
        90 -10.9126     68.9371    143.6080   1.1213645732e+02   3.7412915782e+01    0.3238268    0.3225966 -85.27   0.00217837    1.268    0.212
        91  -9.7015     56.2519    136.9525   1.1440354205e+02   4.0540917030e+01    0.3900123    0.2012612 -44.53  0.001788913    2.563    0.610
        92  -8.5795     47.3029    136.1777   1.1658203016e+02   4.1753764120e+01    0.1755253    0.1668424  62.63 0.0004364385    1.244    0.196
        93 -10.5064    233.2065    132.5727   7.3814963266e+01   8.4903977053e+00    0.4229271    0.3168833 -86.07  0.001226098    2.536    0.606
        94  -9.3303    119.7992    157.6669   1.0219301007e+02   2.6417974543e+01    0.2200151    0.1818595 -48.73 0.0005935711    1.319    0.242
        95  -8.1719    160.8208    107.3557   8.1647260034e+01   2.8466963105e+01    0.2092985    0.1873682  37.38 0.0006157563    1.125    0.111
        96  -8.6050    216.8178    102.0206   6.9211105441e+01   1.6616620766e+01    0.2358751    0.2091761  38.25 0.0003616658    1.167    0.143
        97  -8.4982    119.0251     64.7621   7.9405428320e+01   4.6321286610e+01    0.2142801      0.20199 -75.27 0.0003139183    1.170    0.146
        98  -8.1532    215.0286     53.9939   5.6501986076e+01   2.4329297596e+01    0.2310317      0.17455  14.45  0.001115883    1.636    0.389
        99  -8.0337     94.8594     52.4669   8.2260759403e+01   5.3697349242e+01    0.1985596     0.144502  44.90 0.0006138263    1.469    0.319
       100  -8.7853     84.9622     21.4802   7.2603854473e+01   6.0863328786e+01    0.2433529    0.1768166 -39.26 0.0005141027    1.441    0.306
       101  -7.2674     30.3031     22.2637   9.5925434199e+01   6.9084591117e+01    0.1219362    0.0787074 -23.21 0.0001967698    1.521    0.343
       102  -9.5791     75.3118     17.8623   7.4219088856e+01   6.3245736132e+01    0.2783332    0.2251271 -29.31 0.0005037601    1.208    0.172
       103  -9.6221    244.8139    247.3100   9.2919961432e+01  -7.0684623612e+00     0.208521   0.07672641  43.38  0.001089815    2.638    0.621
       104  -8.4123    109.3540    245.8852   1.1523322390e+02   1.2525305952e+01    0.2224491    0.1280065 -64.48  0.001473802    2.187    0.543
       105  -8.2254    104.6928    246.9378   1.1611441119e+02   1.3013599288e+01    0.1486795    0.1154625  59.64 0.0009648376    1.102    0.093
       106  -7.6390    117.5561    246.5695   1.1389954977e+02   1.1283513885e+01    0.1097417   0.08111905  49.80 7.132354e-05    1.004    0.004
       107  -7.9316    129.0325    241.6112   1.1144900067e+02   1.0342547453e+01    0.1545516    0.1073118  46.67 0.0003769638    1.090    0.083
