#   1 NUMBER                 Running object number                                     
#   2 MAG_AUTO               Kron-like elliptical aperture magnitude                    [mag]
#   3 X_IMAGE                Object position along x                                    [pixel]
#   4 Y_IMAGE                Object position along y                                    [pixel]
#   5 X_WORLD                Barycenter position along world x axis                     [deg]
#   6 Y_WORLD                Barycenter position along world y axis                     [deg]
#   7 A_WORLD                Profile RMS along major axis (world units)                 [deg]
#   8 B_WORLD                Profile RMS along minor axis (world units)                 [deg]
#   9 THETA_WORLD            Position angle (CCW/world-x)                               [deg]
#  10 FWHM_WORLD             FWHM assuming a gaussian core                              [deg]
#  11 ELONGATION             A_IMAGE/B_IMAGE                                           
#  12 ELLIPTICITY            1 - B_IMAGE/A_IMAGE                                       
         1 -12.8820    184.1125     36.6437   5.9043835719e+01   3.4497209816e+01     1.456203     1.049838  17.23  0.004509141    1.741    0.426
         2 -12.2562    206.4839      5.2202   4.6655760440e+01   3.2252098354e+01    0.9672266    0.6841303  71.26  0.004397363    1.323    0.244
         3  -9.6454    158.1583    235.8337   1.0927019885e+02   5.9334314635e+00    0.2367955    0.1406469  25.04  0.001267866    2.301    0.565
         4 -10.3654    248.1474    248.8827   9.6135249785e+01  -9.7248147948e+00    0.2345562    0.1803505  14.84  0.001826577    1.132    0.117
         5 -19.4259     30.0175    142.6229   1.2357925908e+02   4.2004676330e+01     18.22599     3.134538 -71.89   0.05620959    5.456    0.817
         6  -8.7334     69.6944    218.7731   1.2292194866e+02   2.2097645189e+01    0.2606324    0.1154286  68.06  0.001319313    2.486    0.598
         7 -10.3208    156.5936    217.7776   1.0719264454e+02   8.8179852427e+00    0.2332457     0.183776  48.45 0.0003187522    1.041    0.039
         8 -11.3564     45.8430    216.1198   1.2679409036e+02   2.5541202909e+01    0.3422785    0.1362891  56.32 0.0009896354    2.038    0.509
         9  -8.7422     98.0469    213.9614   1.1743261583e+02   1.8955782886e+01    0.1946755    0.1170153  70.80  0.001125493    1.686    0.407
        10 -10.7191     58.1584    213.4906   1.2449262425e+02   2.4523544776e+01    0.1912721    0.1379712  68.65  0.000439303    1.044    0.042
        11 -10.7943     72.9653    212.3142   1.2178881769e+02   2.2815045169e+01    0.1973525    0.1559638  78.57 0.0002928405    1.090    0.083
        12  -7.6017     76.7537    207.6505   1.2067581980e+02   2.3149765564e+01    0.1986412    0.1328305 -43.03   0.00101344    2.525    0.604
        13  -8.7595    152.4981    211.4878   1.0707353893e+02   1.0501635709e+01    0.1264504    0.1041701  50.89 0.0002486101    1.023    0.022
        14  -8.7973     65.0692    208.5743   1.2286858436e+02   2.4540336899e+01    0.1835734    0.1270839  35.44 0.0007109577    1.787    0.441
        15 -12.0454     11.5133    207.2592   1.3194932802e+02   3.0783844859e+01    0.2472311    0.1794318  79.96  0.000827833    1.103    0.093
        16  -9.3822      5.5188    206.7210   1.3289212940e+02   3.1439317104e+01    0.1621319   0.08273242  68.57 0.0007325561    1.460    0.315
        17 -10.9800     46.1775    204.1130   1.2586453941e+02   2.7699594182e+01    0.1695847    0.1231377  65.75 0.0003290972    1.102    0.093
        18 -10.0569    248.3222    231.1191   9.3371564216e+01  -8.0597474333e+00    0.1904014     0.180119  66.65  0.001437654    1.823    0.451
        19 -10.1559     66.0779    199.8986   1.2190809403e+02   2.6031317956e+01    0.2125911    0.1745229 -62.99 0.0005927592    1.514    0.339
        20  -9.5735     66.7159    195.5169   1.2137493424e+02   2.6786942381e+01    0.2942051    0.1406683  59.68 0.0008830324    1.939    0.484
        21  -9.8362    141.8228    199.1497   1.0733576102e+02   1.4409263192e+01    0.1685144     0.147407  26.08 0.0004602164    1.323    0.244
        22  -9.4101    192.7139    194.2943   9.6845394688e+01   5.9011864112e+00    0.5878614    0.3040774 -63.68  0.001700808    7.489    0.866
        23 -10.0018    149.9723    190.2312   1.0439133650e+02   1.4499818840e+01     0.331807    0.2203631 -87.13  0.001275571    2.390    0.582
        24  -9.7178     72.2449    230.1714   1.2341457041e+02   1.9799097734e+01     0.173137    0.1119511  59.35 0.0003927462    1.170    0.145
        25 -11.3533     76.2416    185.2770   1.1846870484e+02   2.7510189239e+01    0.6292256    0.5532166  88.21  0.003530877    1.172    0.147
        26 -10.3216      9.6374    226.9286   1.3317217391e+02   2.7513678460e+01    0.1248852   0.08993524  78.23 0.0003346945    1.150    0.130
        27  -9.7271     97.9867    190.8455   1.1480969088e+02   2.3222732988e+01    0.1759526    0.1632239  48.12 0.0007486105    1.304    0.233
        28  -9.5420     99.5499    180.8172   1.1320578589e+02   2.4945167830e+01    0.2041419    0.1982654  14.47 0.0005977851    1.394    0.283
        29  -8.6246    149.4136    180.1929   1.0286631089e+02   1.6397835063e+01    0.1784794    0.1276083 -68.08 0.0007476027    1.703    0.413
        30  -8.8494    134.2752    172.5035   1.0470623613e+02   2.0655040916e+01    0.3443871     0.196574 -73.57  0.001456857    2.680    0.627
        31 -10.7080    126.3583    173.9877   1.0661486497e+02   2.1796429280e+01    0.3408025    0.2246293  36.20  0.001760651    1.619    0.382
        32  -9.7699    124.2973    171.0088   1.0656981316e+02   2.2751654082e+01    0.2560933     0.206484  65.80 0.0003709484    1.171    0.146
        33 -10.3106    114.3929    173.9051   1.0912392320e+02   2.3896538335e+01    0.2282337    0.2201024  -7.85  0.001460935    1.348    0.258
        34 -10.1434    104.8856    172.3863   1.1091012102e+02   2.5788972470e+01    0.2582643    0.1880872 -57.93  0.001479772    1.445    0.308
        35  -8.8353    164.7523    171.2766   9.8162981396e+01   1.5069044850e+01    0.2092441    0.1819829 -64.92 0.0004303216    1.305    0.234
        36 -10.1695     97.4803    169.1708   1.1202361362e+02   2.7640706716e+01     0.342243    0.1427938  55.06  0.001405131    2.627    0.619
        37  -8.9493     72.8703    166.9086   1.1699334125e+02   3.1751825903e+01    0.2850781    0.1525719  46.89  0.001097648    1.772    0.436
        38  -9.3688    193.2205    165.4589   9.1340746866e+01   1.0377792893e+01     0.260594    0.2394259   5.88 0.0008383451    1.090    0.082
        39 -10.0745     94.5718    159.8042   1.1127278370e+02   3.0069229798e+01    0.2534979    0.2195019 -71.52 0.0006072338    1.151    0.131
        40 -11.1469     99.8768    152.8062   1.0896794541e+02   3.0720171364e+01    0.5611397    0.4122447 -35.86  0.002966395    1.839    0.456
        41  -9.0564    188.7064    154.5959   8.9986765006e+01   1.3163953652e+01    0.3719353    0.2498389  81.40  0.001501036    2.832    0.647
        42  -9.2400    134.4971    149.4621   1.0048900615e+02   2.5236178746e+01    0.3403808    0.1390835 -55.96  0.001243889    2.815    0.645
        43  -9.6387    133.6821    143.8343   9.9555229088e+01   2.6563060436e+01    0.5476836    0.1718924 -57.37  0.001500246    4.979    0.799
        44 -10.3206    109.9070    138.5108   1.0406592891e+02   3.2129094663e+01    0.4330284    0.2641349 -39.42    0.0019763    2.016    0.504
        45 -10.8525     98.6881    138.4900   1.0675597977e+02   3.4048689636e+01    0.2573842    0.2497282 -77.93 0.0002558797    1.144    0.126
        46  -9.5870    106.0154    130.7319   1.0347823160e+02   3.4526498946e+01    0.3657857    0.2894002 -75.79  0.001269521    1.284    0.221
        47  -9.5578    104.2594    125.5620   1.0285785594e+02   3.5982329344e+01    0.2867142    0.2163341 -38.99 0.0005606277    1.496    0.331
        48  -9.5911    116.1194    129.6204   1.0076919930e+02   3.2955481281e+01    0.3167195    0.2262281 -31.40  0.001351154    1.792    0.442
        49  -8.9891    167.6254    224.2290   1.0609233123e+02   5.9834423083e+00    0.1468831    0.1154897 -29.39  0.000955403    1.649    0.394
        50  -8.5848    111.1520    119.0189   9.9701578330e+01   3.6207042828e+01    0.2126057     0.193715 -27.01 0.0004857793    1.252    0.201
        51  -8.7126    168.2441    112.9707   8.4571000053e+01   2.5469885941e+01    0.2801506    0.2193084  84.87  0.001250462    1.665    0.399
        52  -9.7057    135.0000    109.0227   9.1309158236e+01   3.3666270056e+01    0.7533095   0.08497727 -44.99  0.001408898    8.731    0.885
        53  -8.9319    205.6481    110.1099   7.6199149608e+01   1.7239222319e+01    0.2604357     0.212629  63.63 0.0008669827    1.362    0.266
        54  -8.0457    127.6752     95.2852   8.9516418882e+01   3.8100767807e+01    0.1507699    0.1200534 -88.84 0.0003882831    1.602    0.376
        55 -10.8276    168.7259     68.4817   7.1872824140e+01   3.3632793439e+01    0.5656678    0.3773621 -82.96 0.0007746362    2.411    0.585
        56 -11.7401    169.6340     51.6479   6.6403296048e+01   3.6138038897e+01    0.5811561    0.5170477  -9.37  0.001181148    1.179    0.152
        57  -8.7164      1.7589    247.3866   1.3510025686e+02   2.4932324859e+01   0.08512457   0.05526686  80.79 0.0001340945    1.179    0.152
        58 -11.4959    188.5638     30.6811   5.6491933778e+01   3.4094629263e+01     0.549159    0.4829375  50.39  0.001289338    1.135    0.119
        59 -11.0718     54.5081    221.6244   1.2572961739e+02   2.3527636757e+01    0.2052143    0.1284116  66.45  0.001436268    1.226    0.185
        60  -9.9207    189.6921     14.9126   5.1494801690e+01   3.5642729950e+01    0.2633514      0.18539  55.77   0.00108846    1.360    0.265
        61  -8.3437     92.2558     14.1943   7.0879448856e+01   5.9497496466e+01    0.1689808     0.158114 -48.26 0.0009252282    1.362    0.266
