#   1 NUMBER                 Running object number                                     
#   2 MAG_AUTO               Kron-like elliptical aperture magnitude                    [mag]
#   3 X_IMAGE                Object position along x                                    [pixel]
#   4 Y_IMAGE                Object position along y                                    [pixel]
#   5 X_WORLD                Barycenter position along world x axis                     [deg]
#   6 Y_WORLD                Barycenter position along world y axis                     [deg]
#   7 A_WORLD                Profile RMS along major axis (world units)                 [deg]
#   8 B_WORLD                Profile RMS along minor axis (world units)                 [deg]
#   9 THETA_WORLD            Position angle (CCW/world-x)                               [deg]
#  10 FWHM_WORLD             FWHM assuming a gaussian core                              [deg]
#  11 ELONGATION             A_IMAGE/B_IMAGE                                           
#  12 ELLIPTICITY            1 - B_IMAGE/A_IMAGE                                       
         1 -13.4380    170.9492     73.1526   3.4946909392e+01   3.2738016201e+01     1.679802    0.8462418 -56.13  0.004962585    2.049    0.512
         2 -15.2537    193.8743    103.6791   3.7933917974e+01   2.3422876808e+01     5.042768    0.8553315 -42.71   0.01464553    5.299    0.811
         3 -16.5834    241.8566    108.2883   3.2716308878e+01   1.5091116653e+01      8.01059     1.483599 -40.60   0.02587438    5.463    0.817
         4 -17.4298    238.2880     68.6613   2.6327809550e+01   2.1370793366e+01     4.793954     2.312479 -57.80    0.0289001    1.764    0.433
         5 -16.5410    221.9749     77.5052   2.9434190544e+01   2.2734909960e+01     1.826496     1.670536  80.67   0.01420223    1.324    0.245
         6 -15.7664    208.4810    116.1763   3.8254887346e+01   1.8845870052e+01     4.375728     1.522975 -49.73    0.0131372    2.596    0.615
         7 -15.6570    248.6953     65.1333   2.4875623384e+01   2.0264406272e+01     1.773347    0.3292561 -48.97  0.007320298    3.837    0.739
         8  -8.2792    207.1233     12.1769   1.8819271799e+01   3.3548650657e+01    0.1627015    0.1094109 -51.12 0.0007276791    1.341    0.254
         9  -8.7962    191.7776     10.5888   1.9589125101e+01   3.6569909549e+01     0.192051    0.1583991  49.76  0.001336987    1.797    0.443
        10 -10.3142    137.2110      8.8595   2.4332632359e+01   4.7978335352e+01    0.4393105    0.1940368 -73.61  0.001926301    3.141    0.682
        11  -7.5915    218.0992      8.0769   1.7420392087e+01   3.2022176235e+01     0.208748   0.09711692 -51.38  0.001126551    1.667    0.400
        12 -11.0193    237.3238      3.9087   1.5728483510e+01   2.9220986835e+01    0.3212614     0.268046 -69.97  0.002057282    1.355    0.262
        13  -7.5677    245.3121      2.2043   1.5099284955e+01   2.8122045150e+01    0.1164945   0.09424891 -30.83 0.0007054755    1.957    0.489
        14  -6.6212    245.9650      6.0826   1.5664027047e+01   2.7627552400e+01    0.2228513   0.07786307  65.60  0.001343827    3.201    0.688
        15  -7.8261    227.4140      5.3904   1.6459280675e+01   3.0703425810e+01   0.09222947   0.07386325 -78.18  0.000783785    1.247    0.198
        16  -7.7018    220.7160      2.7268   1.6366590614e+01   3.2108758145e+01    0.1238599   0.07603325 -68.07 0.0002867354    1.181    0.153
        17  -7.4424    195.7773      2.7868   1.7831153851e+01   3.6587664383e+01   0.08268931   0.06763684  81.82 0.0006460576    1.332    0.249
        18  -8.4882    120.5044      2.4954   2.4766456144e+01   5.2217025657e+01    0.1191563   0.09315769  79.67 -5.954615e-05    1.000    0.000
        19  -8.9154    225.4177      1.2795   1.5883994540e+01   3.1450665546e+01    0.1285888   0.06897996  88.07 0.0006697359    1.583    0.368
        20  -7.6732    138.3155      1.3259   2.2314982635e+01   4.8407356067e+01    0.1115137   0.07560539  51.44 0.0002177176    1.670    0.401
        21  -8.6173    204.0436    234.3318   5.9568703547e+01  -1.3803500093e+00    0.2040472    0.1488887 -37.57 0.0003851871    1.323    0.244
        22  -7.9314    156.6726    201.1440   6.3803652714e+01   1.0327571117e+01    0.2829194      0.16672 -59.35   0.00105821    2.138    0.532
        23  -6.7679    132.7069    199.2460   6.9135595840e+01   1.4098903489e+01    0.1321766    0.1106864  53.79 -0.000275831    1.477    0.323
        24  -7.8011    177.5366    198.4821   5.8876218003e+01   8.0668782418e+00    0.1338973    0.1138601 -21.28 0.0005372719    1.008    0.008
        25  -7.4724     56.5722    198.5618   9.0063309162e+01   2.4641526286e+01    0.1446514    0.1398149   9.77 0.0001654379    1.031    0.030
        26  -8.5479    211.3541    197.0430   5.2281111943e+01   4.1754819207e+00    0.1751701    0.1325935 -33.80 0.0005656499    1.087    0.080
        27  -9.3955    183.1040    195.0143   5.7157581076e+01   8.0090444787e+00    0.1972581    0.1761891  -2.10  0.001256574    1.128    0.114
        28  -8.0985    200.3107    192.8713   5.3526836842e+01   6.2303690321e+00    0.3325784    0.2258862 -85.73  0.001268585    5.113    0.804
        29  -7.2740    102.6221    190.5161   7.5565201916e+01   2.0516615092e+01    0.1466231    0.1419516  -5.61 -3.825894e-05    1.050    0.048
        30  -7.9852    204.9883    188.2500   5.1900750158e+01   6.4899889446e+00    0.1710472     0.145277 -15.84 0.0004507186    1.101    0.092
        31 -14.8880    249.8492    106.4479   3.1569177301e+01   1.4264244859e+01    0.7965695    0.2128117 -43.65  0.003600538    2.827    0.646
        32 -10.4196    197.3965    180.7864   5.1955372519e+01   8.8206767447e+00    0.3102196    0.2138071 -33.66 0.0001023446    1.252    0.201
        33  -7.8001     82.7368    183.0869   8.0065952291e+01   2.5244972919e+01    0.2044299    0.1906252 -11.27 0.0003003149    1.061    0.058
        34  -7.1194    113.0050    181.2454   7.1107529713e+01   2.1202626398e+01    0.1844743    0.1254205  28.24 0.0001942197    1.445    0.308
        35  -8.7536    194.3967    174.7783   5.1430171994e+01   1.0345744437e+01    0.2277908    0.2041905 -22.16 0.0005028542    1.079    0.073
        36  -8.2952    186.1891    169.5705   5.2005558153e+01   1.2493460895e+01    0.1750464    0.1239584  15.99 0.0007405953    1.686    0.407
        37 -10.1617    199.1145    164.5265   4.8737288353e+01   1.1607203506e+01     0.489159    0.2000142 -42.52  0.001449302    2.088    0.521
        38 -15.1770    248.5908    145.2997   3.8127901469e+01   8.4342185078e+00     1.730738      0.89123 -36.78   0.01028699    1.658    0.397
        39  -7.5042    177.9136    159.0327   5.1614753237e+01   1.5799060670e+01    0.1583306    0.1475907 -25.25  0.000594723    1.062    0.058
        40  -8.0059     87.5916    158.7090   7.4313805203e+01   3.0801162957e+01    0.2477893    0.1939896 -70.52  0.000566629    1.436    0.304
        41 -10.1713    165.5414    154.8991   5.3303766056e+01   1.8610509847e+01    0.4066843    0.3246417  26.83  0.002255208    1.371    0.271
        42  -9.0632    179.5966    150.2514   4.9595638079e+01   1.7265127141e+01    0.3969553    0.2283339 -43.25  0.001804517    1.552    0.356
        43  -8.3316    175.7364    149.0266   5.0095900307e+01   1.8129648781e+01    0.1997917    0.1812162 -30.12 0.0002241169    1.059    0.055
        44  -8.1297    187.3525    150.1826   4.8146532405e+01   1.6053547722e+01    0.2437191    0.1659024 -58.33  0.001030982    1.573    0.364
        45  -7.8609     54.7810    156.8582   8.4668911564e+01   3.5982212288e+01    0.2272758    0.1966451 -31.75 0.0003710516    1.174    0.148
        46  -8.0164    132.9028    148.1876   5.9405862982e+01   2.5658305507e+01    0.2234664    0.2040523 -89.26 0.0005926711    1.258    0.205
        47  -7.6225     85.1379    147.5801   7.2902312466e+01   3.4043115712e+01    0.2145896    0.1498266  13.54 0.0005823113    1.618    0.382
        48  -7.7565    169.5692    144.8190   5.0472103373e+01   1.9991021301e+01    0.2017266    0.1228153 -57.24 0.0009422661    1.770    0.435
        49  -8.4745    132.3831    141.4249   5.8100304078e+01   2.7271473965e+01    0.3736942    0.2465398 -62.43  0.001564122    1.760    0.432
        50  -7.5911     72.8486    140.8499   7.5575431642e+01   3.7709151345e+01    0.2118997    0.1860558  70.97 0.0004858104    1.304    0.233
        51  -8.4782    172.6032    140.1275   4.8930173137e+01   2.0412447443e+01    0.2507671     0.187131  72.94  0.001295121    1.843    0.457
        52  -8.7394     38.0348    137.9461   8.7472503156e+01   4.3093909818e+01    0.2239007    0.2158515 -30.68 0.0003339001    1.006    0.006
        53  -9.2962    160.2344    133.3862   5.0018012766e+01   2.3925173962e+01    0.5891604    0.2176869 -40.56  0.002119079    2.812    0.644
        54  -8.3163    186.4373    132.4319   4.4853394857e+01   1.9562254917e+01    0.3687831    0.2245076 -67.67  0.001708773    2.318    0.569
        55  -9.5877    190.3487    130.8550   4.3875530112e+01   1.9206166996e+01    0.5450892    0.2679734 -54.72   0.00241507    2.114    0.527
        56  -8.3692    195.5349    132.0480   4.3249752332e+01   1.8141845959e+01    0.2370348    0.1915998  49.72 0.0006358949    1.432    0.302
        57  -8.0153    177.5042    230.9836   6.4209510873e+01   1.9907073444e+00    0.1840603    0.1488817 -11.95 0.0007268831    1.008    0.008
        58  -9.9715    171.5318    126.9879   4.6445196303e+01   2.3166964874e+01    0.5630551    0.2442708 -44.43  0.002372864    2.116    0.528
        59  -9.3739    176.5115    124.0034   4.4908919463e+01   2.2852127947e+01    0.2399583    0.2304486 -78.47  0.000324477    1.090    0.083
        60  -8.7872    167.3028    131.2152   4.8138055151e+01   2.3094906288e+01    0.2442512    0.1761755  77.60  0.000829365    1.967    0.492
        61  -7.7844    116.5007    129.4604   5.9609041876e+01   3.2915111991e+01    0.1500335     0.146314  -7.29 2.821421e-05    1.029    0.028
        62 -11.2304     60.6000    123.6359   7.6289067408e+01   4.3980837550e+01     0.871375    0.5299795 -19.45  0.003397145    2.278    0.561
        63 -11.3965     56.5553    120.3731   7.7087059936e+01   4.5395460783e+01    0.9048074    0.5212364 -32.23  0.003623764    2.062    0.515
        64 -16.0719    237.6491    125.2132   3.6084639254e+01   1.3032720740e+01     1.275982     1.011753 -46.03  0.009307405    1.051    0.048
        65  -9.1012    163.6015    124.1347   4.7376618481e+01   2.5156481435e+01     0.244905     0.211929  18.02 0.0003492041    1.388    0.279
        66 -10.9376     41.9437    120.3891   8.2742766675e+01   4.7310835002e+01    0.6358781    0.4528875 -35.89  0.001222989    1.415    0.293
        67 -15.0982    229.8447    101.1889   3.2815802736e+01   1.7934844263e+01     1.101179    0.3728304 -43.42  0.005208224    2.380    0.580
        68 -11.9419    139.5952    106.7189   4.8528614877e+01   3.3218130774e+01     1.089941    0.5570797 -34.68  0.004383959    2.417    0.586
        69 -11.1399    140.0635    116.9309   5.0796876570e+01   3.1076928969e+01    0.6235712    0.4444377  30.59  0.002899056    1.651    0.394
        70  -9.4488    132.9904    108.7321   5.0529004173e+01   3.4146945650e+01    0.2737923    0.2511344 -56.39 0.0009447811    1.077    0.072
        71  -8.3116    188.6977    119.0747   4.1815469330e+01   2.1631729876e+01    0.2603799    0.1976474 -42.55 0.0007494403    1.208    0.172
        72  -7.8705    168.4698    114.4669   4.4379591805e+01   2.6109842180e+01     0.134865    0.1234778 -59.40 0.0002591218    1.001    0.001
        73  -9.9672    134.1508    111.8507   5.0993361020e+01   3.3282379591e+01    0.3457322    0.3052384 -38.46  0.001382331    1.166    0.142
        74 -10.1370    150.4894    105.1215   4.5818018344e+01   3.1344873460e+01    0.4029668    0.2621662 -75.92  0.001751072    2.215    0.549
        75  -8.8928    159.7450     95.9970   4.1935421923e+01   3.1179407995e+01    0.2339192    0.1947307  51.67 0.0002158772    1.277    0.217
        76  -9.9419    156.5898     92.2841   4.1675786598e+01   3.2470667420e+01    0.2767824    0.2435935 -80.27 0.0002873859    1.093    0.085
        77 -10.5862    155.2890    110.7078   4.6105996771e+01   2.9334576830e+01    0.4642633    0.3265843 -85.80 0.0001756646    1.974    0.493
        78  -9.3882    128.0655    111.1357   5.2295459989e+01   3.4645129894e+01    0.3425522    0.2439368 -65.22  0.001131691    1.631    0.387
        79  -9.3658    158.2483    109.0082   4.5138198644e+01   2.9083376346e+01    0.2391052     0.224601  84.15 0.0002558789    1.072    0.067
        80  -9.7803    164.0421    106.8987   4.3563933609e+01   2.8358187299e+01    0.4302068    0.2506631 -30.87  0.001589796    2.201    0.546
        81  -9.5776    165.8890     98.4110   4.1360746753e+01   2.9538364865e+01    0.3720191    0.2107594 -54.39 0.0001629186    1.758    0.431
        82  -7.8349    172.2992    101.0793   4.0823556410e+01   2.7829122992e+01    0.1845373    0.1529001 -55.41 0.0003951275    1.101    0.092
        83 -10.3215    159.0601    102.6796   4.3567775616e+01   3.0104996338e+01     0.539084    0.3188522 -36.13  0.002557065    1.859    0.462
        84  -9.6541    135.0649     95.3512   4.6814189323e+01   3.6331877337e+01    0.2695881    0.2463356  52.98 0.0002852353    1.106    0.096
        85 -10.4693    142.1196     89.0272   4.3750619029e+01   3.6023570134e+01    0.3910905    0.2917427 -35.33 0.0005238166    1.490    0.329
        86  -8.7385    180.2761     89.2792   3.7016487778e+01   2.8327985482e+01    0.2195506    0.1817177 -68.28 0.0003326896    1.097    0.088
        87  -9.4774    161.3689     85.1878   3.9194625481e+01   3.2726312299e+01     0.250207    0.2120787 -75.64 0.0002088983    1.120    0.107
        88  -8.4011      3.7375     85.9586   9.2753056952e+01   5.9436911881e+01    0.2153317    0.1783443  -8.58 0.0003431867    1.144    0.126
        89  -7.4910     35.8008     84.8415   7.7166487400e+01   5.6768864220e+01    0.1924071     0.167795  49.66  0.001062578    1.353    0.261
        90  -9.8497    154.1812     83.6420   4.0118741633e+01   3.4456247747e+01    0.3943194    0.2255791  68.76  0.001839756    2.032    0.508
        91 -10.5789    151.1163     77.8077   3.9301807291e+01   3.6067318711e+01    0.4035149    0.3408546  -1.66  0.002304946    1.710    0.415
        92  -9.6880    131.5073     83.0079   4.4526570449e+01   3.9331867493e+01    0.2728346    0.1926364  71.23  0.001371981    1.560    0.359
        93  -9.4206    157.3339     79.5956   3.8612899930e+01   3.4481264359e+01    0.2559517    0.2084563 -65.44 0.0003392833    1.167    0.143
        94  -9.1808    158.0372     73.5241   3.7082542532e+01   3.5316184375e+01    0.2461524    0.2102541 -42.24 0.0009458117    1.274    0.215
        95  -8.7624    140.0312     73.2354   4.0283051430e+01   3.9166792362e+01    0.1882855    0.1686203  73.76 0.0006236089    1.049    0.047
        96  -9.5615    139.5963     68.0604   3.9069050311e+01   4.0089326118e+01    0.2577153    0.1841997  54.37 0.0005924469    1.364    0.267
        97  -9.1254    121.6514     66.6568   4.2428466979e+01   4.4220507502e+01    0.2067438    0.1614948  25.67 0.0009756708    1.671    0.402
        98 -10.2009    149.6648     64.0668   3.6258405045e+01   3.8542408997e+01    0.2888981    0.2004551 -47.71  0.001392846    1.439    0.305
        99  -9.5812    136.8337     63.0791   3.8333206547e+01   4.1460017546e+01    0.2285045    0.1851886 -41.46  0.001341718    1.347    0.258
       100  -7.4844    183.9031     63.1688   3.1009765446e+01   3.1665913684e+01    0.1413117    0.1389658  89.20 0.0004132692    1.334    0.250
       101  -9.3371    156.2916     62.0594   3.4685537246e+01   3.7436401392e+01    0.2591686    0.2003228  49.90 0.0008605088    1.454    0.312
       102 -10.4207    145.6583     58.6180   3.5611982664e+01   4.0210627303e+01    0.3096115    0.2746373  24.78  0.001922534    1.512    0.339
       103  -7.7645    167.7681     56.1971   3.1634540731e+01   3.5888582565e+01    0.1591991    0.1395066  55.20 0.0006649313    1.357    0.263
       104 -10.2336    118.6208     54.6176   3.9777345973e+01   4.6732025420e+01    0.3309755    0.2706886  54.98 0.0003453502    1.149    0.130
       105  -9.8488    143.4604     51.5365   3.4223078209e+01   4.1693226024e+01    0.2390827    0.2191091  40.44 0.0007558992    1.351    0.260
       106  -9.0360    239.1498    230.5076   5.3000912285e+01  -4.0110006045e+00    0.2342445    0.1004993  23.81  0.001070332    2.602    0.616
       107  -8.4520    162.0672     40.9894   2.8952814851e+01   3.9101405284e+01    0.1803231    0.1556006 -87.57 0.0004283882    1.071    0.066
       108  -8.4533    195.8188    229.1263   6.0301863777e+01   3.2911714562e-01    0.2492628    0.1531351  14.15  0.001451979    1.612    0.380
       109 -16.1897    244.5950     94.7654   3.0149975012e+01   1.6725587511e+01     1.732928    0.9913138  40.45   0.01016519    3.060    0.673
       110 -16.5075    245.1232     83.7113   2.8248541841e+01   1.8243606756e+01     1.472478    0.8372994  49.58  0.009421389    2.516    0.603
       111  -7.4729    110.3154     38.3263   3.6869644880e+01   5.0797598783e+01    0.1299189   0.09336044  35.18 0.0007043887    1.671    0.401
       112  -9.2257    178.8372     36.7897   2.6050443417e+01   3.6179883137e+01    0.2217007    0.1535452 -81.86 0.0002121011    1.273    0.215
       113  -8.4474    200.9250     32.0254   2.2975847826e+01   3.2482840407e+01    0.1610866    0.1198183 -72.60   0.00116706    1.042    0.040
       114  -7.7059    176.2045     31.7950   2.5271097867e+01   3.7308803624e+01    0.1736944    0.1257749  38.44  0.001053766    2.203    0.546
       115  -7.2316    181.2945     31.2724   2.4639804361e+01   3.6350348732e+01   0.09963282    0.0842891  56.43 0.0002749358    1.520    0.342
       116  -9.3772    239.0957    216.1468   5.0824712574e+01  -1.8193651642e+00     0.268933    0.1951213  25.15  0.001941707    1.677    0.404
       117  -9.6062    184.6674    216.3812   6.0438275373e+01   3.8159448104e+00    0.2508424    0.1934048 -31.00 0.0003429714    1.135    0.119
       118  -7.4301    197.4520    216.4998   5.7986693717e+01   2.3385550455e+00    0.1254779    0.1005028 -20.64 1.903517e-05    1.019    0.019
       119  -8.3433    197.0910     27.8917   2.2509059851e+01   3.3682975432e+01    0.1577556    0.1184348 -75.09 0.0002843751    1.027    0.026
       120  -7.8492    162.4202    212.2521   6.4400618941e+01   7.3261472674e+00    0.1726455    0.1264884 -54.63  0.000932543    1.584    0.369
       121  -8.3170    141.3174     26.3363   2.8215410428e+01   4.5302368565e+01    0.1178414   0.08679639  43.51 0.0007048546    1.700    0.412
       122  -8.5899    225.1761    210.5428   5.2159277162e+01   4.0880465187e-01    0.1952707    0.1054379 -37.24 0.0005392529    1.454    0.312
       123  -7.2470    187.2760    207.7279   5.8497685590e+01   5.0954541181e+00    0.1065012    0.1026763 -76.35 0.0001736127    1.488    0.328
       124  -7.3450    186.2990     13.9685   2.0670621330e+01   3.7278571941e+01    0.1443566    0.1079817 -71.13 0.0002327153    1.072    0.067
       125  -8.1002     64.0000    228.2275   9.1410021210e+01   1.6441292433e+01    0.1974603    0.1718111  22.45 0.0003687993    1.057    0.054
       126  -8.5226    249.6299    227.1972   5.0900584928e+01  -4.3963154356e+00    0.1683482    0.1265799  -3.27 0.0005724088    1.285    0.222
       127  -7.5964    185.9028     10.4389   2.0001096143e+01   3.7717628747e+01    0.1530906    0.0874335  81.62 0.0004412998    1.483    0.326
       128  -8.8938    233.7994    227.0312   5.3325656848e+01  -3.0185574231e+00    0.2271924    0.1407142   7.05 0.0007908096    1.672    0.402
       129  -9.9963    239.0727    225.0263   5.2186121584e+01  -3.1781418349e+00     0.403014     0.203209  27.13  0.002484918    2.277    0.561
       130  -8.3269    206.5332    201.8468   5.3923633000e+01   3.8882190578e+00    0.2042651    0.1633292   8.16 0.0005005417    1.287    0.223
       131  -9.0917    243.0107    221.9820   5.1116074311e+01  -3.0610695311e+00    0.1699163    0.1455987 -16.93 0.0005204664    1.304    0.233
       132  -8.7609    233.9360    219.9698   5.2222331737e+01  -1.9392272265e+00    0.2420471    0.1259815 -39.81 0.0005841729    1.521    0.343
       133  -9.8440    230.7216    215.0819   5.1976527012e+01  -8.6764738592e-01    0.2263778    0.1902501 -14.87  0.000571676    1.197    0.164
       134  -7.7914    248.5420    240.5357   5.3027894030e+01  -6.2347107155e+00    0.1695544   0.09312687  17.93 0.0006247381    1.949    0.487
       135 -10.9732    187.2655    237.9829   6.3324641692e+01  -2.8635667118e-01    0.2863924    0.2030983   1.22 0.0003376199    1.247    0.198
       136 -15.3778    248.7450    128.8774   3.5400494939e+01   1.0991351640e+01    0.9940218    0.3661553 -41.48  0.005078842    2.145    0.534
       137 -15.0540    247.7340    118.0044   3.3709240337e+01   1.2801628160e+01    0.6829164    0.2783463 -48.52  0.003713581    1.900    0.474
       138  -8.3511    240.0494    236.0966   5.3692801803e+01  -4.9159635663e+00    0.2026648    0.1166038 -35.27  0.001353375    1.333    0.250
