#   1 NUMBER                 Running object number                                     
#   2 MAG_AUTO               Kron-like elliptical aperture magnitude                    [mag]
#   3 X_IMAGE                Object position along x                                    [pixel]
#   4 Y_IMAGE                Object position along y                                    [pixel]
#   5 X_WORLD                Barycenter position along world x axis                     [deg]
#   6 Y_WORLD                Barycenter position along world y axis                     [deg]
#   7 A_WORLD                Profile RMS along major axis (world units)                 [deg]
#   8 B_WORLD                Profile RMS along minor axis (world units)                 [deg]
#   9 THETA_WORLD            Position angle (CCW/world-x)                               [deg]
#  10 FWHM_WORLD             FWHM assuming a gaussian core                              [deg]
#  11 ELONGATION             A_IMAGE/B_IMAGE                                           
#  12 ELLIPTICITY            1 - B_IMAGE/A_IMAGE                                       
         1 -14.0186     22.9695     54.0136   9.3233048258e+01   6.3863293646e+01     1.393329     1.104112  59.41  0.008311467    1.998    0.500
         2 -12.5391    216.7774     11.3799   3.1170448801e+01   3.0552751297e+01    0.3737489    0.2858721  36.13  0.001105864    1.975    0.494
         3 -11.3084    222.4377     13.5862   3.1176685338e+01   2.9125513824e+01    0.2531799     0.178834 -84.78 0.0007320615    1.215    0.177
         4 -11.6185     64.9651     10.5849   5.7282475062e+01   6.4606882317e+01    0.3237056    0.1836659  38.76 0.0007469875    1.480    0.324
         5 -10.6962     36.6448     11.1088   6.9119876751e+01   6.9274256226e+01    0.1827035    0.1379624  27.32 0.0003495238    1.253    0.202
         6 -10.5782    114.8341      7.1822   4.2853701240e+01   5.4342487911e+01    0.1784698    0.1519673  71.58 0.0002651299    1.141    0.124
         7  -9.6132    203.2900      6.6605   3.1273305632e+01   3.3944042418e+01    0.1273768   0.07288321 -64.75 0.0007023457    1.644    0.392
         8 -10.6883    127.3446      5.9934   4.0207110583e+01   5.1544223881e+01    0.2451808     0.151728  60.25 0.0005652123    1.340    0.254
         9 -11.4444    189.8584      4.3183   3.1934587461e+01   3.7150872823e+01    0.2662725    0.1850622  87.87 0.0006393925    1.232    0.189
        10 -11.6047     67.5436      3.4409   5.3204883279e+01   6.4774214441e+01     0.205209    0.1939969  49.79  0.001465248    1.316    0.240
        11 -10.1793    127.3150    227.6467   9.5919433890e+01   8.9724208469e+00    0.1379984   0.09963766  64.46 0.0005792967    1.736    0.424
        12 -10.3842     70.5582    249.9262   1.1079420188e+02   1.2705126346e+01     0.191379    0.1384986  45.82 0.0005828888    1.154    0.134
        13 -11.2115     35.9650    223.3757   1.1581105852e+02   2.2347069316e+01    0.2704452    0.1788301  86.55   0.00113928    1.409    0.290
        14  -9.4551     55.7067    223.3572   1.1153044763e+02   2.0046045201e+01    0.1371608   0.08190615  65.73 0.0007030591    1.692    0.409
        15 -12.1481    239.1690    215.9903   7.0936865007e+01  -5.7042878474e+00     0.373629    0.1549636 -44.37  0.001690228    2.736    0.635
        16 -11.1147    180.1338    216.7437   8.2571745285e+01   2.6992652567e+00    0.2240592    0.1878507 -48.30  0.001312472    1.422    0.297
        17 -10.5203    192.8340    209.7744   7.8685653677e+01   1.9534868961e+00    0.2302041    0.1854897 -71.79   0.00118286    2.031    0.508
        18 -10.7360    176.6488    209.9013   8.2113391538e+01   4.5012768232e+00     0.252234    0.1793387 -59.15  0.001276302    1.901    0.474
        19 -10.1046     87.4966    205.4361   1.0213848628e+02   1.9768909304e+01    0.1383758    0.1254266  58.87 7.840593e-05    1.022    0.021
        20 -11.6527      3.6956    196.7890   1.2090820310e+02   3.1401190421e+01    0.2982216    0.1914047  66.48   0.00110533    1.364    0.267
        21 -11.4572    161.6977    193.8287   8.2489666733e+01   1.0137972565e+01    0.4244497    0.3137774  53.60  0.002113552    1.619    0.382
        22 -10.7640    234.9477    215.9851   7.1689013625e+01  -5.1514523691e+00    0.1671766    0.1600383 -62.15   0.00113291    1.718    0.418
        23 -10.3536    172.8549    191.1283   7.9474985224e+01   8.7501959930e+00    0.2146423    0.2035966  66.99  0.001232621    1.302    0.232
        24 -10.3155     66.9811    195.1881   1.0584601925e+02   2.5027219671e+01    0.2437961    0.1327685  57.94  0.001079396    2.034    0.508
        25 -10.2140     86.6750    188.3557   9.9939856467e+01   2.3884789240e+01    0.1545005    0.1042056  68.75 0.0007045814    1.770    0.435
        26 -10.0318     34.4789    187.5524   1.1302444539e+02   3.0725013700e+01    0.1312608    0.1126201  81.98 9.905815e-05    1.014    0.014
        27 -10.4784    183.1257    184.0202   7.5847222948e+01   8.3723469809e+00    0.3149433    0.1905769 -56.51  0.001373653    2.153    0.536
        28 -11.0473     67.1890    182.9431   1.0420112655e+02   2.7959793682e+01    0.3917468    0.2724968 -36.27  0.001934354    1.793    0.442
        29 -11.6305     63.6367    178.6015   1.0453916124e+02   2.9499661172e+01    0.4853349    0.3223546  74.08  0.002341289    1.728    0.421
        30 -11.9210     44.1932    182.0674   1.1001814115e+02   3.1006220459e+01    0.3201833     0.172477 -80.50  0.001485879    1.878    0.468
        31 -10.9472    147.4968    180.0016   8.3170163476e+01   1.5585562041e+01    0.2190132    0.1480093 -57.84 0.0009920689    1.680    0.405
        32 -12.3441     35.8901    174.5495   1.1131099354e+02   3.3756286913e+01    0.4587146    0.1843517  54.74  0.001774285    2.980    0.664
        33 -10.7372    191.8670    177.3263   7.2651943790e+01   8.1516124113e+00    0.3434205    0.1880339 -49.81  0.001487074    2.012    0.503
        34 -11.4417     11.6284    172.7614   1.1730130759e+02   3.6420611873e+01    0.4072534    0.1586911 -64.63   0.00186349    2.134    0.531
        35 -10.5649    175.8960    171.1205   7.4801681529e+01   1.2264277087e+01    0.3185706    0.1926258 -46.44  0.001425804    1.660    0.398
        36 -11.4774     44.4928    171.0327   1.0863512314e+02   3.3707838225e+01    0.3230754    0.1307563 -76.42  0.001219388    2.700    0.630
        37 -10.3866    121.3321    169.6677   8.7704726302e+01   2.2670673895e+01    0.1579837    0.1195452  73.78 0.0007052173    1.726    0.421
        38 -12.2139     29.1637    167.1028   1.1225444067e+02   3.6275790634e+01    0.3554141     0.257949   2.57 0.0009367462    1.858    0.462
        39 -10.2215    138.8007    164.8027   8.2251181454e+01   2.0601361133e+01    0.2504047    0.1805924  78.42  0.000971798    2.144    0.534
        40 -11.2218     97.2134    164.6381   9.3205317343e+01   2.8030605006e+01    0.4853827    0.2902933  27.97  0.001984743    1.828    0.453
        41 -10.7665     79.4950    163.5166   9.7917683128e+01   3.1072577351e+01    0.4543701    0.2400318  87.27  0.001390977    4.206    0.762
        42 -10.7845     47.2253    164.9922   1.0712083076e+02   3.4919714562e+01    0.2406833    0.2035353  38.13  0.001166499    1.261    0.207
        43 -10.3817    159.4756    175.4711   7.9429911079e+01   1.4378835796e+01    0.2596458     0.144671 -57.91  0.001025884    2.265    0.559
        44 -12.2698    118.6019    157.7859   8.6045744066e+01   2.5998436026e+01    0.5576978    0.3194114  33.65  0.001259693    1.803    0.445
        45 -11.4040    167.9550    156.4757   7.3453747422e+01   1.6841888929e+01     0.447428    0.3755089 -64.21  0.002263173    1.392    0.282
        46 -10.6497    219.0093    156.7928   6.3085164917e+01   7.2912692178e+00    0.2491081    0.1840867 -35.29 0.0007201502    1.200    0.167
        47 -10.1046    126.3732    154.7591   8.3339104117e+01   2.5282095635e+01    0.2245079    0.1399118 -40.54 0.0006306212    1.665    0.399
        48 -10.7281    189.3974    149.1924   6.7174815997e+01   1.4182793804e+01    0.2197466    0.1332438 -50.93 0.0008932747    1.750    0.428
        49 -11.4544    110.1368    147.7805   8.6258421785e+01   2.9960961639e+01    0.3770251    0.2034981  53.88  0.001399465    2.358    0.576
        50 -10.8730    148.6457    144.8926   7.5433066278e+01   2.3214558882e+01    0.3749966     0.244094 -76.48  0.001376501    2.739    0.635
        51 -10.6281     55.0190    145.0148   1.0189914214e+02   3.9100841597e+01    0.2636523    0.1493313  86.37  0.001020808    2.636    0.621
        52  -9.4633    250.5202    144.5461   5.5346596133e+01   4.2223455600e+00    0.1305974    0.1075095 -32.41 0.0005169868    1.007    0.007
        53 -10.6253    100.3816    143.5867   8.8131834250e+01   3.2720926899e+01    0.2933046     0.142437  41.23  0.001105287    2.093    0.522
        54 -10.5776    181.9159    141.8077   6.7076229080e+01   1.7152713144e+01    0.2866292    0.1975297 -67.26   0.00112203    2.056    0.514
        55 -11.1110     21.7943    139.6989   1.1108411088e+02   4.3822683262e+01    0.3721514    0.2376329   9.65   0.00134518    1.986    0.497
        56 -11.5774     98.1030    126.9464   8.5063062542e+01   3.7212628722e+01     0.503377    0.3546635 -82.39  0.001636086    2.039    0.509
        57 -11.6265     43.8625    124.3298   1.0180044542e+02   4.5657894663e+01    0.4058034    0.2703329  87.76  0.001542514    1.887    0.470
        58 -10.5088    189.2113    124.0428   6.1437133527e+01   1.9233959284e+01    0.2446311    0.2194525  50.15 0.0008036943    1.195    0.163
        59 -10.7802     58.9933    124.0342   9.6781564011e+01   4.3952353815e+01    0.2352262    0.1745362  73.65 0.0007932105    1.719    0.418
        60 -10.9146     28.7847    123.3833   1.0657185843e+02   4.7357755990e+01    0.2918727    0.1403168  78.08 0.0009553211    4.292    0.767
        61 -10.7030    108.9847    115.8510   7.9065337590e+01   3.7837023790e+01      0.45773    0.2301737 -51.37  0.001514794    2.012    0.503
        62 -11.2061    108.3027    110.0253   7.7741734300e+01   3.9309146586e+01    0.3664195    0.2766426 -33.88 0.0009880519    1.361    0.265
        63 -10.4312     71.9920    115.5007   9.0626356979e+01   4.4281326674e+01    0.2204492    0.1478858  31.07  0.001027678    1.575    0.365
        64  -9.6579    185.4664    114.4545   5.9879931059e+01   2.1895608861e+01    0.1492124    0.1390603 -56.97 6.003817e-05    1.069    0.065
        65 -11.3983     92.0683    112.1956   8.3298278521e+01   4.1820448692e+01    0.6041033    0.2920553 -65.12  0.001940878    3.351    0.702
        66 -11.5127     78.7776    112.1290   8.7574277874e+01   4.4060423381e+01    0.6962805    0.3549299 -73.06  0.002113035    4.130    0.758
        67 -11.6988     14.0090    109.5149   1.0931854280e+02   5.1930859154e+01    0.6240206    0.2565404 -69.60  0.002729799    2.108    0.526
        68 -12.0534    140.5685    105.3467   6.7590128309e+01   3.3591162990e+01    0.4107027    0.3057642  88.48  0.001771036    1.967    0.492
        69 -10.2344     56.6877    106.3120   9.3700864716e+01   4.8634517261e+01    0.1407145    0.1120589  73.53 0.0002755056    1.632    0.387
        70 -10.0375    166.8933    104.8748   6.1314872292e+01   2.7833486161e+01    0.2079767    0.1801597 -85.31 0.0006774651    1.317    0.241
        71 -12.1678     63.8857    102.4924   9.0248045788e+01   4.8589461759e+01    0.4714956    0.2913575 -60.69  0.002154229    1.677    0.404
        72 -12.0288    128.5011    102.5139   6.9962950329e+01   3.6810692090e+01    0.3510093    0.2471292 -88.42  0.001388296    2.405    0.584
        73 -12.9024    111.0590     99.7702   7.4118006276e+01   4.1043721234e+01    0.9337368    0.6208839  74.03  0.003577472    2.651    0.623
        74 -10.9167      6.6253    102.8834   1.1085837257e+02   5.3987851111e+01    0.2640594    0.1497481 -86.84  0.001313538    1.957    0.489
        75 -10.7849     81.7988     99.9909   8.3428615648e+01   4.6425405383e+01    0.2418658    0.1793569 -82.68  0.001081788    1.990    0.497
        76 -10.8468     20.2182     99.2055   1.0536315298e+02   5.4010516592e+01    0.2134098    0.1009853 -77.26 0.0008835848    2.504    0.601
        77 -10.6273     77.0183     97.0649   8.4255326233e+01   4.7878969982e+01    0.2186504    0.1997988 -22.35            0    1.035    0.034
        78 -11.5498     45.1514    102.1161   9.6854355715e+01   5.1024105724e+01    0.4846111    0.2789582  78.88  0.001687645    4.031    0.752
        79 -11.4005     39.6803     95.9905   9.7475879629e+01   5.3074884330e+01    0.4027548    0.2758017  16.27  0.001796512    1.619    0.382
        80 -11.2072     43.9788     94.9912   9.5635775500e+01   5.2854015510e+01    0.2627531    0.2310211 -36.02 0.0004373585    1.024    0.023
        81 -10.1357    188.5461     91.4439   5.3627380937e+01   2.5510960384e+01    0.1428031    0.1360727 -55.27 8.779873e-05    1.026    0.025
        82 -11.1030    123.5257     91.0271   6.8066357904e+01   4.0262471559e+01     0.217001    0.1329875 -64.61  0.000809676    2.511    0.602
        83 -11.2235     34.1413     89.1749   9.8002405324e+01   5.5226645651e+01    0.4810292    0.2194317 -73.14  0.001760079    3.348    0.701
        84 -11.4684     87.2941     87.6547   7.8080014528e+01   4.8207617386e+01    0.4471882      0.26051  67.53  0.001384361    4.504    0.778
        85 -10.2550     79.5543     87.5431   8.0680198829e+01   4.9579641675e+01    0.1473278    0.1357754 -16.61 4.478525e-05    1.010    0.010
        86 -10.9839    104.6918     83.6972   7.1325381875e+01   4.5695599842e+01    0.3040241    0.1862656 -63.36  0.001182954    2.512    0.602
        87 -11.3276     24.0695     79.7859   9.9787391267e+01   5.8266989273e+01    0.4123063     0.212757 -75.88  0.001749776    2.768    0.639
        88 -11.6231     61.0944     75.7371   8.3854285931e+01   5.4994128038e+01    0.6619675    0.2817573 -36.83  0.002548893    2.518    0.603
        89  -9.9899    203.5383     76.4315   4.7489310356e+01   2.4747138688e+01    0.1358843    0.1261012 -63.71 4.834343e-05    1.036    0.035
        90 -10.7426    101.7073     73.9481   6.9199567052e+01   4.8201824369e+01     0.206192    0.1828597 -32.58 0.0004739108    1.137    0.120
        91 -11.3499     82.0379     72.7086   7.5234689583e+01   5.2211218744e+01    0.4269311    0.2823796 -71.90   0.00171221    2.925    0.658
        92 -11.2447     50.9624     69.6362   8.5952823371e+01   5.7656036916e+01    0.3600333    0.2019174 -65.95   0.00147118    2.901    0.655
        93 -13.5957     36.8350     58.8365   8.8479840962e+01   6.1539620146e+01     1.020015    0.7773499 -81.14  0.005471372    2.200    0.546
        94 -10.6135    227.4607    249.7434   7.8778168867e+01  -9.0502381614e+00    0.3056993   0.08643565  28.59  0.001214625    3.559    0.719
        95 -13.5299      9.2160     49.3595   9.8391514841e+01   6.5823847800e+01    0.3936171    0.2724004 -15.11  0.001143524    1.335    0.251
        96 -11.9268      7.5858     65.8644   1.0348115448e+02   6.2474825223e+01    0.4666787    0.2155523  26.13   0.00214041    2.458    0.593
        97 -10.2706    130.7257     57.7144   5.6105756433e+01   4.4616894916e+01    0.1922317    0.1661271 -81.38 0.0009940839    1.343    0.255
        98 -11.8109     44.1850     52.3970   8.3066971458e+01   6.1906404093e+01    0.3813746    0.2642288 -17.39    0.0011989    1.397    0.284
        99 -10.7992     93.5161     48.5104   6.3110732757e+01   5.4228830907e+01    0.1398259    0.1264046  21.30 -6.42522e-05    1.005    0.005
       100 -10.1764     42.8845     45.9168   8.1279595091e+01   6.3244750394e+01    0.2021666    0.1494897 -13.03 0.0006145858    1.234    0.190
       101 -12.3011     74.7099     39.3947   6.5934877968e+01   5.9259823626e+01    0.2867021    0.2493054  10.74 0.0006107321    1.018    0.018
       102 -11.5321    147.4515     32.8707   4.5036610898e+01   4.4062802462e+01    0.2422976    0.1889658  69.86 0.0003992777    1.186    0.157
       103 -10.1421    126.5229     35.1232   4.9829851593e+01   4.8747882503e+01    0.1853791    0.1360197 -30.32 0.0005937152    1.494    0.331
       104 -12.0451      2.0740     29.4904   9.5709195843e+01   7.0033508287e+01    0.4138287    0.1552241 -49.85  0.001669556    2.114    0.527
       105 -11.2709    152.3758     28.6057   4.2952857759e+01   4.3385517968e+01    0.2376134    0.1979841  53.34 0.0005306195    1.167    0.143
       106 -10.2893    178.0672     25.7250   3.8466416036e+01   3.7630583635e+01    0.1915695    0.1446295  74.79  0.001128103    1.189    0.159
       107  -9.9554    109.3331     26.6627   5.0876355247e+01   5.3695370382e+01    0.1322914    0.1025763 -75.23 0.0007051982    1.742    0.426
       108  -9.4335    123.6829     23.2737   4.6530027101e+01   5.0770710856e+01    0.1280571   0.09896939 -80.98 0.0002885586    1.565    0.361
       109 -11.2189    206.1996     21.1328   3.4233360771e+01   3.1765005255e+01    0.1765875    0.1591033  72.97 0.0005943636    1.237    0.192
       110 -10.3058     41.2178     20.6296   7.1512421921e+01   6.7406824270e+01    0.1823645    0.1315495  23.06 0.0004933192    1.221    0.181
       111 -10.5611     37.9582     18.4761   7.2036501505e+01   6.8157195316e+01    0.2085065    0.1672044 -39.99  0.001223264    1.654    0.395
       112 -10.6444     31.7549     20.7513   7.6105995289e+01   6.8672535174e+01    0.3229921    0.1458506  25.77  0.001614728    2.167    0.539
       113 -12.4170     90.5216     18.6805   5.2755426713e+01   5.8674940901e+01    0.2779883    0.2057206  51.43 0.0005060733    1.222    0.181
       114 -10.0948      1.4464     17.4895   9.1445700305e+01   7.2132626042e+01    0.1162125   0.08324893 -21.54 5.842839e-05    1.030    0.029
       115 -10.5083     25.5238    246.9739   1.1951144604e+02   1.8589270555e+01    0.1614547   0.09930182 -82.00 0.0005889286    1.554    0.357
       116 -10.6600     53.4002    244.9790   1.1387920732e+02   1.5825275884e+01    0.2773533    0.1966331  -0.36  0.001198562    2.444    0.591
       117 -11.1161    131.4088     12.9811   4.1741781105e+01   4.9980018469e+01    0.2459173    0.1682494  64.88 0.0005279643    1.262    0.208
       118 -11.9872     37.3251    244.4979   1.1706397368e+02   1.7796378873e+01    0.2752676    0.2031055  42.89 0.0008922474    1.257    0.204
       119 -11.4463    209.9915    237.2892   8.0027230934e+01  -5.0385840591e+00    0.2670509    0.2245131  55.86  0.001661145    1.957    0.489
       120 -13.1109     19.0742    236.5706   1.2014517008e+02   2.1345702825e+01     0.428896    0.2086607  34.72  0.001038036    1.940    0.485
       121 -10.4318    124.2936    231.6359   9.7151859539e+01   8.6566856094e+00    0.1348607    0.0980373  65.57 0.0007029356    1.710    0.415
       122 -11.4347     72.8505    228.7238   1.0827364682e+02   1.6692531924e+01    0.3353454    0.2029066  63.99  0.001317659    1.750    0.429
       123 -11.8207    150.0275    222.4140   9.0054818434e+01   6.4177071144e+00    0.5132956    0.3831267 -67.64   0.00273775    1.816    0.449
