#   1 NUMBER                 Running object number                                     
#   2 MAG_AUTO               Kron-like elliptical aperture magnitude                    [mag]
#   3 X_IMAGE                Object position along x                                    [pixel]
#   4 Y_IMAGE                Object position along y                                    [pixel]
#   5 X_WORLD                Barycenter position along world x axis                     [deg]
#   6 Y_WORLD                Barycenter position along world y axis                     [deg]
#   7 A_WORLD                Profile RMS along major axis (world units)                 [deg]
#   8 B_WORLD                Profile RMS along minor axis (world units)                 [deg]
#   9 THETA_WORLD            Position angle (CCW/world-x)                               [deg]
#  10 FWHM_WORLD             FWHM assuming a gaussian core                              [deg]
#  11 ELONGATION             A_IMAGE/B_IMAGE                                           
#  12 ELLIPTICITY            1 - B_IMAGE/A_IMAGE                                       
         1 -10.8332     86.9439     23.3706   3.3643473308e+01   6.0039682411e+01    0.8358004    0.3011295 -51.15  0.002411947    5.315    0.812
         2 -12.4152     96.5193     21.9971   3.0615451647e+01   5.7864057748e+01      0.36892    0.2904278  87.50 0.0006339895    1.347    0.258
         3 -10.6363    139.0122     22.0202   2.2916458760e+01   4.7202969635e+01    0.3332877    0.1707864  69.38 0.0005166861    1.804    0.446
         4 -11.9442     20.7913     17.1789   6.0468320147e+01   7.4181705863e+01    0.5256231    0.4201496  16.64   0.00295476    1.154    0.133
         5 -10.4378     66.2676     16.3063   3.6547171568e+01   6.5712467211e+01    0.2545762    0.2267214   4.89 0.0003141788    1.171    0.146
         6 -10.9846    183.5671     14.5676   1.6010938756e+01   3.7331622700e+01    0.3685619    0.2496854  36.14  0.001431307    2.184    0.542
         7 -11.1924     49.3120     13.3887   4.1590965939e+01   6.9727261381e+01    0.3258648      0.26733 -23.46  0.001975222    1.285    0.222
         8 -11.1400     45.1021     12.5514   4.3034013590e+01   7.0683682735e+01     0.404423     0.240478  -2.45  0.001803056    2.369    0.578
         9 -10.0533      5.9884     14.4639   7.0671508357e+01   7.6415743766e+01    0.2397999    0.1635609 -74.60  0.001268049    2.452    0.592
        10  -9.3777    204.1745     13.4691   1.4263555691e+01   3.2943272258e+01     0.185323    0.1148286 -44.16 0.0002908233    1.339    0.253
        11 -11.0597    120.1145      8.8946   2.0983555165e+01   5.3268329291e+01    0.3517531    0.2223608 -24.59 0.0003721033    1.748    0.428
        12 -11.0345    123.6860      6.5573   1.9634396204e+01   5.2574329503e+01     0.311591    0.2098067 -88.12  0.001061192    1.422    0.297
        13 -10.2178     35.0000      7.0103   4.4647210193e+01   7.3321877784e+01    0.2365486    0.1691686  -4.43  0.001200062    1.498    0.332
        14 -11.0533     37.9832      2.3367   3.9831503033e+01   7.3275398472e+01    0.3543431    0.2529068  37.26   0.00144868    1.229    0.186
        15 -10.7657     35.2813     13.3427   4.8676989141e+01   7.2446634896e+01    0.2564131    0.2156207  19.89 0.0009000417    1.058    0.055
        16  -9.7052    162.5691     11.7020   1.7015161943e+01   4.2505614716e+01    0.1778888    0.1048716 -43.62 0.0009379137    1.550    0.355
        17  -9.3049     78.6417     11.8184   3.0458485050e+01   6.3310510385e+01    0.2217726    0.1747174 -36.39  0.001270821    1.392    0.282
        18 -10.8709     69.9335      8.4263   3.1194829333e+01   6.5704622420e+01    0.3628682    0.2782853   4.16  0.001499124    1.476    0.323
        19 -10.3088     74.1773     11.0298   3.1306991248e+01   6.4451515082e+01    0.3073539     0.244724 -50.31  0.001772712    1.441    0.306
        20 -10.0804     77.8509      8.1176   2.8832617803e+01   6.3856027658e+01    0.3099544     0.187277  45.15 0.0009153165    1.553    0.356
        21 -10.0384     74.4978      6.5093   2.8903177314e+01   6.4804948722e+01    0.2218046    0.2085464   7.97 0.0008257955    1.149    0.130
        22 -11.6661     26.9921     10.7633   5.2051384089e+01   7.4239097606e+01    0.4198974    0.3152106  68.87  0.002273659    2.285    0.562
        23 -10.6847     22.9864      5.0144   5.0689346354e+01   7.5691916311e+01    0.1952867    0.1655992  11.50  0.001289692    1.005    0.005
        24 -10.4146    104.2841     10.7812   2.4285188667e+01   5.7088576868e+01    0.5548589    0.2431119  79.32  0.002207656    2.546    0.607
        25  -9.8666     98.7005      8.3492   2.4301872754e+01   5.8709649406e+01    0.2188656    0.1895138 -53.60 0.0007812847    1.231    0.188
        26  -9.8358     96.4564      5.5806   2.3527495997e+01   5.9509725078e+01    0.2045529    0.1941082   9.54 5.454029e-05    1.189    0.159
        27 -11.7559     56.0971      9.0720   3.6224215776e+01   6.8778162041e+01    0.4383085    0.3246601  38.90  0.001488442    1.227    0.185
        28  -9.7945    213.2666      8.4840   1.2560016368e+01   3.1567517734e+01    0.1765742    0.1462541  75.42 0.0006408148    1.383    0.277
        29 -10.6099      3.5340      8.3487   6.9159838330e+01   7.7760006285e+01    0.2214765    0.1900965 -25.20 0.0009495972    1.130    0.115
        30 -11.9015    179.6190      3.4478   1.3372982712e+01   3.9313496907e+01    0.3314394    0.2474948 -37.67  0.002097413    1.320    0.243
        31  -8.9456     40.3264      8.3160   4.2698160751e+01   7.2143525452e+01    0.1357607   0.08820862  21.36 0.0003457182    1.672    0.402
        32  -8.9866    236.1842      6.6005   1.1020230355e+01   2.7297387436e+01    0.1406655   0.09340841  71.46 0.0009494922    1.741    0.426
        33 -11.6352     86.2549      7.0908   2.6304819844e+01   6.1906976476e+01    0.4122805    0.2410704  49.78  0.001014138    1.563    0.360
        34  -9.3765    242.5712      5.4747   1.0517324094e+01   2.6239647917e+01    0.1112946   0.08053984 -54.44 8.091552e-05    1.012    0.012
        35 -10.3993    203.5665      4.5272   1.2177937929e+01   3.3964687473e+01    0.2231053    0.1785985  59.41   0.00114712    1.553    0.356
        36 -10.5668     17.1703      4.5362   5.4600974868e+01   7.6668816483e+01    0.2437149    0.1594236  11.87  0.001382299    1.608    0.378
        37 -12.5027    186.9448      6.3432   1.3634482076e+01   3.7392448233e+01    0.5643122     0.248934  60.43  0.002749268    2.437    0.590
        38  -9.2711    134.7576      4.0002   1.7405442301e+01   5.0017786800e+01    0.1825769    0.1360095 -62.21 0.0004172679    1.277    0.217
        39  -9.9456    131.4180      3.6646   1.7664092794e+01   5.0879752710e+01    0.2203081    0.1799721  59.83 0.0006482278    1.238    0.193
        40  -9.4906    233.4841      1.5564   1.0091330149e+01   2.8295904857e+01    0.1811191    0.1324607 -60.20 0.0007647417    1.039    0.038
        41  -9.3125    230.3113      1.7062   1.0254573809e+01   2.8880267247e+01    0.1353257    0.1241922  88.61 0.0005354037    1.370    0.270
        42 -11.3112    114.0553      1.8217   1.9157357941e+01   5.5391651226e+01    0.5212125    0.1654711  72.59  0.001777964    2.740    0.635
        43  -9.9555     32.4986     10.4887   4.8434435126e+01   7.3333451516e+01    0.2148878    0.1566414 -26.27 0.0006811946    1.398    0.285
        44  -8.9807    143.4268      1.5063   1.5700282241e+01   4.8079462197e+01     0.128003    0.1117784 -85.51 0.0001875631    1.035    0.034
        45 -10.4913     96.6861    110.9405   6.1556133831e+01   4.1151156913e+01    0.4181766    0.2519463 -42.16  0.001738332    1.728    0.421
        46 -10.0625     41.2947    249.1245   9.5833423801e+01   1.6915588627e+01     0.300353    0.1011502  45.63  0.001396401    2.251    0.556
        47 -13.5115     36.0526    233.5817   9.6094277294e+01   2.0441340899e+01     1.915921    0.7866381  60.24  0.008948433    2.524    0.604
        48 -14.1311      5.7689    202.6831   1.0165277200e+02   2.9851840677e+01     2.252911     1.626175 -32.81   0.01335805    1.945    0.486
        49 -12.7559      8.5862    247.5718   1.0266565780e+02   2.0322318222e+01    0.6213102    0.2695064  44.49  0.003588164    1.641    0.391
        50 -13.1085      6.2123    227.0551   1.0248575646e+02   2.4562478666e+01    0.9057265    0.3515047  40.61  0.003399361    1.878    0.467
        51 -13.1588      6.3719    220.5237   1.0221415147e+02   2.5907929291e+01     1.019703    0.4162461  33.53  0.005256812    1.938    0.484
        52 -12.5619      1.9253    248.4924   1.0405972564e+02   2.0722151837e+01     0.466031     0.275072 -82.43  0.002632106    1.820    0.451
        53 -13.1134      2.2877    236.7418   1.0365206707e+02   2.2946259061e+01    0.7153831    0.3042952 -82.37  0.003734354    2.416    0.586
        54 -10.1902      2.1005    111.7602   9.7041067764e+01   5.3127170921e+01    0.2198841    0.1704389 -80.03 0.0003329183    1.138    0.121
        55  -9.6118     17.7617    108.5143   9.0392082676e+01   5.2968228052e+01    0.2255876    0.1429748   5.03  0.001069822    1.879    0.468
        56  -9.4348     50.4513    108.5164   7.7285202125e+01   4.9481961944e+01    0.1494746    0.1418288 -58.58 1.203083e-05    1.027    0.026
        57 -10.0618    107.9986    102.2152   5.5787916861e+01   4.0904599422e+01    0.3881135    0.2252663 -44.89 0.0008384364    1.711    0.416
        58  -9.1424     66.1550    102.9336   6.9978399461e+01   4.8601102993e+01    0.2036462    0.1719901 -29.85  0.001014886    1.284    0.221
        59 -10.2363     49.5386    101.1344   7.6009718462e+01   5.1544437732e+01    0.2959381    0.2036928   0.13  0.000860983    1.911    0.477
        60 -10.0168    102.6614     96.7971   5.5853342890e+01   4.3234706130e+01    0.3646816    0.2869745   7.03 0.0008718488    1.677    0.404
        61 -10.2947     63.7444     96.4111   6.9213610174e+01   5.0637424631e+01    0.3240579    0.2728697 -30.75 0.0009997174    1.269    0.212
        62  -9.3069     61.4438     90.9326   6.8633758781e+01   5.2374982549e+01    0.3145901    0.1557594 -66.56  0.001070893    2.558    0.609
        63 -11.8513     41.7385     95.3673   7.7912823935e+01   5.4064671784e+01    0.5683424    0.2286108  23.37  0.002036482    2.812    0.644
        64  -9.1246     20.4668     95.4695   8.7194271120e+01   5.6250219493e+01    0.1408574    0.1301069 -79.02 6.263072e-05    1.049    0.047
        65 -11.5002    132.3350     92.7555   4.6605172696e+01   3.7639114219e+01    0.3088875    0.2727549  56.33  0.000525522    1.159    0.137
        66  -9.9646     37.4791     90.4995   7.8631462982e+01   5.5846891745e+01    0.1462612    0.1362405 -49.90 6.249011e-05    1.023    0.023
        67  -9.4816    126.1200     88.8719   4.7018639369e+01   3.9812275464e+01    0.2177746     0.197163 -76.06 0.0002728041    1.149    0.130
        68 -10.3435     78.4121     88.1995   6.1376232054e+01   5.0052163158e+01    0.2818385    0.2166748  39.35 0.0006040686    1.315    0.240
        69  -9.3080     88.5116     85.9142   5.7143864248e+01   4.8594587434e+01    0.2260856    0.1508444 -49.28  0.000418925    1.494    0.331
        70 -10.4550      4.3056     96.1378   9.4419641797e+01   5.7184222728e+01    0.3140277    0.2215173 -19.45  0.001254233    1.610    0.379
        71  -8.9339     12.4827     85.4821   8.9108178951e+01   5.9501680520e+01    0.1401304    0.1234498 -56.20 0.0008098991    1.036    0.035
        72 -11.9868     54.7633     79.0600   6.7956431281e+01   5.6337502032e+01    0.3354865    0.2906064 -61.49 0.0003437503    1.173    0.147
        73 -10.3312     47.1300     81.3765   7.1983346113e+01   5.6912621178e+01    0.2126416    0.1288576  42.43 0.0009388832    1.753    0.429
        74  -8.9689      5.5722     80.4023   9.1596948801e+01   6.1259165605e+01    0.1325251    0.1209209 -70.05 0.0001555743    1.046    0.044
        75 -10.6833     78.5077     78.2627   5.8227941607e+01   5.2301759895e+01    0.3713126    0.2482934  62.64  0.001159557    1.925    0.481
        76  -9.0827     72.9243     77.9993   6.0230142301e+01   5.3435065662e+01    0.1838983     0.168575  36.87  0.000768613    1.099    0.090
        77  -9.1692    144.4755     77.0332   3.9322514029e+01   3.7843662525e+01    0.2030483    0.1338868 -10.49 0.0008093393    2.480    0.597
        78  -9.2003     99.6733     77.6499   5.0907077782e+01   4.8013982283e+01    0.1583534    0.1231769   1.63 0.0007048633    1.759    0.431
        79  -9.1854      2.0029     75.5056   9.2599436053e+01   6.2711011099e+01    0.1985224   0.08851764 -27.70 0.0008105794    2.590    0.614
        80  -9.3968      7.9183     68.6823   8.8249139433e+01   6.4127929861e+01    0.1739096    0.1654477 -37.34 0.0003917054    1.081    0.075
        81 -10.0393     83.2918     68.0505   5.3027406654e+01   5.3512714858e+01     0.251981    0.2086684  46.22 0.0003851232    1.200    0.167
        82  -9.5852    152.0266     66.7968   3.4841601405e+01   3.7826826624e+01    0.2256691    0.1829575 -70.77 0.0006443162    1.270    0.212
        83  -9.7916    192.1041     65.7630   2.8372065882e+01   2.8960646310e+01    0.1889511    0.1559101 -62.03 0.0003218653    1.119    0.107
        84  -9.7446    126.6091     64.9314   3.9501504507e+01   4.4196888065e+01    0.2068999    0.1756234 -44.75 0.0004471591    1.169    0.145
        85  -9.0451     75.3917     64.7566   5.4717507539e+01   5.5815511025e+01    0.1981597    0.1401941 -34.86 0.0005439231    1.492    0.330
        86 -10.0175     67.0200     64.6163   5.7944352199e+01   5.7483987695e+01    0.3145935    0.1939252 -46.58  0.001003624    1.622    0.384
        87  -9.5143      4.5148     64.1761   8.9200544237e+01   6.5457469917e+01     0.211578    0.1482593 -41.11 0.0005858688    1.309    0.236
        88 -10.4943     98.8203     61.0082   4.5453660115e+01   5.1455075616e+01    0.4434517    0.2876585 -66.26  0.001852429    2.151    0.535
        89 -10.0487     43.6397     62.4507   6.7656404127e+01   6.1912521289e+01    0.2793772    0.2415743  80.80  0.001515593    1.437    0.304
        90  -9.0103    121.0228     61.7881   3.9780041640e+01   4.6078985641e+01    0.1916052    0.1180641  57.33 0.0008417717    1.609    0.378
        91  -9.5767    115.0870     61.1991   4.1043824225e+01   4.7601957309e+01    0.2973128    0.2084801  79.78   0.00134085    1.765    0.433
        92 -10.1338     35.1737     60.9760   7.1439362131e+01   6.3418576845e+01    0.2595496    0.1953816  11.61 0.0007007357    1.422    0.297
        93  -9.7695    231.7750     60.3129   2.2787477339e+01   2.1875171066e+01    0.2555633     0.123281  45.53  0.001212261    3.195    0.687
        94 -10.1608     57.4906     59.8613   6.0223643450e+01   6.0236740607e+01    0.3146313     0.206552  27.42  0.001043987    1.649    0.394
        95 -10.4015      3.4150     59.5352   8.8853306739e+01   6.6667880094e+01    0.3115921    0.2119922 -23.52  0.001236579    1.493    0.330
        96  -9.6871     22.2074     57.9199   7.7519249209e+01   6.5621353228e+01    0.1941307    0.1817372 -86.59 0.0004092295    1.215    0.177
        97  -9.5770    169.5457     55.2110   2.8654415927e+01   3.5521948271e+01    0.3455271    0.1380418 -29.20  0.001298141    2.769    0.639
        98 -11.0454     78.0401     55.7109   5.0311205278e+01   5.7050616813e+01    0.3125531    0.2438868  50.70  0.000717474    1.280    0.219
        99  -9.1946     45.4679     56.4850   6.4579566756e+01   6.2959799775e+01    0.1391452     0.135348 -15.55 0.0001014947    1.060    0.057
       100  -9.6817     85.8551     62.0563   4.9971673873e+01   5.4159496036e+01    0.4181595    0.2001952 -29.11  0.001435615    3.031    0.670
       101 -10.1426     82.9576     53.9895   4.7896075226e+01   5.6307694399e+01       0.2144    0.2108582  67.42  0.001219107    1.042    0.040
       102  -9.6050     72.1839     52.7792   5.1337311753e+01   5.8829246439e+01    0.1993026    0.1706748  -0.18 0.0006977128    1.300    0.231
       103  -9.7873     58.3618     53.2851   5.7262790070e+01   6.1435072479e+01    0.1484837     0.110741   2.34 0.0007020626    1.684    0.406
       104  -9.6804    111.5164     51.4976   3.8535529872e+01   5.0088545110e+01    0.2359067    0.1867103  17.01 0.0005177173    1.619    0.383
       105 -11.0715     63.3463     51.7218   5.4468240877e+01   6.0801189370e+01    0.2928718     0.261143  62.37 0.0008091328    1.257    0.204
       106  -9.2142     23.4763     50.4481   7.4300488502e+01   6.7216561039e+01    0.1341726     0.123813 -27.13 8.224853e-05    1.031    0.030
       107  -9.8275     93.9719     48.5577   4.2226046510e+01   5.4751737945e+01    0.2052458      0.19197 -38.48 4.706841e-05    1.107    0.097
       108  -9.4843     83.5711     46.4857   4.4676885224e+01   5.7485176905e+01    0.2636974    0.1393574  63.63  0.001021346    2.403    0.584
       109 -10.0770      7.0259     45.8150   8.3083853972e+01   6.9734850544e+01    0.2165904    0.1637446 -53.76 0.0003038999    1.185    0.156
       110 -10.0724     21.3961     44.6344   7.3424475698e+01   6.8735577361e+01    0.3557082    0.1814295  12.38  0.001376885    2.339    0.572
       111  -9.8135     45.0437     42.4798   5.8999176048e+01   6.5898402863e+01    0.2514481    0.1812703  19.49 0.0007885399    1.482    0.325
       112 -10.6838     32.5975     43.8247   6.6369305391e+01   6.7531580787e+01    0.6110561    0.4102481  59.75   0.00288841    2.288    0.563
       113 -10.5482     39.7447     43.6048   6.2287218093e+01   6.6531555712e+01    0.3051312    0.2482124   2.58  0.001010563    1.268    0.211
       114 -10.3429     36.5036     43.4204   6.3983780704e+01   6.7058121745e+01    0.2457568    0.1953671 -16.73 0.0006929647    1.283    0.221
       115  -9.5447     76.2941     43.3650   4.5882689483e+01   5.9625527114e+01    0.1484041    0.1109782   9.93 0.0007029438    1.713    0.416
       116  -9.6562    118.9903     41.4609   3.3179789214e+01   4.9775719187e+01    0.2681117    0.2056111 -12.26  0.001354989    1.612    0.380
       117  -9.4666     71.5332     42.3256   4.7185058562e+01   6.0830610619e+01    0.1910516    0.1384492 -22.69 0.0009411059    1.555    0.357
       118  -8.6955    143.2928     41.6749   2.8670136282e+01   4.3719220788e+01    0.1485264   0.09886874 -64.87 0.0003017567    1.618    0.382
       119  -8.9721    134.2046     39.6254   2.9561405619e+01   4.6246171973e+01    0.1891522    0.1234468  56.49 0.0002677206    1.502    0.334
       120  -9.0956     96.1664     38.1708   3.7452816191e+01   5.5845491744e+01    0.1859596    0.1624109 -82.22 0.0003798812    1.244    0.196
       121  -9.2334     91.2091     38.1878   3.8858077675e+01   5.7027252689e+01    0.2581961    0.1472043  24.72 0.0009662121    2.929    0.659
       122  -9.1106    198.6320     37.1042   2.0457883730e+01   3.1445791865e+01     0.160561    0.1143907 -23.25 0.0003422946    1.596    0.374
       123  -9.3864     13.0087     36.0241   7.5574426807e+01   7.1442221252e+01    0.3461067    0.1305731 -53.13  0.001481081    2.303    0.566
       124  -9.6831     81.8419     35.8001   4.0705864763e+01   5.9571258182e+01    0.2169003    0.1918707 -11.66 0.0003079564    1.222    0.182
       125  -9.6140     82.2708     31.4853   3.8657115358e+01   6.0093051545e+01    0.2791723    0.1976746  60.17  0.001422357    1.375    0.273
       126  -9.0130     85.5124     30.5387   3.7251515448e+01   5.9461964069e+01    0.1402186    0.1306855  51.02 0.0001334945    1.005    0.005
       127 -10.4668     40.5607     36.0744   5.8380185486e+01   6.7849809014e+01    0.3412971    0.1908867  39.64 0.0009992913    1.774    0.436
       128  -9.8644     58.6875     34.8124   4.8932728964e+01   6.4743854602e+01    0.3204302    0.1654741  39.50  0.001290212    1.914    0.478
       129  -9.0709    174.0187     34.7208   2.2369827243e+01   3.7241028424e+01    0.1600517    0.1112099  77.82 0.0008693386    1.419    0.295
       130 -10.3197     92.5048     33.6093   3.6574445388e+01   5.7373410543e+01    0.2298604    0.2176655  55.05   0.00014965    1.013    0.013
       131 -10.6153     50.6655     32.7083   5.1555320480e+01   6.6654349149e+01    0.3967643    0.2975856  59.72  0.001207595    1.628    0.386
       132 -10.4472    154.1125     31.9516   2.4016539952e+01   4.2322346140e+01    0.2225816    0.2135321 -45.69 0.0003682309    1.162    0.139
       133  -9.4851    153.0521     27.5356   2.2802754200e+01   4.3108562829e+01    0.1898604    0.1623401 -88.09 0.0004252183    1.070    0.065
       134  -9.7511     26.3825     31.8042   6.4668698550e+01   7.0778867307e+01    0.2846278    0.1658652 -11.31  0.001244932    2.505    0.601
       135 -10.5594     17.5518     31.3648   7.0376464173e+01   7.1949802664e+01    0.2275504    0.2009657 -15.39 0.0004314436    1.018    0.018
       136 -10.2630      3.5872     31.0805   8.0522562419e+01   7.3266772243e+01    0.2137723    0.1721766   5.18 0.0003338896    1.245    0.197
       137  -9.0959    181.0754     29.8456   2.0287947806e+01   3.6206587150e+01    0.1577344    0.1497574  58.15 0.0003239402    1.280    0.219
       138  -9.2571     64.5499     29.9360   4.4135826312e+01   6.4287993376e+01    0.1959741    0.1359145 -28.57 0.0006294305    1.531    0.347
       139  -8.9614     59.4716     29.5273   4.5998141454e+01   6.5417274051e+01    0.1384519    0.1253447  22.80 0.0008090629    1.039    0.037
       140 -10.6242    160.7429     27.3463   2.1798609591e+01   4.1266345842e+01    0.2367762    0.1986107 -61.68 0.0004631987    1.076    0.070
       141  -8.8750    103.8352     28.3486   3.1550119018e+01   5.5292785723e+01    0.1965834    0.1160801  53.85 0.0003834881    1.573    0.364
       142  -9.8943     53.5490    246.6364   9.3031442794e+01   1.6086425272e+01    0.2356921     0.120142  32.87 0.0009128877    1.543    0.352
       143  -9.9440    119.8201     26.2909   2.7481854831e+01   5.1539004425e+01    0.2793014    0.1846527  39.49 0.0009069096    1.752    0.429
       144  -9.1330    202.7876     25.9818   1.7371614216e+01   3.1877397279e+01    0.1673097    0.1358062 -55.87 0.0004365875    1.038    0.037
       145  -8.9783     60.4563     26.4587   4.4034527300e+01   6.5664730395e+01    0.1362312    0.1250876  28.52 0.0008075935    1.001    0.001
       146  -9.5754     50.3280     25.1457   4.7791926051e+01   6.7918222977e+01     0.328134    0.2238038 -86.82  0.001335636    3.457    0.711
       147  -9.9834     33.1493     26.3481   5.7629056062e+01   7.0781798774e+01     0.308412    0.1478915  23.82  0.001249914    2.741    0.635
       148 -10.9838     30.5475     20.0000   5.5620065928e+01   7.2255448177e+01    0.6641569    0.2899082  26.97  0.002640388    2.961    0.662
       149 -11.1704     38.2627     22.7195   5.2642544484e+01   7.0528935384e+01    0.4162019    0.2171287  39.31  0.001372478    1.824    0.452
       150 -10.5284     35.5088     19.4706   5.2321429459e+01   7.1512443711e+01    0.2396455    0.2019612   2.07 0.0008149411    1.117    0.105
       151 -10.4954    110.8071     24.4587   2.8515668648e+01   5.4019340769e+01    0.3186237    0.2114047  87.60  0.001551553    1.666    0.400
       152  -9.4862     46.2147    241.2417   9.4290516421e+01   1.7886978898e+01    0.3460604    0.0930683  35.83  0.001495088    2.506    0.601
       153  -8.9095    239.4057     24.4652   1.4564717678e+01   2.4825652563e+01    0.1148197   0.08588057 -51.88 0.0001625304    1.022    0.021
       154  -9.2908    170.1525     23.7865   1.9732830157e+01   3.9434437534e+01    0.1644616    0.1465046  56.93 0.0003746968    1.305    0.234
       155  -9.6269    129.2049     23.9697   2.5042192494e+01   4.9443881031e+01    0.2767681     0.149659  44.91  0.001228941    2.119    0.528
       156  -9.4108    245.6997     23.0952   1.3932453797e+01   2.3842946817e+01    0.1567557     0.109918 -45.14 0.0004744018    1.116    0.104
       157  -9.6737    195.8476     22.8548   1.7153416786e+01   3.3718461536e+01    0.1755212    0.1685185 -57.84 0.0007173749    1.243    0.195
       158  -8.9057      2.6832     23.6727   7.8192376667e+01   7.4892310571e+01     0.136177   0.07698192 -29.58 0.0002585639    1.676    0.403
       159  -9.6681     81.5024    238.9720   8.6237846382e+01   1.4324902229e+01    0.2641462     0.144863  10.41 0.0008265105    2.450    0.592
       160 -10.5493     51.5401    234.8195   9.2666310102e+01   1.8559865035e+01    0.2218775    0.1446222  33.13 0.0006272775    1.282    0.220
       161  -9.9440      5.5188     19.5990   7.3873114923e+01   7.5481459009e+01    0.4874512    0.1241668  24.64  0.001833758    3.697    0.730
       162 -10.2846     11.8958     17.6136   6.7520664998e+01   7.5220988174e+01    0.3400248    0.1695653  18.75  0.000952312    2.121    0.529
       163  -9.6831     66.3088     20.4803   3.8709607508e+01   6.5198514082e+01    0.2418077    0.1916011  73.73  0.001336711    1.446    0.309
       164 -10.2485     52.0262    224.4137   9.1786862678e+01   2.0599516956e+01    0.3481706      0.18303 -21.88  0.001186779    5.011    0.800
       165  -9.9349     48.6318     19.2779   4.5340311554e+01   6.9097695488e+01    0.2246666    0.2006704  80.29 0.0009646453    1.441    0.306
       166  -8.9180    208.3965     19.1807   1.5335726795e+01   3.1455275473e+01    0.1666728   0.08816148 -44.27  0.000395982    1.518    0.341
       167  -9.4427     72.9293     22.3382   3.7364083353e+01   6.3466887869e+01    0.1940445     0.159485  52.55 0.0003921603    1.125    0.111
       168  -9.2728     70.5171     18.4293   3.6207811355e+01   6.4496642129e+01    0.1344653    0.1233217  50.52 0.0002558039    1.039    0.038
       169 -10.4481     61.8292    221.3894   8.9211093800e+01   2.0104298369e+01    0.1841211    0.1131948  17.90 0.0009568008    1.749    0.428
       170  -9.8094     84.8615     15.6089   3.0634730213e+01   6.1421996796e+01    0.3553578    0.1268485  65.56  0.001313117    2.744    0.636
       171 -11.2019     45.2246    213.3576   9.2574143646e+01   2.3689061195e+01    0.3470837    0.2012495 -59.76  0.001842818    1.923    0.480
       172  -9.8925     78.5037    213.0079   8.4362115039e+01   1.9813320200e+01    0.1819995    0.1046693  74.61 0.0008104216    2.539    0.606
       173 -10.6625     66.6707    213.4174   8.7305386395e+01   2.1199000992e+01    0.2666149    0.1010227  33.88 0.0006746678    2.147    0.534
       174 -13.9563     29.2018    242.1661   9.8073728307e+01   1.9442014436e+01     1.414655     1.158175  82.52   0.01017272    1.284    0.221
       175  -9.0200    127.9686     14.1949   2.1785581174e+01   5.0788520096e+01    0.1821539   0.09687553  73.04   0.00043133    1.722    0.419
       176  -9.8246    116.5529     13.7490   2.3350821352e+01   5.3712894455e+01    0.1868206    0.1631315 -62.79 0.0006119574    1.151    0.131
       177  -9.9678     51.5759    210.8618   9.0804545919e+01   2.3525424857e+01     0.277146    0.1216647  54.05  0.001207242    2.317    0.568
       178 -12.3743     18.2775    248.8710   1.0069729500e+02   1.9207197738e+01    0.9261276    0.4607587  84.17  0.005356328    2.141    0.533
       179  -9.1401     94.1292     14.1515   2.7761664952e+01   5.9299396338e+01    0.1871425    0.1515178 -79.19 0.0004721906    1.330    0.248
       180 -11.8184     36.5010    193.5185   9.3239595747e+01   2.9114705822e+01    0.5337107    0.2319603  60.95   0.00221061    2.541    0.606
       181 -12.0056     33.0542    203.8235   9.4905884251e+01   2.7090997187e+01    0.4708999    0.1811412 -76.00  0.002026998    2.692    0.629
       182  -9.3203    124.1107    206.1042   7.2553554620e+01   1.4999545647e+01    0.1662182    0.1447689  49.07            0    1.256    0.204
       183  -9.9858     40.1984    205.8134   9.3246529050e+01   2.5897394492e+01    0.1653555    0.1497686 -31.42 0.0004294578    1.373    0.272
       184 -13.1974      9.0260    238.4584   1.0226969369e+02   2.2032767822e+01     0.654766     0.591971 -82.48  0.005012839    1.343    0.256
       185 -10.8927     45.0742    189.1930   9.0568505555e+01   2.9209885336e+01    0.1954231    0.1843053 -11.77 0.0005614472    1.260    0.206
       186 -11.2770     39.9417    187.9723   9.1849883855e+01   3.0065742808e+01    0.2128917     0.184605  61.90 0.0007951712    1.027    0.026
       187 -14.1334     20.6771    214.5382   9.8605683365e+01   2.5919044059e+01     1.791989     0.739387 -73.72  0.008611274    2.461    0.594
       188 -10.6937      6.9439    181.3146   1.0035211069e+02   3.4758798226e+01     0.344299    0.2391995 -50.95  0.001518083    1.697    0.411
       189 -11.0664     25.6786    180.0953   9.5127751238e+01   3.3430401295e+01    0.3547919    0.2817866  55.65  0.002093238    1.117    0.105
       190 -11.8708     55.7810    168.5663   8.5305771853e+01   3.3004439306e+01     0.431249    0.2415003  73.02  0.001441475    2.296    0.564
       191  -9.6098    200.7979     11.3776   1.3979490855e+01   3.3873610568e+01    0.1564267    0.1014143  70.25 0.0003980595    1.622    0.384
       192 -10.6911    192.5065     11.6324   1.4595714726e+01   3.5641152767e+01    0.2080754    0.1065147  80.22  0.001088698    1.892    0.472
       193 -12.1805     62.0886    169.2681   8.3546136662e+01   3.2023416387e+01    0.4649519    0.3294849 -39.44  0.002295944    1.667    0.400
       194  -8.9053     30.2963    171.6638   9.3118527578e+01   3.5079876652e+01    0.1489207   0.08832812  60.59 0.0002894958    1.650    0.394
       195 -10.6619     44.6788    166.9213   8.8401858336e+01   3.4747878279e+01    0.2234813    0.1954375  11.18 0.0005822633    1.295    0.228
       196 -11.5819     72.9976    159.5683   7.8926948975e+01   3.2960925355e+01    0.3789366    0.2396873  25.70  0.001726544    1.648    0.393
       197 -12.0680     54.8376    157.7646   8.4179642887e+01   3.5876439226e+01    0.4511177    0.3920508 -69.81  0.001307838    1.148    0.129
       198 -10.4772     63.1904    155.1308   8.1222154360e+01   3.5460461514e+01    0.2177173    0.2008944 -34.33 0.0005030556    1.198    0.165
       199  -8.8679     30.6035    150.2026   9.0911148500e+01   4.0597125846e+01    0.1942646    0.1184423 -60.96 0.0006963593    1.588    0.370
       200  -9.0244     25.7820    146.3789   9.2070556429e+01   4.2073232086e+01    0.1781682    0.1354102   2.05 0.0003837254    1.595    0.373
       201  -9.1539    106.3327    133.6634   6.4113181615e+01   3.3886030481e+01    0.1604693    0.1210289  76.85 0.0007052086    1.739    0.425
       202  -9.1995     73.6170    129.7122   7.3399938438e+01   4.0516536340e+01    0.1585547    0.1185889 -17.80 0.0002413077    1.743    0.426
       203 -10.5690     58.6097    129.1502   7.8388456096e+01   4.2893844973e+01    0.3059428    0.2063899  28.43 0.0009627095    1.539    0.350
       204  -8.9068      1.1571    129.0781   9.8865829816e+01   4.8550395829e+01    0.1708184   0.08633208 -78.65            0    1.736    0.424
       205  -9.3054     39.9048    125.0000   8.4345617075e+01   4.6370666290e+01    0.2305112   0.08408579  24.64 0.0007938853    2.883    0.653
       206  -9.0315     64.0114    121.9965   7.5101827950e+01   4.4001855902e+01    0.1757954    0.1685099  46.46            0    1.061    0.057
       207  -9.2126      6.0531    121.3366   9.6442706789e+01   5.0328083943e+01     0.173201    0.1621216  58.52 0.0002375629    1.119    0.107
       208 -10.0645    103.0719    119.9994   6.1880342508e+01   3.7759414895e+01    0.2257979    0.2241731 -30.13   0.00028682    1.023    0.023
       209  -9.5559     69.9478    119.0017   7.2383249966e+01   4.3868207014e+01    0.1823275    0.1782281  59.00 0.0005992479    1.033    0.032
       210  -9.9381     91.5308    116.4730   6.4575368234e+01   4.0787127465e+01    0.2722556    0.2219036  24.13  9.11622e-05    1.339    0.253
       211  -9.5360    153.1717    113.8985   4.7462752503e+01   2.8908833526e+01    0.2198016    0.1937549 -69.57 0.0004896324    1.235    0.190
       212  -9.6923     79.8849    110.4291   6.6933930684e+01   4.4386947199e+01    0.2524297    0.2105065 -54.45 0.0003949344    1.179    0.152
