#   1 NUMBER                 Running object number                                     
#   2 MAG_AUTO               Kron-like elliptical aperture magnitude                    [mag]
#   3 X_IMAGE                Object position along x                                    [pixel]
#   4 Y_IMAGE                Object position along y                                    [pixel]
#   5 X_WORLD                Barycenter position along world x axis                     [deg]
#   6 Y_WORLD                Barycenter position along world y axis                     [deg]
#   7 A_WORLD                Profile RMS along major axis (world units)                 [deg]
#   8 B_WORLD                Profile RMS along minor axis (world units)                 [deg]
#   9 THETA_WORLD            Position angle (CCW/world-x)                               [deg]
#  10 FWHM_WORLD             FWHM assuming a gaussian core                              [deg]
#  11 ELONGATION             A_IMAGE/B_IMAGE                                           
#  12 ELLIPTICITY            1 - B_IMAGE/A_IMAGE                                       
         1 -10.8994     44.8755     26.4558   7.6281880920e+01   6.6326189033e+01    0.3695617    0.2357525  13.02  0.001523771    1.585    0.369
         2 -11.4453      1.9866     21.8811   9.6416137082e+01   7.1480504068e+01     0.496346    0.2113238 -54.31  0.002101991    2.249    0.555
         3 -11.2779     21.0333      1.9661   7.5951811479e+01   7.2714660441e+01    0.5723143    0.1660405  34.10  0.002572694    3.285    0.696
         4 -11.7171     37.3736     19.0492   7.6334148220e+01   6.8421430052e+01    0.4051636    0.2931676  38.75  0.002555833    1.638    0.390
         5 -11.4001     34.5306     12.5410   7.4532076652e+01   6.9676089000e+01    0.3185397     0.267159 -22.03  0.001147749    1.336    0.252
         6 -11.0709     38.2718      7.1225   6.9987219627e+01   6.9811316345e+01    0.4169677    0.2859656  23.18  0.002096012    1.246    0.198
         7 -11.7785     30.4901      7.4722   7.3937041429e+01   7.0853291321e+01    0.3970924    0.3048339  21.39  0.002779279    1.243    0.195
         8 -10.9515     13.8069     15.9269   8.7122116902e+01   7.1547553071e+01    0.2943206    0.2428092 -26.21   0.00149731    1.264    0.209
         9 -10.9668     14.9568      8.0406   8.2617550633e+01   7.2593909494e+01    0.3533128    0.2711246   8.63  0.001948469    1.219    0.179
        10  -9.9414     85.8250     12.1655   5.4929308275e+01   6.0716262653e+01    0.2314956    0.1683599  -2.13 0.0009511936    1.459    0.315
        11 -11.7945    234.8132     15.0597   3.3387856110e+01   2.5740456248e+01    0.2308339    0.1840163 -68.32 0.0002726443    1.025    0.024
        12 -11.9044     66.0443     13.5860   6.1845762850e+01   6.4479594422e+01    0.2994741    0.2755531 -61.77 0.0009700303    1.595    0.373
        13 -10.6651    134.9940     11.2600   4.3769338575e+01   4.9561229581e+01    0.2025558    0.1935776 -21.89 0.0006035187    1.198    0.165
        14 -10.3358    126.0128     11.0416   4.5277860091e+01   5.1737558064e+01    0.1946028    0.1663647  55.65            0    1.027    0.026
        15 -10.1003      3.9558     10.7667   9.0478298634e+01   7.3165990829e+01    0.1446336    0.1082706  -6.57 0.0003597184    1.142    0.124
        16  -9.9361     45.8469     10.1337   6.8119516180e+01   6.8318019090e+01    0.1669552    0.1429302   8.78 0.0003115052    1.159    0.137
        17 -10.4350     22.4986      9.5317   7.9178332155e+01   7.1575381214e+01    0.3260074    0.1645971  12.75  0.001723005    2.229    0.551
        18  -9.3389    138.3022      9.3290   4.2602287983e+01   4.8937099507e+01    0.1360093   0.08805119  38.97 0.0002708979    1.647    0.393
        19 -10.8805     57.0039      8.0602   6.2557107136e+01   6.6689383585e+01    0.2836388    0.2087827  -0.37  0.001136718    1.264    0.209
        20 -11.3146     57.6067      2.6344   5.9671378433e+01   6.7110370372e+01    0.4451264    0.2642778  26.19 0.0001060604    1.530    0.346
        21 -11.3223    188.1417      6.7768   3.5567184918e+01   3.7130840411e+01    0.4078334    0.2032059  49.03  0.001828464    2.338    0.572
        22 -10.2495    204.3057      6.9919   3.4108401551e+01   3.3348195776e+01    0.1687477     0.140713 -65.88 0.0002322211    1.103    0.094
        23 -10.1875     70.1929      6.6396   5.7240589551e+01   6.4391221631e+01    0.2609454    0.1804566  41.89  0.001582806    1.236    0.191
        24 -10.1930      2.8801      6.7108   8.9189236847e+01   7.3863673404e+01    0.2109912    0.1236513  21.83 0.0008335879    1.760    0.432
        25 -10.9975    151.2943      6.0356   3.9664035602e+01   4.6076089506e+01    0.1734355    0.1595134  85.53 0.0003151868    1.080    0.074
        26 -11.4328     80.4793      1.4261   5.1810693931e+01   6.2776389172e+01    0.2931165    0.1517505  56.91 0.0005905474    1.730    0.422
        27  -9.6451    135.6907      4.3462   4.1416018335e+01   4.9998768912e+01    0.1321892   0.09096184 -67.55 0.0007044667    1.704    0.413
        28 -10.2572    120.0042      3.6574   4.3821250630e+01   5.3792337497e+01     0.234913    0.2034867 -79.96  0.001492122    1.289    0.224
        29  -9.3762    104.4823      4.4740   4.7194615251e+01   5.7316093019e+01     0.177632    0.1145437  72.08 0.0001679027    1.612    0.379
        30 -10.4010    102.3204      1.6492   4.6574936425e+01   5.8026779699e+01    0.3777848    0.1782607  63.38  0.001396889    1.882    0.469
        31  -9.8603    176.0522      2.6893   3.5759636824e+01   4.0392222562e+01    0.1853169    0.1417074  78.02 0.0004332166    1.119    0.107
        32  -9.3806      1.3174      2.8015   8.8202878619e+01   7.4557284332e+01    0.1579876   0.07311735 -34.56 0.0009374926    1.727    0.421
        33 -10.4406     83.6951      4.2915   5.2171854629e+01   6.1872964245e+01    0.2000063    0.1764477  39.70 0.0002353221    1.095    0.087
        34  -8.7882     49.6685      2.7464   6.2777827136e+01   6.8480395950e+01    0.1231392   0.07302178  22.35 0.0001700361    1.558    0.358
        35 -10.7738     11.6910      1.8121   8.1233451700e+01   7.3764963246e+01     0.181115    0.1358633  19.86 0.0005306498    1.409    0.290
        36  -9.3172     71.5619      1.5386   5.4459012744e+01   6.4571344395e+01    0.1232078    0.1006955  30.51 0.0001212712    1.012    0.011
        37 -10.5867     13.8514    192.5260   1.2122944653e+02   3.1837355872e+01     0.223272    0.1375558  68.73 0.0004790613    1.418    0.295
        38 -10.3503     30.7780    250.6497   1.2161912066e+02   1.7868593059e+01    0.1873687   0.09642068  34.66 0.0006020375    1.945    0.486
        39 -12.0520     17.8984    249.0907   1.2383788591e+02   1.9564749967e+01    0.3222652     0.268641  19.64   0.00239264    1.816    0.449
        40 -12.0276      4.6923    240.5153   1.2575860623e+02   2.2544508026e+01    0.4906896    0.1649544  47.11   0.00266647    2.181    0.542
        41 -10.2332      5.9914    250.0119   1.2595132092e+02   2.0603294947e+01    0.1852737    0.1625934 -81.99   0.00142808    1.467    0.318
        42 -10.9143      1.8157    248.8511   1.2661421506e+02   2.1227977732e+01    0.3482033    0.1644265 -85.35  0.002172797    1.849    0.459
        43 -10.8465      5.3894    192.5122   1.2305102611e+02   3.2591875637e+01    0.2681531    0.1931632 -41.35  0.001679224    1.968    0.492
        44 -10.1544      1.3107    191.1816   1.2383423652e+02   3.3233628497e+01    0.2264429   0.09215034 -82.88 0.0005859453    2.054    0.513
        45  -9.4428     22.1709    179.8796   1.1834630101e+02   3.4001239061e+01    0.1608483    0.1371848 -62.97 0.0004652897    1.296    0.228
        46  -9.2389     13.3398    180.6790   1.2045988186e+02   3.4624514800e+01    0.1344445   0.07389073  65.94 0.0005216875    1.717    0.418
        47 -10.5825      5.0796    167.6793   1.2137624418e+02   3.8375441279e+01    0.2606282    0.1655945  55.75  0.001359148    1.522    0.343
        48  -9.6450    226.4582    164.0104   6.7542749257e+01   3.7618932818e+00    0.2103685    0.1226519 -36.57 0.0008959347    1.545    0.353
        49  -9.1869    247.3165    155.3161   6.2190417997e+01   1.7473036045e+00    0.1346781   0.09417427  -6.97 0.0005442577    1.650    0.394
        50 -10.8503      3.5101    153.5069   1.2060847277e+02   4.1883262450e+01    0.3369919    0.1214647  22.36  0.001508598    3.337    0.700
        51 -10.7326     22.4019    146.9135   1.1496817305e+02   4.2020991645e+01    0.2243233    0.1945891  -3.02  0.001029826    1.496    0.332
        52  -9.6377      1.4387    141.5294   1.2008268790e+02   4.4919798688e+01    0.1257309   0.09865469 -81.03 4.942288e-05    1.006    0.006
        53 -10.6121      3.2260    133.7722   1.1884150878e+02   4.6693355062e+01    0.3525128    0.1846967  68.21  0.001758103    2.155    0.536
        54 -10.0824    212.5565    133.9494   6.3489767982e+01   1.1839379850e+01    0.2447189    0.2078941  77.34 0.0007822014    1.481    0.325
        55  -9.2652     95.7828    133.9852   9.1450244923e+01   3.5774031284e+01    0.2069007    0.1209499 -54.40 0.0006918364    1.642    0.391
        56 -10.5581     12.1174    129.8413   1.1586585707e+02   4.7065783458e+01    0.2012027    0.1518254  82.70 0.0009077793    1.283    0.221
        57 -10.1458    248.6898    129.3233   5.6524920953e+01   5.8882426996e+00    0.1329134   0.09657431 -60.99 0.0002998279    1.652    0.395
        58  -9.5075     48.5467    127.7642   1.0451695356e+02   4.4229881005e+01    0.1877208    0.1262586 -77.53 0.0003988183    1.500    0.334
        59  -9.8259     28.6581    128.0893   1.1069484093e+02   4.6180089085e+01    0.1902693    0.1453419 -66.63 0.0003626804    1.106    0.096
        60 -11.2839     23.9752    121.6048   1.1117595359e+02   4.8203224637e+01    0.3614485    0.2374317  65.61  0.001410647    1.791    0.442
        61 -10.6574     18.2045    121.3464   1.1293356519e+02   4.8722728018e+01    0.3643995    0.1412171 -48.18 0.0007145765    2.419    0.587
        62  -9.5233     75.7925    120.7703   9.4555181766e+01   4.2342963059e+01    0.1957619    0.1669817  87.01 0.0003323394    1.312    0.238
        63 -11.3684     10.0451    120.2262   1.1529576295e+02   4.9573272602e+01     0.372447    0.1769558 -58.66  0.001430481    1.681    0.405
        64  -9.9289     69.1239    116.8885   9.5805763837e+01   4.4298089102e+01    0.2138316    0.1924198 -85.65            0    1.179    0.152
        65  -9.8432      1.8670    114.1513   1.1705713413e+02   5.1543870113e+01    0.1716449    0.1182343 -54.56 0.0003075237    1.272    0.214
        66  -9.3133    139.3666    112.1915   7.3943673314e+01   3.2195916597e+01    0.2151938    0.1464734 -53.91 0.0001411494    1.545    0.353
        67 -10.1771     65.2343    110.0167   9.5510800271e+01   4.6544660945e+01    0.2037201    0.1803319 -55.31 0.0004656176    1.045    0.043
        68 -10.8733      2.6196    109.1622   1.1619425474e+02   5.2707558867e+01    0.2174531    0.1597455  13.14  0.001362034    1.707    0.414
        69 -11.0004     57.6498    107.6076   9.7497443618e+01   4.8154178736e+01    0.2706169     0.224375 -24.22 0.0007827051    1.293    0.227
        70 -10.1170     17.1833    104.7964   1.1075530824e+02   5.2860426821e+01    0.1740341    0.1284069 -40.00 0.0003425003    1.333    0.250
        71  -9.4248    133.1632    103.9100   7.3305483886e+01   3.5371876276e+01    0.2059899    0.1824916  -2.19            0    1.267    0.211
        72 -11.0381      2.8220    104.1184   1.1545670023e+02   5.3908808370e+01    0.3120154    0.1487588  27.06  0.001606762    2.462    0.594
        73  -9.6628    186.7080    102.9732   6.0868145239e+01   2.3293239407e+01    0.2151156    0.1864626 -46.18 0.0005693983    1.097    0.088
        74 -10.7366     59.9908    101.3148   9.5218961528e+01   4.9371815390e+01    0.1969973    0.1836214 -29.49  0.000494628    1.069    0.065
        75 -12.2306     11.1701     92.3219   1.1074606012e+02   5.6246563544e+01    0.6510935     0.219351 -67.54  0.002710016    2.451    0.592
        76 -10.0550     28.5674     92.4256   1.0442434926e+02   5.4946676747e+01    0.2876185    0.1665087  11.27   0.00143912    2.122    0.529
        77  -9.8908     19.4505     87.3300   1.0675534796e+02   5.6869170913e+01    0.3051586    0.1226184 -74.91  0.001150776    3.190    0.686
        78 -12.2204     20.6515     92.9744   1.0743012252e+02   5.5450707110e+01    0.4309807    0.3400201 -15.11 0.0005398578    1.415    0.293
        79 -10.6672     24.2591     88.4305   1.0517970584e+02   5.6245780003e+01    0.3519908    0.2228216 -59.76  0.001089031    1.327    0.246
        80 -10.0550      3.1140     95.4903   1.1411504892e+02   5.5948316909e+01    0.1955995    0.1341915 -65.25 0.0004669479    1.152    0.132
        81 -11.8995    125.2461     93.2928   7.2411450234e+01   3.9379091965e+01    0.2690785    0.2640035 -51.26 0.0002134054    1.034    0.033
        82  -9.5625     78.8597     93.9043   8.6812277668e+01   4.8296331461e+01    0.2188138    0.1846062 -16.84 0.0003625548    1.249    0.199
        83  -9.7471     67.1968     92.0068   9.0306544319e+01   5.0550283515e+01    0.2878202    0.1616785  54.00  0.001157995    2.592    0.614
        84 -11.7201     58.0937     91.5365   9.3417935140e+01   5.1933635167e+01    0.3152608    0.2582021 -24.66 0.0003496861    1.230    0.187
        85 -10.1530      7.0083     91.0958   1.1203606218e+02   5.6777813190e+01      0.18457    0.1426316 -54.73  0.001177067    1.059    0.056
        86 -10.6542     44.1614     89.4700   9.7983306302e+01   5.4111372599e+01    0.3264539    0.2145426  49.06 0.0008349529    1.934    0.483
        87  -9.6971     84.9214     88.1159   8.3114173730e+01   4.8562062973e+01    0.2037726    0.1947839 -89.35  0.001130086    1.201    0.167
        88 -10.0113     64.5125     88.0713   9.0175499958e+01   5.1840606585e+01    0.2289814    0.1320705 -51.61  0.001039157    1.610    0.379
        89 -12.1278     55.4012     85.8083   9.2867748274e+01   5.3603475928e+01    0.2641975    0.2399625  16.06 0.0002727296    1.182    0.154
        90  -9.5372    124.4757     86.4853   7.0607595816e+01   4.0948159613e+01    0.1529142    0.1499604  -1.12 9.695582e-05    1.010    0.010
        91 -10.2399     10.9972     85.0391   1.0948622048e+02   5.7963517625e+01    0.1941701    0.1583892 -56.17 0.0004852692    1.022    0.022
        92 -11.0332    146.0364     83.3089   6.4185466986e+01   3.6605753478e+01    0.2638994    0.2200625 -41.55 0.0002734307    1.200    0.167
        93  -9.8145    139.1520     82.8234   6.5704170943e+01   3.8316471680e+01    0.2091261    0.1780548  22.27            0    1.311    0.237
        94  -9.6964     42.8358     82.3448   9.6673407770e+01   5.5898501907e+01    0.2852383   0.09359325 -58.47  0.001021853    2.904    0.656
        95 -10.1652      3.0916     81.7542   1.1187184911e+02   5.9153609589e+01    0.3562855    0.1525522 -70.41  0.001701899    2.025    0.506
        96  -9.2172     76.6873     82.7247   8.4313043176e+01   5.1142756971e+01    0.1456106    0.1090378 -11.11 0.0003630741    1.559    0.359
        97  -9.6149     88.7934     80.0490   7.9372716192e+01   4.9592035104e+01    0.3951976    0.2639112  87.83  0.001412333    3.561    0.719
        98  -9.6606     63.9791     81.3629   8.8449940239e+01   5.3416457302e+01     0.190599    0.1778023  -9.84 0.0004776027    1.068    0.063
        99  -9.3332    250.3337     80.7098   4.5866091348e+01   1.3554530751e+01    0.1343766   0.08740589 -64.88 0.0006177213    1.631    0.387
       100  -9.1704    124.4794     79.4701   6.8471256635e+01   4.2332144999e+01     0.150222    0.1489695  84.54 0.0001539475    1.049    0.047
       101  -9.1725     80.6079     79.5322   8.1976471782e+01   5.1162702450e+01    0.1439788    0.1341727 -30.82 3.765601e-05    1.051    0.048
       102  -9.1679     48.0003     79.0291   9.3790431866e+01   5.6051390174e+01    0.1603563    0.1410352 -33.17 0.0003477303    1.014    0.014
       103 -10.3066     22.0656     76.6947   1.0341500330e+02   5.9120456982e+01    0.1825341    0.1639244 -73.60 0.0003912389    1.247    0.198
       104 -10.9523      6.4963     76.4847   1.0956698866e+02   6.0181429520e+01    0.2003059     0.173161 -20.87  0.000525055    1.244    0.196
       105 -10.4086    176.6099     76.8812   5.5906110912e+01   3.0437842595e+01    0.2813754    0.2256902 -69.48  0.001414852    1.338    0.253
       106 -10.1337     28.1115     77.0587   1.0108764339e+02   5.8543088860e+01    0.1904705    0.1563532 -40.00 0.0003456109    1.041    0.039
       107 -10.8047     55.0276     75.3959   9.0036402846e+01   5.5961986269e+01    0.3095991    0.2441682 -12.46  0.000302934    1.309    0.236
       108 -11.2219     15.6485     75.2946   1.0566748022e+02   5.9899076887e+01    0.3362604    0.2290975  24.08  0.002000641    1.717    0.418
       109 -10.6546     37.0390     75.0083   9.6987320156e+01   5.8158410339e+01    0.2458998    0.2148316  33.72 0.0007031618    1.347    0.258
       110 -10.3977     33.9567     73.0000   9.7683535025e+01   5.8909049351e+01    0.3241237    0.1767285   7.22  0.001196757    2.342    0.573
       111  -9.8385     20.6346     71.9489   1.0285637325e+02   6.0291982664e+01     0.289855    0.1028598 -60.09  0.001221443    2.374    0.579
       112  -9.1621    217.0000     72.0477   4.8146140685e+01   2.1848684063e+01    0.2137052   0.07333872 -36.53  0.000329997    2.707    0.631
       113 -11.8550    106.1672     71.3399   7.1085153167e+01   4.7883493688e+01    0.3422506    0.3005273  80.90 0.0009088233    1.404    0.288
       114 -10.4960     77.3314     68.2626   7.9486578921e+01   5.4028555308e+01    0.4396223    0.2173143 -34.38  0.001805087    2.147    0.534
       115  -9.9873     80.6039     67.1914   7.7975439591e+01   5.3664176183e+01    0.2185908    0.1365118 -40.71 0.0006918093    1.552    0.356
       116 -10.3767     45.7550     69.5123   9.1910228416e+01   5.8388640270e+01    0.2497685    0.1987751   5.90 0.0008534964    1.308    0.236
       117 -10.8876     10.4024     69.2393   1.0644855440e+02   6.1582630488e+01    0.3477874    0.1499654 -52.23  0.001287338    1.733    0.423
       118 -10.9917      5.2087     68.6786   1.0848142136e+02   6.1995562081e+01    0.2209531    0.1519167  87.64  0.001189973    1.901    0.474
       119  -8.8115    120.2961     68.7191   6.6206077367e+01   4.5280921967e+01    0.1439321    0.1193383 -83.29 0.0001698525    1.538    0.350
       120 -10.0236     51.6359     66.1293   8.8497108695e+01   5.8362581664e+01    0.2440759    0.1644392 -26.17 0.0003381754    1.483    0.326
       121 -11.0856     14.9918     63.6358   1.0315396759e+02   6.2513316319e+01    0.3579609     0.263966 -35.65  0.001393646    1.151    0.131
       122 -13.2825     20.4478     57.9044   9.9201903425e+01   6.3327891252e+01    0.3965733    0.2521155 -58.55 0.0009832226    1.499    0.333
       123 -10.1031     96.9994     64.0198   7.1449730238e+01   5.1134466671e+01    0.2188182    0.1998525  10.32  0.001221403    1.051    0.048
       124 -10.4620     62.7185     62.4668   8.2927728644e+01   5.7534570400e+01    0.2658437    0.1702877 -42.84 0.0009858409    1.474    0.322
       125  -9.8953     38.5235     61.4767   9.2414529946e+01   6.0891703251e+01    0.1831487    0.1197923   6.07 0.0008349504    1.712    0.416
       126  -9.6412     41.4174     58.7733   9.0317041938e+01   6.1114672485e+01    0.1909631    0.1034291 -39.01 0.0005396671    1.638    0.390
       127  -9.5079      1.2266     59.9806   1.0825819865e+02   6.4083469842e+01     0.156743   0.08096364 -61.80 0.0003651034    1.578    0.366
       128 -10.9918     83.5219     56.5246   7.3241364903e+01   5.5104312281e+01    0.3334553    0.2614974 -55.28  0.001543396    1.577    0.366
       129 -11.6868     86.8937     54.1818   7.1254675056e+01   5.4867985671e+01    0.4305369    0.3014894  15.34   0.00117378    1.651    0.394
       130 -11.1419     10.1039     58.4943   1.0397617346e+02   6.3924610332e+01    0.2881841    0.2753909 -47.41  0.002101112    1.249    0.199
       131  -8.9540    109.3643     58.2526   6.5758420023e+01   4.9533413779e+01    0.1503026    0.1072304  22.47 0.0006959328    1.623    0.384
       132 -11.2780      4.9618     57.4967   1.0601862663e+02   6.4427440021e+01    0.1875894    0.1324123 -51.03  0.000418048    1.121    0.108
       133 -10.4172     71.7227     56.6026   7.7465339073e+01   5.7196699325e+01    0.2449864    0.1654318 -38.22 0.0009699799    1.433    0.302
       134 -10.6052     32.6466     56.1702   9.3260719676e+01   6.2587954010e+01    0.2981459    0.1709794 -30.17 0.0008695009    1.671    0.401
       135 -10.2861    104.7915     55.9016   6.6266350529e+01   5.0917857597e+01    0.2119189    0.1854249   9.53 0.0002848009    1.155    0.134
       136 -10.3088     96.2509     55.9589   6.8872810572e+01   5.2702076463e+01     0.244816    0.1990925  33.78 0.0005862436    1.182    0.154
       137 -10.7169    114.5318     53.7442   6.2774802788e+01   4.9121854926e+01    0.2998494    0.2621458   3.81  0.000828473    1.204    0.169
       138 -11.8225     66.0671     52.6943   7.8163709670e+01   5.8838147132e+01    0.4337426    0.2200729  38.99  0.001379358    2.009    0.502
       139  -9.8425    149.2175     52.2166   5.4120396849e+01   4.1126868175e+01    0.1981266    0.1658711 -82.08  0.000473646    1.309    0.236
       140 -10.8596    105.9862     51.0195   6.4200579264e+01   5.1448378246e+01    0.3216479    0.2021919 -23.95 0.0008992616    1.775    0.437
       141 -10.3312      4.6971     51.3886   1.0457475529e+02   6.5716454291e+01    0.2633275    0.1970218  38.53  0.001716895    1.786    0.440
       142  -9.5035    121.6197     50.8864   5.9948055271e+01   4.7945029339e+01    0.2014099    0.1296692 -46.14 0.0009294552    1.722    0.419
       143 -10.0114     76.4949     49.8741   7.3250534254e+01   5.7540753190e+01    0.2009397    0.1750161  22.09 0.0004985515    1.096    0.088
       144 -10.2957     37.6145     48.9500   8.8607099368e+01   6.3462877235e+01    0.2751552    0.1697331  13.81  0.001482879    1.739    0.425
       145 -11.3529      9.4962     46.7630   1.0099662312e+02   6.6374082009e+01    0.3882599    0.2151348 -46.49  0.002261674    1.398    0.285
       146 -10.0806    101.9793     48.2662   6.4375188927e+01   5.2744362281e+01    0.1972344    0.1689122  38.92 0.0004119747    1.105    0.095
       147  -9.4414    154.5206     47.4695   5.1636614664e+01   4.0515601148e+01    0.2325083    0.1414756 -34.18 0.0006288568    1.718    0.418
       148  -9.6803    152.4066     44.5882   5.1163342484e+01   4.1441735026e+01    0.2059822    0.1885739 -89.26 7.490714e-05    1.084    0.077
       149  -9.8250    135.9494     46.4881   5.5113028477e+01   4.5196117779e+01    0.2173602    0.1358784  59.05 0.0006974689    1.527    0.345
       150 -11.0584     78.9609     45.7603   7.0816424270e+01   5.7764409564e+01    0.2239522    0.1879685 -30.61 0.0002578299    1.218    0.179
       151  -9.5116     30.9100     45.8596   9.0548923122e+01   6.4771881648e+01    0.1546102    0.1441848 -39.53  0.000446605    1.306    0.234
       152  -9.0754    190.7476     45.3180   4.5129288294e+01   3.1947097390e+01    0.1407721   0.09510574 -63.80 0.0002654748    1.531    0.347
       153 -10.7428     25.2916     43.5675   9.2369272543e+01   6.5755835146e+01    0.2969555    0.2259653 -77.29  0.001387757    2.177    0.541
       154 -11.0606     16.8096     43.8857   9.6555527653e+01   6.6423060402e+01    0.4608887    0.3097603  43.25  0.002487839    2.148    0.534
       155  -9.9647     69.0043     42.0357   7.2965024149e+01   6.0145343615e+01    0.2027481    0.1739361   4.55  0.000483909    1.032    0.031
       156 -10.4111     59.5610     41.6328   7.6466425928e+01   6.1771164341e+01     0.222504     0.198767  21.71 0.0004187277    1.192    0.161
       157 -10.6403     36.1579     41.5414   8.6530272173e+01   6.4990089858e+01     0.323714    0.1636412 -43.62 0.0008189285    1.785    0.440
       158 -12.7824     39.7086     32.4236   8.1224430067e+01   6.6106678450e+01    0.3884994    0.3004226 -23.79   0.00051425    1.137    0.120
       159 -10.3953    225.0429    247.7245   8.3304738517e+01  -9.0479224837e+00    0.2428395    0.1558977 -28.44  0.001535169    1.557    0.358
       160  -9.9364    140.0525     40.3057   5.2249900029e+01   4.5055451311e+01    0.2707926    0.1920602  79.94  0.001331117    1.598    0.374
       161  -9.5826     43.0940     40.5204   8.2993625094e+01   6.4321010322e+01    0.1815023    0.1177319  26.20  0.001017079    1.545    0.353
       162  -9.2711    168.5704     38.8441   4.6668327601e+01   3.8226121493e+01    0.1907087    0.1232938 -46.84 0.0004352952    1.576    0.366
       163 -10.0769    152.1434     39.1820   4.9564645564e+01   4.2237040688e+01    0.2129981     0.182851  43.62 0.0005643578    1.201    0.168
       164 -10.5219    128.0724     38.6571   5.4268761524e+01   4.8166476558e+01    0.2090215    0.1895689 -53.93 0.0004104537    1.208    0.172
       165 -11.8891    121.2242     37.2490   5.5361778982e+01   4.9972772832e+01    0.4156012    0.3879971  13.48   0.00156995    1.104    0.094
       166 -10.5468     97.0155     37.8709   6.1980454619e+01   5.5327353253e+01    0.2240429    0.1878093   6.59   0.00128013    1.202    0.168
       167 -10.4056     22.1170     38.0836   9.1920110850e+01   6.7063899014e+01    0.1833975    0.1487331 -24.34 0.0005640751    1.046    0.044
       168 -10.7980     27.2039     34.7228   8.8128717863e+01   6.7168765337e+01    0.3391013    0.1743083 -25.32  0.001245019    1.983    0.496
       169 -10.5212      7.4103     34.1433   9.7976991903e+01   6.8938259890e+01    0.2327734    0.1695643  33.01   0.00113537    1.800    0.445
       170 -10.9158      2.4253     34.9335   1.0084678820e+02   6.9091963302e+01    0.2472081    0.1966272  69.05  0.001612965    2.140    0.533
       171  -8.9185    141.7268     35.6134   5.0414666599e+01   4.5257449055e+01    0.1437332    0.1033646  24.87 0.0006994954    1.716    0.417
       172 -10.4414     91.1158     33.6794   6.2128940946e+01   5.7137084020e+01    0.4060125    0.2600902  -3.75   0.00184909    1.966    0.491
       173 -10.2888      3.8708     41.8401   1.0227116892e+02   6.7681560896e+01     0.203299    0.1241381  -7.82  0.001187335    1.681    0.405
       174  -9.7005    133.8661     34.4432   5.1613053309e+01   4.7317312943e+01    0.1966587    0.1127838  46.08 0.0008143155    1.677    0.404
       175  -9.2652    241.9319     33.0086   3.6564398613e+01   2.2071964160e+01    0.1462684    0.1164589 -62.99 0.0003707508    1.023    0.022
       176  -9.8049     55.3230     33.0435   7.4658868784e+01   6.3787918943e+01    0.1728747    0.1390073 -17.92 0.0002180605    1.139    0.122
       177 -10.7100     17.6658     32.4956   9.2049940577e+01   6.8461013336e+01    0.3556662    0.1716159   1.09  0.001336146    2.685    0.628
       178  -9.2355    166.4921     31.4368   4.4879113015e+01   3.9675355480e+01    0.1386074    0.1224857  89.07 8.312963e-05    1.050    0.048
       179  -9.0107    162.6367     31.6696   4.5543389243e+01   4.0597389539e+01      0.14614   0.09819057  36.40 0.0007038328    1.807    0.446
       180 -10.3761    127.6310     30.4914   5.1598455057e+01   4.9301999569e+01    0.3040384    0.2169702  77.13 0.0007741566    1.557    0.358
       181 -11.4634      9.9627     29.6448   9.4999320516e+01   6.9579383117e+01    0.4662906    0.2459385  40.89   0.00243027    3.010    0.668
       182 -10.0174    229.8712    247.9509   8.2469682122e+01  -9.7055911001e+00    0.1746701    0.1351388   5.52  0.000478237    1.032    0.031
       183 -10.3489      6.7483     20.9542   9.3330966034e+01   7.1316200967e+01    0.2370627    0.1811092 -17.42   0.00169345    1.066    0.062
       184 -11.3629     69.1983     27.2878   6.6799626591e+01   6.2257265986e+01    0.3580419    0.3056711  87.97  0.002094059    1.926    0.481
       185 -10.4288    113.9537     26.3173   5.3195764535e+01   5.3011334218e+01    0.2640034    0.1790802 -38.72 0.0007388651    1.640    0.390
       186  -9.4694     76.9628     27.1072   6.4001123340e+01   6.0827600776e+01    0.1586717     0.133808  -9.54 0.0009681072    1.161    0.139
       187  -9.7840    102.0256     25.5092   5.5862535077e+01   5.5807177122e+01    0.2146823    0.1232221  55.90  0.001041649    1.627    0.385
       188 -11.0624     14.4199     22.1197   8.9547730850e+01   7.0509113082e+01    0.3855643    0.2319486   9.85  0.001529376    1.630    0.387
       189 -10.4937     20.1291     17.4533   8.4343118603e+01   7.0701453344e+01     0.247487    0.1352759 -21.81  0.001139106    1.711    0.415
       190 -10.1426     35.7036     22.9432   7.8945213115e+01   6.8083137105e+01    0.2458025     0.151919  21.42  0.001441313    1.538    0.350
       191  -9.3220    170.6108    247.1556   9.3622360340e+01  -1.2091634766e+00     0.159927    0.1114318 -25.49 0.0008047752    1.665    0.399
       192  -9.4026    116.1786    246.5691   1.0459553485e+02   7.2114452934e+00    0.1663044    0.1077118  29.90 0.0009211758    1.502    0.334
       193  -9.7636     31.3454     16.2796   7.7944333884e+01   6.9590134668e+01    0.1723729    0.1264654 -17.31 0.0004044444    1.156    0.135
       194 -12.5197      9.9066    245.7707   1.2508297616e+02   2.1018010527e+01    0.5009784    0.2812733  57.81  0.003347464    1.345    0.256
       195  -9.3259     39.6559    243.3266   1.1951737472e+02   1.8258337199e+01    0.1293991    0.0649002  62.38 0.0007050745    1.742    0.426
       196  -9.5203    202.4647    240.4657   8.6356568912e+01  -4.9310085079e+00    0.1255408    0.1003299  11.28 0.0001177723    1.024    0.024
       197  -9.5668    101.1217     21.8111   5.4675977799e+01   5.6423913628e+01    0.1904902    0.1407364  27.96 0.0004201529    1.335    0.251
       198  -9.7330     97.2487     22.0135   5.5777723472e+01   5.7252978567e+01    0.1760151    0.1563624  20.86            0    1.072    0.067
       199  -9.8362     74.7085     22.3142   6.2724887924e+01   6.1853846473e+01    0.2399234    0.2001422 -51.49 0.0009879762    1.640    0.390
       200 -11.2183     74.0418     18.5391   6.1310499226e+01   6.2421857025e+01     0.478527    0.2767723  49.17  0.002526433    1.638    0.390
       201 -10.5198     70.5349     17.4660   6.2028479213e+01   6.3212413526e+01    0.2414238    0.1954045 -12.85  0.001009941    1.236    0.191
       202 -10.7244     30.2370     21.1789   8.0815393457e+01   6.9020903618e+01     0.265804    0.1675394  22.08  0.001059469    1.509    0.337
       203 -10.2961    228.9920     20.9913   3.5116025529e+01   2.6293999652e+01    0.1968254    0.1078782 -64.52 0.0006765011    1.711    0.416
       204  -9.8789    181.5050     20.9637   3.9946418038e+01   3.7229352765e+01    0.1832351    0.1307179 -30.78 0.0006273758    1.553    0.356
       205  -9.2540    131.7557     20.9919   4.7563135582e+01   4.9381403517e+01     0.158966    0.1165606 -24.51 0.0005062227    1.529    0.346
       206  -9.4028    214.6270     20.2664   3.6233324369e+01   2.9550216855e+01    0.1357753   0.07965168 -70.63 0.0003246223    1.669    0.401
       207 -10.1741     59.1981     19.2289   6.6987865300e+01   6.5048603304e+01    0.2516759    0.1821448  26.46 0.0008902444    1.212    0.175
       208 -10.5997    140.9506     18.1680   4.4986460667e+01   4.7443739268e+01    0.2562007     0.192495  85.42 0.0008547392    1.368    0.269
       209  -9.3932    115.5491     18.2241   4.9902625415e+01   5.3516584361e+01    0.2834113    0.1643587 -60.05  0.001061255    2.679    0.627
       210  -9.9695    209.3100     18.6480   3.6362647409e+01   3.0942499336e+01    0.1395235   0.07909362 -64.12 0.0007044324    1.720    0.419
       211 -10.9363    203.7616     17.6357   3.6663857859e+01   3.2331847082e+01    0.3679008    0.1349889 -59.61  0.001355044    3.501    0.714
       212 -10.3339    125.2671     17.1707   4.7521567550e+01   5.1330429989e+01    0.2185491    0.1579178  49.93 0.0003321346    1.234    0.190
       213  -9.8390     35.9402    240.4765   1.2003206822e+02   1.9249747464e+01    0.1670458   0.09780167  41.07 0.0005170151    1.539    0.350
       214 -11.5844     14.2507    239.0862   1.2397945755e+02   2.1876212208e+01    0.2433729    0.1366957  74.08  0.001009374    1.455    0.313
       215  -9.8016     89.5127     13.5287   5.4467297384e+01   5.9805400937e+01    0.1922136     0.154217  58.95 1.266127e-05    1.282    0.220
       216 -10.1677     82.9249     15.7373   5.7285745269e+01   6.0957868807e+01    0.2171852    0.1732566  14.98 0.0003700045    1.188    0.158
       217  -9.9247    117.4912    239.5067   1.0347921964e+02   8.2954557060e+00    0.1291049    0.1097086  44.46 1.533172e-06    1.011    0.011
       218  -9.5005     44.3192     16.3325   7.1834095756e+01   6.7798685769e+01      0.12927   0.08034986   4.85 0.0007048594    1.694    0.410
       219  -9.6274    149.0000    237.9961   9.6705027686e+01   3.6383778660e+00    0.1894964   0.07509448 -50.35 0.0008032284    2.948    0.661
       220  -9.9591    155.5233     15.3458   4.1831164073e+01   4.4164411780e+01    0.2515325     0.111381  67.51  0.001101028    1.988    0.497
       221 -10.0832     91.0993    237.2894   1.0873129851e+02   1.2670126590e+01    0.1856079    0.1667162 -61.17 0.0004339568    1.323    0.244
       222  -9.9369    222.2429     13.9731   3.4155254886e+01   2.8572687937e+01    0.1501785   0.09443449 -39.74  0.000230249    1.539    0.350
       223 -10.6580    208.0453     12.9979   3.5167914593e+01   3.1859837614e+01    0.1922643    0.1585374 -77.51 0.0004096268    1.008    0.008
       224 -11.4044     25.2761    236.3492   1.2178796416e+02   2.1261316288e+01     0.238048    0.1292559  54.13  0.000629639    1.470    0.320
       225  -9.8067    249.1987    233.8331   7.6733124441e+01  -1.0336067505e+01    0.1635159    0.1319183   1.95 0.0005092886    1.149    0.130
       226 -12.9670      9.6141    228.0043   1.2425746731e+02   2.4559766266e+01    0.5968719    0.3724161  77.30  0.002529709    1.268    0.211
       227  -9.0803    243.4809    230.4490   7.7145136654e+01  -9.1666138893e+00    0.1207914     0.092058  -0.57 0.0002370699    1.015    0.015
       228  -8.9035     38.6411    230.3150   1.1880676382e+02   2.0986915625e+01     0.133251   0.06808531  62.37 0.0007043499    1.751    0.429
       229 -11.9726      3.9923    232.5952   1.2551963751e+02   2.4172240860e+01    0.2543031    0.1784784  70.52  0.001838182    1.043    0.041
       230  -9.7817    209.4904    229.5231   8.3210656428e+01  -4.3406130905e+00    0.1275965    0.1038221   7.45 -2.549325e-05    1.010    0.010
       231 -10.6874    140.5311    228.4640   9.7124306507e+01   6.6969942714e+00    0.2551257    0.1982657 -60.60  0.001432485    1.530    0.347
       232 -10.0258    223.2010    226.8202   8.0168183026e+01  -5.9190089208e+00    0.1744289    0.1222877   0.32 0.0003829586    1.324    0.245
       233 -11.0615      1.5489    225.1802   1.2561605509e+02   2.5898341548e+01    0.3165594     0.133216  84.37  0.001106711    2.108    0.526
       234 -10.8440      2.4523    220.5475   1.2522150781e+02   2.6770127021e+01    0.3162989    0.1277796  80.96  0.001416152    2.290    0.563
       235  -9.0858    167.4792    221.5385   9.0327481330e+01   3.5397958397e+00    0.1347788    0.1177464  21.39 0.0008090432    1.008    0.008
       236 -10.5837      8.4881    218.1710   1.2394331707e+02   2.6706833769e+01    0.2575452    0.2028031  30.88  0.001616449    1.597    0.374
       237  -9.1177     37.3555    216.7387   1.1804431488e+02   2.4000702631e+01    0.1309285    0.0720441  60.88 0.0003105564    1.620    0.383
       238  -9.8455    205.5470    212.6559   8.1034885370e+01  -1.1039894034e+00    0.2226709    0.1197459 -34.14 0.0007590145    1.868    0.465
       239  -9.7854     15.4738    213.4546   1.2228912037e+02   2.7037731663e+01    0.1199876   0.09100206  74.58 1.649671e-05    1.015    0.015
       240  -9.3288    249.4860    211.4858   7.2755596350e+01  -7.3367085310e+00    0.1249618   0.09588104  -6.64 0.0008100056    1.041    0.040
       241  -9.6379    209.4952    211.4868   8.0054597235e+01  -1.5320188881e+00    0.1321384    0.1122531   2.95  3.25335e-05    1.008    0.008
       242  -9.5081     20.3414    209.9556   1.2107101044e+02   2.7311686812e+01     0.169401    0.1241198  79.87 0.0007909103    1.092    0.084
       243 -10.4738      3.8116    206.1397   1.2419368601e+02   2.9709779921e+01    0.1520798    0.1235815 -71.94  0.000567491    1.359    0.264
       244  -9.5435     19.9933    203.9952   1.2072963063e+02   2.8661829220e+01    0.1467346    0.1130021  81.88 0.0003204338    1.040    0.038
       245  -9.4497    193.4153    202.2243   8.1554728854e+01   2.6400111508e+00    0.1743853    0.1294764 -49.23 0.0004715658    1.579    0.367
       246 -10.2363     23.8030    196.6859   1.1936628624e+02   2.9926983270e+01    0.2829948    0.1673746 -51.56  0.001517663    2.052    0.513
