#   1 NUMBER                 Running object number                                     
#   2 MAG_AUTO               Kron-like elliptical aperture magnitude                    [mag]
#   3 X_IMAGE                Object position along x                                    [pixel]
#   4 Y_IMAGE                Object position along y                                    [pixel]
#   5 X_WORLD                Barycenter position along world x axis                     [deg]
#   6 Y_WORLD                Barycenter position along world y axis                     [deg]
#   7 A_WORLD                Profile RMS along major axis (world units)                 [deg]
#   8 B_WORLD                Profile RMS along minor axis (world units)                 [deg]
#   9 THETA_WORLD            Position angle (CCW/world-x)                               [deg]
#  10 FWHM_WORLD             FWHM assuming a gaussian core                              [deg]
#  11 ELONGATION             A_IMAGE/B_IMAGE                                           
#  12 ELLIPTICITY            1 - B_IMAGE/A_IMAGE                                       
         1 -11.6876     33.9504     17.7436   2.9151308071e+02   7.2710741421e+00   0.01706931   0.01244998 -62.99  0.001145663    1.393    0.282
         2 -11.2235     34.0520     12.1945   2.9147953666e+02   7.3329216879e+00   0.01207109    0.0106015  71.23  0.000283888    1.290    0.225
         3 -11.7124     58.6619     19.9434   2.9124014553e+02   7.1135293833e+00   0.02006003   0.01282925 -87.88  0.001213122    2.151    0.535
         4 -11.5940     42.2801     13.8285   2.9139390009e+02   7.2703506740e+00   0.02341638   0.01229138 -56.89   0.00225052    1.828    0.453
         5 -10.6033     26.4464     14.5634   2.9158133097e+02   7.3471203302e+00   0.01785723  0.009355839 -58.76  0.001705866    1.851    0.460
         6 -11.8004     13.7191     14.0740   2.9172571348e+02   7.4209081704e+00   0.02241492   0.01128536  28.98 0.0005293067    1.922    0.480
         7 -11.3378     78.0109     11.0925   2.9096476731e+02   7.1088956021e+00   0.01403085   0.01035232 -61.00 0.0006858763    1.361    0.265
         8 -10.8353     74.5714      9.7382   2.9099662095e+02   7.1426415331e+00    0.0178651  0.008815716 -65.95  0.001341167    2.162    0.537
         9 -11.8400     49.0928     10.4537   2.9129541393e+02   7.2716780101e+00   0.02664717    0.0167266  59.40   0.00259313    2.093    0.522
        10 -11.5699     17.1176      7.6791   2.9164910697e+02   7.4745814544e+00    0.0156367   0.01207254 -32.65 0.0008073896    1.331    0.249
        11 -11.9850    176.2987      7.3253   2.8980748974e+02   6.6204013660e+00   0.01332415   0.01106391  -8.41 0.0004560278    1.261    0.207
        12 -11.4372    107.7151      7.4046   2.9059990257e+02   6.9902250467e+00   0.01292177    0.0110744  36.70 0.0004686301    1.190    0.159
        13 -11.3115     23.9875      6.3736   2.9156200851e+02   7.4523974794e+00   0.02447188   0.01130709  48.82  0.001638088    2.760    0.638
        14 -10.5076    191.2103      6.1957   2.8962884872e+02   6.5523167664e+00  0.009083764  0.007548065  59.53 0.0005245533    1.358    0.264
        15 -10.2813     60.9057      6.4899   2.9113566121e+02   7.2527079610e+00  0.009658522  0.006325695  22.93  0.001002094    1.525    0.344
        16 -11.1041     30.3884      3.9205   2.9147364371e+02   7.4456136442e+00   0.02006336   0.01298996  88.76  0.001943553    2.167    0.538
        17 -11.3011    217.7858      2.7849   2.8930243564e+02   6.4465238299e+00   0.01486107   0.01031357 -45.71  0.001091972    1.420    0.296
        18 -11.0297    134.6892      4.0603   2.9026873129e+02   6.8821575786e+00   0.01262011   0.00949485  22.83 0.0005589485    1.322    0.244
        19 -10.4092    138.4733      1.4449   2.9020972815e+02   6.8910896018e+00  0.009212595  0.006312681   4.97  0.000680992    1.637    0.389
        20 -11.5809     68.1157      4.2091   2.9103896831e+02   7.2395437491e+00    0.0165581  0.008866729   9.13 0.0009921921    2.329    0.571
        21  -9.6525      1.6890      4.6412   2.9180992210e+02   7.5914542572e+00  0.007112922  0.004603584 -29.92 0.0007042455    1.740    0.425
        22 -10.5301    233.3953      2.7567   2.8912238221e+02   6.3621271050e+00  0.009277037  0.005664943 -50.03 0.0005621147    1.587    0.370
        23 -10.1129     94.9787      6.7378   2.9074319337e+02   7.0664116897e+00  0.008396073  0.005570819  22.61 0.0005658429    1.507    0.337
        24 -10.8353    179.9439      1.9898   2.8973419508e+02   6.6605857816e+00   0.01240761  0.008707004 -51.44 0.0007074908    1.386    0.279
        25 -11.2827    159.8835      2.0905   2.8996629858e+02   6.7680522454e+00    0.0121637   0.01117375 -85.57 0.0009639777    1.186    0.157
        26 -11.1289     91.3905      2.5179   2.9076000359e+02   7.1331794926e+00   0.01090473  0.008822982  22.78 0.0005021195    1.227    0.185
        27 -10.8919     37.9957      2.2973   2.9137616506e+02   7.4230023517e+00   0.01119988  0.008841883  70.07  0.000472568    1.527    0.345
        28 -11.2053     75.3879      2.7280   2.9094623088e+02   7.2170374758e+00   0.02016824  0.007818094  40.66  0.001622266    2.700    0.630
        29 -10.3898     53.3731      1.5578   2.9119397602e+02   7.3486620712e+00    0.0160562  0.006503465  21.88  0.001082305    2.604    0.616
        30 -11.1145    156.4853    233.4423   2.9135463345e+02   4.1832718360e+00   0.01093667  0.008996958 -75.02 0.0001015003    1.319    0.242
        31  -9.9959    206.2134    250.6405   2.9088230527e+02   3.7215483673e+00  0.009645569  0.006099517   9.32 0.0009583623    1.782    0.439
        32 -10.8847    160.7651    249.2498   2.9139717569e+02   3.9822189693e+00   0.01479847   0.01006386 -49.92  0.001549091    1.429    0.300
        33 -13.6715    124.3134    249.1111   2.9181602277e+02   4.1800571358e+00   0.05770643   0.02008253  33.02  0.003552709    2.654    0.623
        34 -12.9333     94.6633    248.7035   2.9215511840e+02   4.3441156368e+00   0.02924787   0.02006363   8.39  0.002589254    1.595    0.373
        35 -12.9899    106.9548    247.5809   2.9200704784e+02   4.2906751166e+00   0.03528742   0.02943289 -85.11  0.001998162    1.357    0.263
        36 -13.6217     85.0102    227.0759   2.9214095948e+02   4.6396483351e+00   0.07655321   0.02768263 -38.14  0.004247933    4.000    0.750
        37 -12.6373     94.4900    225.6286   2.9202333665e+02   4.6049937901e+00   0.02236176   0.01578176 -48.11  0.001020315    1.383    0.277
        38 -14.3300     75.0888    205.2560   2.9212876554e+02   4.9387997021e+00    0.1031169   0.04584249  36.75  0.005972488    2.208    0.547
        39 -12.9715     76.5273    216.9942   2.9218026063e+02   4.7988182216e+00   0.06231772   0.01735007  37.50   0.00444043    3.408    0.707
        40 -13.6480     97.2900    238.9159   2.9206813042e+02   4.4402533255e+00   0.04773686   0.02618639   9.15   0.00313841    2.233    0.552
        41 -13.5915     88.3065    236.0378   2.9215493480e+02   4.5209668944e+00   0.05743509   0.02628415  10.76  0.004521559    3.012    0.668
        42 -13.8024    113.8272    239.0559   2.9187845742e+02   4.3497347409e+00   0.02881138   0.02152726  10.65  0.002159012    1.399    0.285
        43 -12.4200    119.0845    233.6553   2.9178657154e+02   4.3822780544e+00   0.01858109   0.01360177 -78.44 0.0009075528    1.570    0.363
        44 -14.3734     74.8788    239.9180   2.9233211736e+02   4.5494004858e+00   0.03200186   0.01955234  37.19  0.003267459    1.643    0.391
        45 -13.0357     68.0238    234.8246   2.9238159244e+02   4.6436040448e+00   0.01917601   0.01560154  81.69  0.002057613    1.459    0.315
        46 -14.8126     73.9740    227.5629   2.9227095347e+02   4.6934618207e+00   0.03717153   0.02953303 -53.61  0.003287775    1.235    0.190
        47 -10.3611     83.7108    250.6607   2.9229260752e+02   4.3809265493e+00  0.008151833  0.005892685  28.36 0.0008934248    1.367    0.268
        48 -12.2470     52.4710    250.4550   2.9265127012e+02   4.5509769909e+00   0.01297543  0.007426707  36.58 0.0006637439    1.740    0.425
        49 -13.4973     60.8043    216.0708   2.9235613113e+02   4.8936750454e+00   0.06538107   0.04080047  77.92  0.006025169    2.461    0.594
        50 -14.8856     24.5768    199.6577   2.9267871925e+02   5.2729823483e+00   0.09623406   0.06041975  46.65  0.009848816    1.756    0.431
        51 -14.2021      3.7205    201.0050   2.9292703705e+02   5.3695307145e+00    0.0559181   0.02833711 -64.63  0.005189556    2.042    0.510
        52 -14.5611     46.5137    198.8421   2.9242102850e+02   5.1645169792e+00   0.07108022   0.04625387  -5.78  0.005751219    1.894    0.472
        53 -13.2842     47.1313    229.7443   2.9259292455e+02   4.8129903168e+00    0.0147504   0.01359366  15.82 0.0007699849    1.076    0.071
        54 -15.2920     34.0758    225.4958   2.9271880011e+02   4.9308885037e+00    0.0947072    0.0683753  12.67  0.008488886    1.447    0.309
        55 -14.7565     33.8879    215.2518   2.9266166441e+02   5.0473333266e+00   0.07568938   0.03934148  11.82  0.006742836    2.322    0.569
        56 -13.6155     17.2566    209.3578   2.9281928885e+02   5.2028993102e+00   0.03439082   0.02054933  52.03  0.003338233    2.020    0.505
        57 -13.9925     42.1431    239.1364   2.9270476900e+02   4.7339160080e+00   0.06874505   0.03495228   8.18  0.005838023    2.612    0.617
        58 -15.4998     11.9695    216.3965   2.9292097450e+02   5.1518992598e+00   0.05071965   0.04704612 -67.35  0.004627189    1.119    0.107
        59 -15.2485     36.2369    248.6624   2.9282792367e+02   4.6582479467e+00     0.070732   0.02927987  36.50  0.006067909    2.350    0.574
        60 -16.6374      5.5629    243.4209   2.9315104479e+02   4.8816508083e+00     0.099827   0.05983747 -52.59   0.01025065    1.605    0.377
        61 -15.4729     18.1143    249.1655   2.9303962271e+02   4.7496999802e+00   0.04179447   0.02394945  25.77  0.004176473    1.722    0.419
        62 -15.3239     24.8087    246.8755   2.9294925940e+02   4.7396389912e+00   0.05741791   0.02979308 -79.06  0.004838679    2.761    0.638
        63 -10.6434    183.1019    232.7455   2.9104419131e+02   4.0476330105e+00  0.009221473  0.008639146  44.29  0.000621492    1.119    0.106
        64 -12.4321    142.8821    231.8636   2.9150209704e+02   4.2743350007e+00   0.02108471   0.01284542  12.23  0.002094875    1.822    0.451
        65 -10.3096    151.6637    231.4771   2.9139873195e+02   4.2313801867e+00   0.01395522  0.006312553  24.70  0.001220405    2.202    0.546
        66 -11.3359    136.9442    230.9585   2.9156522236e+02   4.3165071402e+00  0.009999356  0.009193382 -65.10 0.0003895515    1.123    0.109
        67 -11.7292     58.3645    229.9277   2.9246453356e+02   4.7506401916e+00   0.01325812   0.01025406  72.78  0.001178918    1.585    0.369
        68 -11.9400     95.8535    211.5213   2.9192577934e+02   4.7565865126e+00   0.01609438   0.01241447   1.34 0.0004152826    1.390    0.281
        69 -11.5341    102.5471    228.6888   2.9194825887e+02   4.5271914954e+00   0.02372711   0.01402317 -80.92   0.00220892    2.256    0.557
        70 -11.7636    140.2361    218.5673   2.9145533929e+02   4.4383286064e+00   0.02061561   0.01151551  43.29   0.00100586    1.917    0.478
        71 -11.9813    129.9840    205.6147   2.9149818670e+02   4.6394294920e+00   0.02537928  0.008692745 -60.56  0.001979684    2.789    0.641
        72 -12.2158     97.9322    205.2617   2.9186549063e+02   4.8159229098e+00    0.0231082   0.02061485  53.94  0.001868128    1.212    0.175
        73 -12.1240    128.7334    228.3438   2.9164460567e+02   4.3901660570e+00   0.01557017   0.01226403  13.89 0.0002974605    1.291    0.225
        74 -12.1327    132.3273    216.3294   2.9153343907e+02   4.5061309249e+00     0.038766   0.02242879  76.92  0.003134126    3.044    0.671
        75 -12.3900    117.1824    219.2301   2.9172475606e+02   4.5549964949e+00   0.02666313   0.01753741  61.31  0.001385381    1.969    0.492
        76 -12.1391    114.3132    223.4407   2.9178225377e+02   4.5230096998e+00   0.02019175   0.01726853  -3.00 0.0003843373    1.200    0.167
        77 -11.9332    111.8675    228.0070   2.9183692823e+02   4.4847341991e+00   0.01508216    0.0114329  42.24 0.0002886289    1.375    0.273
        78 -12.9123    107.6136    225.7107   2.9187261014e+02   4.5334862781e+00   0.02790007   0.01736897  49.84  0.002132055    1.850    0.459
        79 -11.8057    108.9637    215.7155   2.9179904703e+02   4.6388142954e+00   0.01365734   0.01122959 -38.28 0.0003922911    1.207    0.172
        80 -11.8909    112.4974    214.0019   2.9174838149e+02   4.6391017257e+00   0.01654595   0.01132245 -65.92  0.000834655    1.518    0.341
        81 -12.4261    158.3030    224.9163   2.9128416651e+02   4.2694816420e+00   0.01718291   0.01301138   3.21 0.0004013151    1.420    0.296
        82 -11.6085    163.2589    223.0852   2.9121646161e+02   4.2633876382e+00   0.01974009    0.0130359  88.74    0.0019454    2.079    0.519
        83 -10.8291    162.4165    217.6070   2.9119431671e+02   4.3296125017e+00   0.01115838  0.009527055  25.24 0.0007624174    1.164    0.141
        84 -10.0142    212.0887    227.8575   2.9068221281e+02   3.9462605027e+00  0.009083527  0.007136515 -32.89  0.000408713    1.302    0.232
        85 -10.9254    202.1493    225.9823   2.9078566157e+02   4.0210092073e+00   0.01941507  0.009010538 -42.65  0.001686319    2.287    0.563
        86 -11.7453    126.9000    217.2777   2.9160146741e+02   4.5246758737e+00   0.02534997   0.01612005  33.65   0.00144466    1.554    0.356
        87 -10.7993    171.2682    225.8027   2.9114004560e+02   4.1896103879e+00  0.009932863  0.008038638  80.30 0.0006204713    1.476    0.323
        88 -11.3784     53.0293    221.9605   2.9247987271e+02   4.8690496234e+00   0.02602147   0.01087195 -55.35  0.002257253    2.225    0.551
        89  -9.8316    178.4863    224.4463   2.9104906637e+02   4.1659582680e+00  0.006582815  0.006049207 -22.09 0.0008070364    1.072    0.067
        90 -10.4743    149.0239    223.5567   2.9138311666e+02   4.3347956468e+00  0.009315892  0.008480142 -47.57 0.0001608102    1.082    0.076
        91 -10.1253    250.1512    223.6320   2.9021986628e+02   3.7882572768e+00  0.009781094  0.006352491  23.67 0.0004905929    1.535    0.349
        92 -10.2329    250.4112    220.2803   2.9019735677e+02   3.8245579201e+00   0.01118257  0.008016516 -71.68 0.0002653191    1.522    0.343
        93 -12.5837    195.0914    216.4939   2.9081168165e+02   4.1659012355e+00   0.04352864   0.02283359  63.67  0.003373626    3.429    0.708
        94  -9.9020    184.2057    222.6204   2.9097261393e+02   4.1556664234e+00  0.008849847  0.006110995   6.87 0.0003506577    1.597    0.374
        95 -10.6286    243.6114    221.0643   2.9028010557e+02   3.8524772794e+00    0.0103417  0.008510959  38.47 0.0007377351    1.244    0.196
        96  -9.9761     59.2022    224.9484   2.9242603685e+02   4.8022472975e+00   0.00750765  0.005128664 -63.25 0.0003477284    1.486    0.327
        97 -10.6420    220.8180    219.8094   2.9053495009e+02   3.9897078802e+00  0.008816085  0.007498554  55.50  0.000561033    1.295    0.228
        98 -11.5730    206.4657    218.9751   2.9069522175e+02   4.0765836063e+00   0.01326838  0.009039199  30.06 0.0003615587    1.447    0.309
        99 -11.2679    229.2606    217.1187   2.9042216947e+02   3.9743917461e+00   0.01220448   0.01177983  23.91 0.0008016828    1.055    0.052
       100 -11.0554    231.0856    212.3412   2.9037335742e+02   4.0182925687e+00   0.01994949   0.01229816 -79.47  0.001931475    2.057    0.514
       101 -11.4408    176.4365    216.6310   2.9102721774e+02   4.2650017434e+00   0.01668582   0.01133394 -26.87 0.0008591151    1.660    0.398
       102 -12.7702     46.9524    243.8199   2.9267645645e+02   4.6553458473e+00   0.01935401   0.01092988 -59.31  0.001525666    1.732    0.422
       103 -12.0058    217.4130    212.9532   2.9053420944e+02   4.0852530460e+00   0.01551356   0.01211786  36.30 0.0007061042    1.295    0.228
       104 -12.4829    123.6894    224.8909   2.9168265994e+02   4.4562108013e+00    0.0212817   0.01740936  22.25 0.0008648228    1.215    0.177
       105 -11.0134    160.7579    212.5781   2.9118417927e+02   4.3951809954e+00   0.01119403   0.01001561  76.61 0.0005903894    1.255    0.203
       106 -10.5308    152.9856    212.6285   2.9127398299e+02   4.4365095075e+00  0.009482195  0.008239556 -57.15 0.0001518495    1.150    0.131
       107 -11.9587    237.9530    210.6181   2.9028433418e+02   4.0005797797e+00   0.01480675   0.01141686 -54.05  0.001703141    1.271    0.213
       108  -9.9753    173.0314    211.7882   2.9103825596e+02   4.3378918423e+00  0.008210946  0.007893282 -16.90 0.0002507074    1.005    0.005
       109 -10.2021    147.0264    211.0316   2.9133333759e+02   4.4866087233e+00  0.007963149  0.007264457 -51.56 0.0009818266    1.088    0.081
       110 -11.8939    211.7369    208.2319   2.9057203262e+02   4.1690388613e+00   0.02517138   0.01210777  26.94  0.002306632    2.029    0.507
       111 -10.5789    206.0861    207.8694   2.9063495119e+02   4.2036313851e+00   0.01157472   0.00911216 -74.72 0.0009774347    1.391    0.281
       112 -11.5212    189.7516    208.2460   2.9082515258e+02   4.2875637720e+00   0.01962271   0.01255747 -12.27  0.001924943    1.979    0.495
       113 -10.4061    188.4843    205.4537   2.9082349250e+02   4.3258366119e+00   0.01173472    0.0103113 -73.01 0.0007291556    1.209    0.173
       114 -11.6859    112.2806    205.3812   2.9170082241e+02   4.7373746704e+00   0.01378249   0.01125967  69.62            0    1.439    0.305
       115 -13.2489     89.0989    244.3216   2.9219381798e+02   4.4233866847e+00   0.02240809   0.01428251  35.76 0.0006239573    1.565    0.361
       116 -11.8265    183.2961    204.4897   2.9087761274e+02   4.3646863102e+00   0.01504569   0.01058587 -59.66 0.0009063198    1.412    0.292
       117  -9.9494    136.0200    206.0187   2.9143099179e+02   4.6023658830e+00  0.007677702  0.007376534  -7.90 0.0003550137    1.014    0.014
       118 -11.8697    199.5796    204.8041   2.9069199221e+02   4.2732609418e+00   0.01163605   0.01114119  17.04 0.0003124354    1.047    0.045
       119 -10.7367    145.8210    202.9447   2.9130021402e+02   4.5841756722e+00   0.01781978  0.007619273 -52.13  0.001550191    2.193    0.544
       120 -10.3494    122.2313    203.6817   2.9157628453e+02   4.7029495378e+00    0.0204067  0.004513349  32.97   0.00136201    3.749    0.733
       121 -11.5068    121.4971    199.0279   2.9155770694e+02   4.7593214192e+00   0.01904642   0.01191306  28.50  0.001796333    1.569    0.363
       122 -10.6567    118.0034    205.0009   2.9163266674e+02   4.7108536571e+00   0.01206401   0.01028974  72.38 0.0005719109    1.350    0.259
       123 -11.1780    115.9966    201.1766   2.9163357770e+02   4.7647334922e+00   0.01934146  0.009913917  32.32  0.001832135    1.888    0.470
       124 -10.6467     58.0801    202.8736   2.9231103549e+02   5.0570041099e+00   0.01461099   0.01086619  86.61  0.001582624    1.682    0.405
       125 -10.4951    235.7245    203.3338   2.9026753155e+02   4.0945803900e+00    0.0108776  0.009649184  -1.20 0.0003944066    1.135    0.119
       126 -10.2960    232.6415    200.7994   2.9028822999e+02   4.1397567820e+00   0.01066473  0.009282021  49.50  0.000380151    1.230    0.187
       127 -11.1774    208.7871    202.8212   2.9057447462e+02   4.2458652679e+00  0.008840842   0.00754286  59.63 0.0005067416    1.310    0.236
       128 -12.9142    241.3875    200.1207   2.9018367423e+02   4.1001273520e+00   0.01933538   0.01610093  73.23 0.0006570739    1.406    0.289
       129 -11.6799    247.1160    199.9272   2.9011666453e+02   4.0713402061e+00   0.01314258  0.009126831  41.91 0.0003265885    1.501    0.334
       130  -9.9579    166.8144    201.6128   2.9105066119e+02   4.4859897065e+00  0.009257914  0.005673438  36.19 0.0009360843    1.628    0.386
       131 -12.5256    216.1940    194.6123   2.9044142639e+02   4.2982461456e+00    0.0322893   0.01223909 -44.33  0.002533593    2.806    0.644
       132 -11.8152    139.4854    197.5288   2.9134171938e+02   4.6793091048e+00   0.02148935   0.01528881  81.25  0.001819993    1.854    0.461
       133 -12.1216    139.9357    194.2442   2.9131743410e+02   4.7138737848e+00   0.02532196  0.009943641 -50.65 0.0002896302    2.394    0.582
       134 -12.3035    104.5890    208.6062   2.9180818736e+02   4.7424363442e+00   0.03626624   0.02245053 -74.71  0.003610478    1.897    0.473
       135 -12.1197    206.0949    198.3727   2.9057955642e+02   4.3104725932e+00   0.01737149   0.01302917  15.52  0.001961594    1.361    0.265
       136 -13.2834    188.4284    196.4371   2.9077165633e+02   4.4276400239e+00   0.02278284   0.01681383  15.58 0.0005077165    1.388    0.279
       137 -12.1606    188.7283    191.2929   2.9073825463e+02   4.4839304867e+00   0.01159815   0.01059916  45.14 0.0003434356    1.149    0.130
       138 -11.8655    100.6286    198.3555   2.9179431496e+02   4.8792181606e+00   0.02291004   0.01311641  34.46  0.001355672    1.718    0.418
       139 -11.0476     94.6177    195.5157   2.9184711278e+02   4.9435428931e+00   0.01510132   0.01029685 -10.34 0.0009800324    1.752    0.429
       140 -10.6994    224.1531    198.1139   2.9037023985e+02   4.2158416790e+00   0.00910225  0.007739198  60.99 0.0007184322    1.322    0.244
       141 -10.4746    169.9209    196.6091   2.9098577406e+02   4.5255720472e+00   0.01145043   0.00811661 -47.32 0.0005045851    1.380    0.275
       142 -11.7235    249.5226    185.0767   2.9000241929e+02   4.2253932807e+00   0.02236751    0.0130959 -76.20  0.002119032    2.115    0.527
       143 -12.4237    250.4346    194.6243   2.9004759208e+02   4.1130562088e+00   0.01391359  0.008491307 -59.75 0.0005844465    1.617    0.382
       144 -12.9653    245.9712    190.9300   2.9007738923e+02   4.1787481665e+00   0.01905772   0.01594262  33.59 0.0006074586    1.204    0.170
       145 -10.9772    107.1060    194.8833   2.9169948744e+02   4.8834758074e+00   0.01740023   0.01149099 -16.35  0.001756537    1.845    0.458
       146 -11.2457    198.9174    194.9981   2.9064252360e+02   4.3872123507e+00   0.00941483  0.009133399 -16.19  0.000352086    1.009    0.009
       147 -11.8129    154.5956    192.1395   2.9113629411e+02   4.6585515894e+00   0.01717584   0.01167302  -9.25 0.0005791161    1.763    0.433
       148 -11.9837    149.1577    191.1142   2.9119297909e+02   4.6994147023e+00    0.0179636   0.01274484 -86.06 0.0004320294    1.753    0.430
       149 -11.7560    113.0007    193.8613   2.9162560736e+02   4.8632598560e+00   0.01969001   0.01416493  48.60  0.002159133    1.527    0.345
       150 -10.2643    117.4087    191.7504   2.9156253635e+02   4.8633060635e+00   0.00914357  0.007258005 -24.53 0.0003136029    1.324    0.244
       151 -10.9633    233.8941    193.9364   2.9023383150e+02   4.2102096816e+00  0.009798786  0.009564727 -49.87 0.0006381625    1.050    0.048
       152 -11.9591    210.2050    192.2736   2.9049672881e+02   4.3569185965e+00   0.01913793   0.01102206 -72.68  0.001824162    2.031    0.508
       153 -10.2551     89.9594    193.9770   2.9189188004e+02   4.9859307265e+00  0.008589919  0.007447571  64.81  0.001024177    1.298    0.230
       154 -11.0488     86.9539    191.3208   2.9191110889e+02   5.0320167281e+00   0.01737677  0.008555222 -50.35  0.001608882    1.945    0.486
       155 -12.0827     69.6961    175.6067   2.9201888211e+02   5.3018211476e+00   0.01970997   0.01256268  -0.37   0.00113488    1.914    0.477
       156 -13.0643     75.2454    183.2143   2.9199905016e+02   5.1862891261e+00   0.03487834    0.0227173 -71.85  0.001908509    1.708    0.415
       157 -12.9348     66.9602    188.8904   2.9212753742e+02   5.1668619405e+00   0.02661274   0.01348791 -35.32  0.001340662    2.367    0.578
       158 -11.5776    163.2404    188.9800   2.9101832711e+02   4.6475054384e+00   0.01866167   0.01156231 -53.28  0.001126571    1.557    0.358
       159 -12.8949     69.8454    190.7663   2.9210515299e+02   5.1302254032e+00   0.02056604   0.01251303 -45.54 0.0005574169    1.628    0.386
       160 -11.2119    178.2456    189.7450   2.9084995434e+02   4.5579349542e+00   0.02067126   0.01197213 -80.88  0.001885895    2.347    0.574
       161 -10.9332    175.3585    184.4829   2.9085257199e+02   4.6327568832e+00   0.01456705   0.01073102 -63.68   0.00086769    1.385    0.278
       162 -11.1473    124.1626    191.8111   2.9148504938e+02   4.8262510896e+00   0.01291742  0.009237407 -53.22 0.0008919545    1.362    0.266
       163 -11.1395    120.6629    188.6584   2.9150705948e+02   4.8806079661e+00   0.01657395  0.009119481 -82.91  0.001411841    2.713    0.631
       164 -10.6392    107.6218    180.1884   2.9160815895e+02   5.0462251812e+00   0.01279045  0.007595631 -57.25 0.0001960232    1.634    0.388
       165 -12.5163    106.6193    187.5753   2.9166264170e+02   4.9684152314e+00   0.02459932   0.01276038  39.90 0.0006962928    1.978    0.494
       166 -12.9171    104.0899    179.6748   2.9164589448e+02   5.0710213733e+00   0.03302055   0.01912251 -70.00  0.002445363    1.923    0.480
       167 -11.6203     82.1097    189.1311   2.9195424822e+02   5.0827318177e+00   0.01936845   0.01111582 -42.45  0.001010492    1.786    0.440
       168 -10.4614     33.5292    189.5322   2.9251680943e+02   5.3390823966e+00   0.01052084  0.006229532 -59.50   0.00052157    1.658    0.397
       169 -11.0103     30.9722    177.0473   2.9247393004e+02   5.4934785736e+00   0.01138612  0.009223545 -61.42 0.0005988787    1.245    0.197
       170 -13.4856     32.5966    182.7485   2.9248824469e+02   5.4205251794e+00   0.02990021   0.02028565  56.83  0.002518731    1.786    0.440
       171 -11.5923     26.9114    179.2055   2.9253328882e+02   5.4909351139e+00   0.02245609    0.0117342 -59.65  0.001781264    1.866    0.464
       172 -10.7073     35.9653    177.9955   2.9242182706e+02   5.4560128458e+00    0.0117849  0.008875528 -12.70 0.0004360013    1.474    0.322
       173  -9.8620     11.5324    184.4729   2.9274122235e+02   5.5140003811e+00  0.006384681  0.006253553 -10.29 0.0002239755    1.024    0.024
       174 -12.7262      7.3478    186.5747   2.9280166723e+02   5.5127286913e+00   0.01666931   0.01233314  29.74 0.0008938125    1.339    0.253
       175 -11.8832      1.6390    188.0986   2.9287634305e+02   5.5261237104e+00   0.01850834  0.009763518 -73.54  0.001654011    2.325    0.570
       176 -12.9554      1.4173    182.8190   2.9284833376e+02   5.5868083886e+00   0.02214646  0.009364162 -66.05  0.001383805    2.563    0.610
       177 -11.4441     91.6466    188.1151   2.9183839031e+02   5.0428934896e+00   0.01122251   0.01006738  18.14 0.0003380616    1.106    0.096
       178 -11.0381    195.0097    187.1868   2.9064202158e+02   4.4962376487e+00   0.01884857   0.01155604  70.26  0.001709697    2.494    0.599
       179 -10.8040    190.1897    186.8701   2.9069567480e+02   4.5258266822e+00   0.01349975  0.009312499  32.64  0.001466554    1.436    0.304
       180 -10.7910     47.7906    186.5606   2.9233509602e+02   5.2960499743e+00   0.01797082  0.009310338  39.29  0.001688495    1.966    0.491
       181 -11.3309    234.0341    185.9810   2.9018585470e+02   4.2989635279e+00  0.009798027  0.009337726 -22.81 0.0003398479    1.017    0.017
       182 -11.3451    231.5322    182.4531   2.9019407664e+02   4.3521827949e+00   0.01141022   0.01015577  31.35 0.0006233364    1.133    0.117
       183 -10.9254    229.4449    179.5319   2.9020106548e+02   4.3963350486e+00    0.0121038  0.009801931  77.57 0.0007261581    1.477    0.323
       184 -12.1778    124.8554    183.7888   2.9143042900e+02   4.9128735992e+00   0.02634295   0.01559175  47.34  0.002268003    1.903    0.475
       185 -12.6221    118.5243    178.1066   2.9147036930e+02   5.0109712151e+00   0.01766938   0.01447916  -7.40 0.0003951626    1.286    0.223
       186 -10.9262    114.0422    178.5099   2.9152438471e+02   5.0305656731e+00  0.009758371  0.009444465 -35.09  0.001248216    1.026    0.025
       187 -11.6412     60.4418    184.1886   2.9217542682e+02   5.2548498890e+00   0.02110824   0.01571253 -26.17  0.001353872    1.447    0.309
       188 -11.5491     62.5647    180.5081   2.9212958439e+02   5.2849157054e+00   0.02480313   0.01538581  82.72  0.002269397    2.475    0.596
       189 -12.1435     23.7140    184.6108   2.9260150132e+02   5.4471674237e+00   0.01361038   0.01103555 -47.44  0.001603756    1.206    0.171
       190 -11.2548    216.9796    184.0319   2.9037074142e+02   4.4130704544e+00   0.01093675  0.008885507 -58.27            0    1.227    0.185
       191 -11.7576    218.7721    179.7375   2.9032508564e+02   4.4517099411e+00   0.01720652   0.01183778  57.89  0.001796289    1.770    0.435
       192 -10.8433    139.2334    184.5079   2.9126890553e+02   4.8273053437e+00   0.01740355   0.01021635  -0.29  0.001598933    2.244    0.554
       193  -9.7527    238.2894    183.3141   2.9012135364e+02   4.3059636537e+00  0.006789334  0.004697613 -29.11 0.0003127473    1.589    0.371
       194  -9.8793    225.4921    183.4696   2.9026950199e+02   4.3733942786e+00  0.006588367  0.006069709 -23.12 0.0008089491    1.067    0.063
       195 -11.0249    130.2031    182.7613   2.9136281807e+02   4.8956373070e+00    0.0134129   0.00941453  55.28  0.001155341    1.675    0.403
       196 -11.1343    190.3993    180.8187   2.9065801892e+02   4.5928135920e+00   0.01521257   0.01083187 -83.06 0.0009891099    1.703    0.413
       197  -9.8528    148.9817    182.0280   2.9114214939e+02   4.8026812078e+00  0.007634955  0.007350525 -29.30 0.0004045959    1.016    0.015
       198 -12.0426     92.3891    180.7846   2.9178725149e+02   5.1214792288e+00    0.0148368   0.01073177 -46.47 0.0004431655    1.355    0.262
       199 -11.5524    164.6496    192.2643   2.9102120583e+02   4.6029252333e+00   0.01405197   0.01015624  -8.03 0.0005995705    1.580    0.367
       200 -11.3953     42.2922    180.1162   2.9236114112e+02   5.3981720588e+00   0.01794142   0.01461783 -41.06  0.002122644    1.211    0.174
       201 -11.5131      3.8904    160.4042   2.9268994343e+02   5.8261493115e+00   0.01835799   0.01294833 -76.58  0.001277573    1.622    0.383
       202 -12.8529     18.2108    178.1703   2.9262766409e+02   5.5492385535e+00   0.03294009   0.01754609 -66.76   0.00208955    2.006    0.501
       203 -11.6340     12.2443    179.8930   2.9270647987e+02   5.5617961859e+00   0.01944439    0.0140293  47.64  0.001350369    1.509    0.337
       204 -12.2275      4.6068    175.1241   2.9276696917e+02   5.6564434122e+00   0.02717774   0.02149031  47.08  0.001707232    1.355    0.262
       205 -11.4982      3.0704    166.9973   2.9273761520e+02   5.7562483003e+00   0.01976293   0.01189823  50.05  0.001286227    1.939    0.484
       206 -11.8190      8.0994    165.7453   2.9267232504e+02   5.7434225574e+00   0.01800331   0.01328148 -51.85 0.0004217082    1.320    0.242
       207 -10.7142    212.0230    179.7145   2.9040263317e+02   4.4884397856e+00  0.009087738  0.008474723  10.95  0.001138402    1.060    0.057
       208 -10.2410    143.0758    180.2988   2.9120014276e+02   4.8539935967e+00  0.008727748  0.008169957  19.88 0.0001729764    1.066    0.062
       209 -11.7334     49.7670    170.4308   2.9221872427e+02   5.4671793346e+00   0.01562035   0.01137811  36.65 0.0008731981    1.386    0.278
       210 -11.6619     52.0250    178.2926   2.9223829639e+02   5.3664782738e+00   0.02129226   0.01224673  35.18  0.001645328    1.718    0.418
       211 -11.9959     55.3712    175.7735   2.9218507972e+02   5.3768942990e+00   0.01911395   0.01198759  42.67   0.00114996    1.681    0.405
       212 -12.0174    136.5032    176.0147   2.9125096665e+02   4.9376656771e+00   0.01357849   0.01080604 -48.22 0.0003806519    1.228    0.186
       213 -10.7882    129.5200    175.9572   2.9133112127e+02   4.9759464806e+00   0.01177865   0.00855399  44.61 0.0006940113    1.462    0.316
       214 -12.5587     87.1350    171.6545   2.9179479814e+02   5.2525900137e+00   0.02393335   0.01820084  76.89  0.002640473    1.643    0.391
       215  -9.8288    125.4934    175.5535   2.9137518719e+02   5.0021874991e+00  0.006463697  0.006172407 -16.44 8.474117e-05    1.015    0.015
       216 -10.7251    194.8022    173.1221   2.9056248277e+02   4.6556687763e+00   0.01542092  0.007716816 -54.25   0.00144172    1.896    0.472
       217 -12.2724    157.0374    173.0838   2.9099727335e+02   4.8599477548e+00   0.01714212   0.01324988  43.36  0.001070686    1.357    0.263
       218 -10.3547     76.6533    173.9213   2.9192885314e+02   5.2834148008e+00  0.008909351  0.008079782 -63.42 0.0003782833    1.131    0.115
       219 -11.5521     25.3084    170.9750   2.9250406672e+02   5.5922718245e+00   0.02560663   0.01219954 -48.75  0.002168267    2.031    0.508
       220 -12.4009    243.1783    172.3846   2.9000138197e+02   4.4024863266e+00   0.01584654    0.0127372  32.39 0.0004734978    1.245    0.197
       221 -12.2133    236.3663    172.9464   2.9008302933e+02   4.4330066666e+00   0.01999152  0.009274201  28.41  0.001802709    2.081    0.519
       222 -11.2616     59.7089    171.3004   2.9210908069e+02   5.4039946669e+00   0.01646913    0.0105862  88.26  0.001390117    2.200    0.545
       223 -12.6198     60.8468    167.4697   2.9207371438e+02   5.4410396189e+00   0.01363429   0.01189219 -23.42 0.0004338603    1.155    0.134
       224 -11.1572     34.4880    172.5149   2.9240708651e+02   5.5256917050e+00   0.01492049   0.01238427 -13.80  0.001557545    1.260    0.206
       225 -11.5430     31.5118    169.6063   2.9242455539e+02   5.5744279690e+00   0.01357856   0.01100748 -38.89  0.001062074    1.225    0.184
       226  -9.8314    219.4907    172.5599   2.9027497738e+02   4.5285947077e+00  0.006375596  0.006246658  11.95 0.0003198685    1.040    0.039
       227 -10.4897    208.7312    170.8609   2.9038892895e+02   4.6058649606e+00   0.01139959  0.008596994  -0.34  0.001266226    1.448    0.309
       228 -11.2217    123.6580    170.3583   2.9136612850e+02   5.0705840927e+00   0.01419253  0.008372644 -28.62  0.001337304    2.059    0.514
       229 -11.0908     99.4800    171.0062   2.9164866714e+02   5.1934757503e+00   0.01543101  0.008504144  15.65  0.001449894    1.998    0.500
       230 -10.7148    217.1606    168.2857   2.9027688011e+02   4.5892869708e+00   0.01918338  0.007838176 -57.70  0.001635634    2.299    0.565
       231 -10.7306     66.0247    169.2989   2.9202460433e+02   5.3926135424e+00   0.01236124  0.008906955 -52.85  0.001371473    1.351    0.260
       232 -10.6600     19.6741    169.7148   2.9256177067e+02   5.6366746092e+00   0.01457908  0.009217959  14.30  0.001486615    1.695    0.410
       233 -11.9143    170.7363    168.5831   2.9081323408e+02   4.8367027730e+00   0.01387571   0.01010617  20.14 0.0009993446    1.380    0.276
       234 -11.5712    129.8703    167.8647   2.9128000612e+02   5.0651942367e+00   0.01635923   0.01087904   2.63  0.001680692    1.744    0.426
       235 -10.1254    108.9699    169.4521   2.9153020380e+02   5.1598969990e+00  0.009666074  0.006313104  22.70 0.0004473921    1.533    0.348
       236 -11.1813     73.5824    168.4661   2.9193259045e+02   5.3613786425e+00   0.02394842  0.009323118  21.56  0.001903557    2.750    0.636
       237 -11.8536     77.2516    166.3138   2.9187776405e+02   5.3659005104e+00   0.01659016   0.01192063 -59.52 0.0002059928    1.383    0.277
       238 -10.7641     81.4465    166.5314   2.9183064095e+02   5.3408937948e+00   0.01092047  0.006314287  24.00 4.571232e-05    1.725    0.420
       239 -10.4926     48.4924    180.4783   2.9229172324e+02   5.3608150890e+00   0.01209363  0.008573773  43.77 0.0008204727    1.491    0.329
       240 -10.2921     12.9974    169.2695   2.9263623108e+02   5.6774729523e+00  0.009149423  0.008477295   5.07 0.0008781392    1.067    0.062
       241 -11.7899    190.9780    164.3523   2.9055542183e+02   4.7750327106e+00   0.01601531  0.009480926 -62.42  0.001375191    1.703    0.413
       242 -10.7351     37.4981    160.5200   2.9230276856e+02   5.6446911977e+00   0.01998693   0.01005718 -60.50  0.001067164    1.950    0.487
       243 -10.8654     33.0724    157.4899   2.9233625731e+02   5.7025739830e+00   0.02435454   0.01060761  24.95  0.001398525    2.279    0.561
       244 -11.4025     37.7405    154.9707   2.9226776463e+02   5.7059115459e+00   0.01249174   0.01110665  83.16   0.00123841    1.264    0.209
       245 -12.3652     40.3825    166.0868   2.9230178836e+02   5.5664933979e+00   0.01315525   0.01156146 -35.44 0.0003909204    1.121    0.108
       246 -11.2535     36.4758    165.5342   2.9234365891e+02   5.5936818389e+00   0.01239993   0.01041879  57.67 0.0004663311    1.327    0.246
       247 -11.8180    186.3157    164.8678   2.9061212430e+02   4.7944117695e+00   0.02244122  0.008583235 -62.91  0.001807693    2.650    0.623
       248 -10.7950    135.0412    168.6579   2.9122501485e+02   5.0283927796e+00   0.01737102  0.006370748  18.24  0.001253805    3.361    0.702
       249 -11.0136    140.0481    165.6470   2.9114978018e+02   5.0353067625e+00   0.01002165  0.009142711  89.71 0.0004258311    1.206    0.171
       250 -10.7885    196.0034    164.6094   2.9049904464e+02   4.7449925089e+00   0.01604261  0.006695129  40.42  0.001337719    2.486    0.598
       251 -11.3129    120.0535    164.8164   2.9137544879e+02   5.1524157682e+00   0.01433878  0.009245381  35.64 0.0005605406    1.547    0.354
       252 -12.1793    223.8889    161.9641   2.9016257198e+02   4.6240422287e+00   0.01705185   0.01265164 -78.54  0.001272584    1.545    0.353
       253 -10.1578    204.0137    164.4696   2.9040598871e+02   4.7032853993e+00  0.009550919  0.006346972  21.63 0.0004626431    1.514    0.340
       254 -11.0735    101.0309    163.3775   2.9158643432e+02   5.2710556577e+00   0.01107962  0.008493203 -45.26 0.0005823245    1.281    0.219
       255 -10.0800    212.8169    162.8093   2.9029495457e+02   4.6743913840e+00  0.008615092  0.007449426  60.79 0.0004138691    1.290    0.225
       256 -10.4608     55.0327    162.8148   2.9211376463e+02   5.5247107961e+00   0.01290066  0.007478341  52.09 0.0007642396    2.115    0.527
       257 -10.8544     51.0489    162.1661   2.9215596373e+02   5.5534122848e+00   0.01734011  0.009590704  16.05  0.001640104    1.976    0.494
       258 -10.9028     45.4631    162.5922   2.9222288699e+02   5.5785983273e+00   0.01337775  0.008647175  71.55 0.0007287237    2.222    0.550
       259 -10.8216    132.6984    162.1756   2.9121429960e+02   5.1140181966e+00   0.01198726  0.008092872  35.46   0.00128361    1.480    0.324
       260 -10.9414    204.2809    174.7299   2.9046271212e+02   4.5863691564e+00   0.01212779  0.009604027  74.15 0.0007253187    1.529    0.346
       261 -11.8348     19.9768    161.1280   2.9250848903e+02   5.7318059618e+00   0.02081357   0.01589835   6.52  0.001534375    1.383    0.277
       262 -11.3383    203.3235    159.0690   2.9038245307e+02   4.7677932358e+00   0.02483358  0.008950284 -49.64  0.001986254    2.623    0.619
       263 -10.1897    110.0016    160.2915   2.9146503546e+02   5.2575169006e+00  0.008694857   0.00821133  12.66 0.0003790851    1.049    0.047
       264 -11.9406    190.8839    157.4336   2.9051618211e+02   4.8534125518e+00   0.01774247   0.01094451  63.32  0.001155766    2.277    0.561
       265 -11.2396    128.7108    158.5107   2.9123894357e+02   5.1767811077e+00   0.01186674  0.008818252 -57.71 0.0009641389    1.330    0.248
       266 -10.6758    212.6722    157.7593   2.9026717431e+02   4.7319995888e+00   0.01294851  0.009020728  23.54  0.001409288    1.429    0.300
       267 -11.2843     95.6687    157.5676   2.9161449740e+02   5.3653537130e+00   0.01158282   0.01017043  36.56 0.0006284539    1.163    0.140
       268  -9.9055     66.1745    158.3686   2.9195939500e+02   5.5149439815e+00   0.00913985  0.005647363  35.70 0.0004050615    1.611    0.379
       269 -10.8599    181.3209    156.9310   2.9062341079e+02   4.9107244792e+00  0.008963342  0.008224402 -55.85 0.0003702853    1.095    0.087
       270 -10.7628    123.4951    156.0115   2.9128453738e+02   5.2330317665e+00   0.01246871  0.009946921  73.57  0.001415723    1.508    0.337
       271 -11.3326     11.5488    156.4561   2.9257866522e+02   5.8296121832e+00   0.01490628   0.01189421  80.15 0.0005661379    1.510    0.338
       272 -11.5993     11.5627    151.9650   2.9255246030e+02   5.8801399236e+00   0.01188309  0.009881194  24.20  0.000300912    1.195    0.163
       273 -11.2955      8.0065    150.0292   2.9258228341e+02   5.9210021261e+00   0.01102098  0.009849772  38.26  0.001356981    1.151    0.131
       274 -10.4210    171.2068    156.5756   2.9073786701e+02   4.9693369128e+00  0.009001061  0.006219724   6.64 0.0005412824    1.599    0.374
       275 -10.9922    145.9471    155.1169   2.9102048172e+02   5.1220645532e+00   0.01438036   0.01098114  85.32  0.001586232    1.616    0.381
       276 -11.1535    139.7772    156.0424   2.9109699418e+02   5.1449173853e+00   0.01113966  0.009108287  11.36            0    1.242    0.195
       277 -11.0366    196.7188    159.6914   2.9046214044e+02   4.7964785504e+00   0.01129536   0.01092032  52.71 0.0005899282    1.097    0.089
       278 -11.8592    115.3211    154.6567   2.9137091088e+02   5.2923263863e+00   0.01817562   0.01117246  41.19 0.0003549953    1.690    0.408
       279 -10.3792    110.5001    155.3603   2.9143060151e+02   5.3103693987e+00  0.009842863  0.008332914 -42.97  0.001176243    1.158    0.137
       280 -11.2760    106.9401    154.9067   2.9146902072e+02   5.3346486777e+00   0.01191596   0.01005532  26.63 0.0003423575    1.179    0.152
       281 -12.0072    108.8117    149.8380   2.9141794679e+02   5.3816539535e+00      0.01807   0.01011694 -52.99  0.001056488    1.711    0.415
       282 -11.7849     18.8321    153.4359   2.9247708628e+02   5.8246097199e+00   0.02628472   0.01681054  -7.50  0.002591377    1.966    0.491
       283 -10.8586     34.7688    151.0205   2.9227913199e+02   5.7663606795e+00   0.01341497   0.00945183  63.15 0.0004258525    1.780    0.438
       284 -11.0000     27.2960    153.6801   2.9238081401e+02   5.7764800240e+00   0.01339352  0.009575465  61.19 0.0008481074    1.713    0.416
       285  -9.8250      4.6230    153.1087   2.9263919563e+02   5.9044282307e+00  0.008830298  0.005570816 -48.39  0.000148227    1.544    0.352
       286 -12.3979    247.9400    150.8399   2.8982090177e+02   4.6190732815e+00   0.01893532   0.01543836 -62.72  0.001715576    1.247    0.198
       287 -11.3762    225.8512    151.9992   2.9008186192e+02   4.7255450742e+00   0.01089739  0.009240433  23.33 0.0003656822    1.171    0.146
       288 -11.3791    137.9048    151.8414   2.9109412126e+02   5.2023157106e+00  0.009704763  0.008365953 -19.30 0.0003346135    1.182    0.154
       289 -10.3751    103.7979    148.6264   2.9146872850e+02   5.4222985352e+00   0.01190276  0.008006621  34.79   0.00127277    1.481    0.325
       290  -9.9837     64.8065    149.5832   2.9192413782e+02   5.6212628167e+00  0.008788009  0.005830011  36.35 0.0004489107    1.512    0.339
       291 -10.6065     52.0321    148.8168   2.9206710024e+02   5.6985219041e+00  0.009706751  0.008371362  56.21 0.0003307686    1.275    0.216
       292 -10.9326    202.6848    148.0337   2.9032546134e+02   4.8954297627e+00   0.01803173  0.009217991  47.77  0.001341557    2.314    0.568
       293 -10.4042    197.7538    145.6033   2.9036807998e+02   4.9494313049e+00   0.01190653   0.00643533  18.64 0.0006817607    1.967    0.491
       294 -10.3171     84.8204    154.9613   2.9172448101e+02   5.4530783403e+00   0.01379488  0.007204765   8.17  0.001183982    2.485    0.598
       295 -10.2709     91.7004    147.9694   2.9160445839e+02   5.4948153136e+00  0.009073232  0.008228952 -54.17 0.0003671734    1.100    0.091
       296 -11.4967    163.1992    145.6004   2.9076619283e+02   5.1361130954e+00  0.009681936  0.008560508   8.97 0.0005468664    1.129    0.115
       297 -10.6449     35.8846    145.7259   2.9223551705e+02   5.8200218791e+00    0.0113813  0.008809757  86.40  0.001222215    1.572    0.364
       298 -11.8137    237.9167    145.1232   2.8990287097e+02   4.7376201171e+00  0.009913177  0.008789544  50.31 0.0006644221    1.207    0.171
       299 -12.6696    177.6810    143.0893   2.9058466775e+02   5.0861805760e+00   0.02124157   0.01614005 -40.02  0.001302766    1.316    0.240
       300 -11.5100    225.3882    143.4619   2.9003737917e+02   4.8240966349e+00   0.01097334   0.01060249 -19.64 0.0004045402    1.004    0.004
       301 -11.5591    219.7140    143.0965   2.9010057053e+02   4.8589008615e+00   0.01399019  0.009475079  32.56  0.000993466    1.460    0.315
       302 -11.5776    131.8017    141.2474   2.9110280286e+02   5.3545078702e+00   0.01912512   0.01327169 -59.30  0.001435312    1.428    0.300
       303 -11.9256    128.0617    139.6540   2.9113665323e+02   5.3926115079e+00   0.02165561    0.0132592  58.95  0.001661013    2.170    0.539
       304  -9.6310     84.7411    143.6926   2.9165987693e+02   5.5804284314e+00  0.006615317  0.004657946 -31.55 0.0001718309    1.521    0.343
       305 -10.2329     13.8425    143.6247   2.9247776361e+02   5.9618907893e+00  0.009921973  0.005461017  36.49 0.0009537834    1.806    0.446
       306 -11.8334    241.4384    141.4895   2.8984113465e+02   4.7594329731e+00   0.01402813   0.01330302  34.04  0.001124973    1.084    0.077
       307 -11.2477    245.1529    138.8432   2.8978294139e+02   4.7690894951e+00   0.01341775  0.008607606  31.08 0.0006518666    1.532    0.347
       308 -11.3125    249.0242    136.4241   2.8972427257e+02   4.7753386018e+00   0.01135705   0.01027171 -71.28 0.0003266968    1.164    0.141
       309 -11.9680     21.7715    140.9840   2.9237090509e+02   5.9491398014e+00   0.01595259   0.01474921  42.52  0.001676028    1.129    0.114
       310 -10.8884     28.9850    137.9223   2.9226985448e+02   5.9449470432e+00   0.01519657    0.0109563  58.55  0.001635879    1.657    0.397
       311 -10.8014     25.5231    138.5717   2.9231359058e+02   5.9561993623e+00   0.01032896  0.008799339  48.93 0.0001105988    1.257    0.205
       312 -10.2849     99.3195    141.6622   2.9147987146e+02   5.5248400915e+00  0.006808236  0.004884287  61.46 0.0007049651    1.708    0.415
       313 -11.2664     59.0690    133.9553   2.9189952765e+02   5.8281272459e+00   0.01298133   0.01084317 -16.44 0.0005219619    1.245    0.197
       314 -11.0811     58.2796    140.9831   2.9194948518e+02   5.7532086383e+00    0.0145717  0.008671263  36.53 0.0004854523    1.678    0.404
       315 -10.8468     58.2944    137.6777   2.9193010540e+02   5.7903604239e+00   0.01093294  0.009762272 -28.24 0.0005009622    1.109    0.098
       316 -12.4181     46.6360    139.6410   2.9207607908e+02   5.8308615356e+00   0.02242263   0.01625869  33.88  0.002510171    1.376    0.273
       317 -10.3405     96.5048    139.0343   2.9149705377e+02   5.5695878198e+00  0.009288525  0.006358494 -61.94 8.740422e-05    1.470    0.320
       318 -10.6696    207.0972    138.0843   2.9021660946e+02   4.9835278051e+00   0.00928754  0.008981897  34.68  0.000299372    1.071    0.066
       319 -11.8455     37.0543    137.4604   2.9217401856e+02   5.9068581174e+00     0.018085   0.01141344   9.49 0.0008635941    1.782    0.439
       320 -10.5432    103.7779    137.2134   2.9140254847e+02   5.5509348396e+00     0.011482   0.00614608  58.29 0.0009530659    2.788    0.641
       321 -11.9850      7.6267    134.8687   2.9249872369e+02   6.0938394893e+00   0.02145783   0.01189997 -39.42 0.0008392965    1.933    0.483
       322 -11.3614    228.0575    135.1869   2.8995835579e+02   4.9027428114e+00    0.0110854   0.01019686  33.12 0.0002985079    1.107    0.097
       323 -10.2242    195.9084    135.9305   2.9033291929e+02   5.0682553153e+00   0.01033006  0.007527336  59.97  0.001107331    1.650    0.394
       324 -10.6701     54.6192    145.0470   2.9201534402e+02   5.7270938411e+00   0.01534038  0.006545777  42.29  0.001274513    2.534    0.605
       325 -10.1975     83.9690    135.2576   2.9161972553e+02   5.6795821469e+00   0.00880991   0.00795582   8.46            0    1.100    0.091
       326 -10.9430     77.2047    134.7624   2.9169490524e+02   5.7215453326e+00   0.01685903  0.009290094  49.62  0.001053901    2.172    0.540
       327 -12.1092     22.1974    132.0085   2.9231388247e+02   6.0479680089e+00   0.02790508   0.01708262 -78.60  0.002191901    2.044    0.511
       328 -10.6007    214.1092    131.4454   2.9009711770e+02   5.0202980713e+00   0.01410368  0.008069013 -55.55  0.001149417    1.682    0.405
       329 -10.0888     99.1068    132.8242   2.9143089391e+02   5.6255138138e+00  0.009120779   0.00721133 -26.24 0.0003939045    1.324    0.244
       330 -10.2172    199.2438    131.7315   2.9027000018e+02   5.0974716062e+00  0.008861369  0.007032596 -27.06 0.0003797412    1.313    0.239
       331 -10.1819     48.7397    131.5773   2.9200494103e+02   5.9103966990e+00   0.01149179  0.007672184  35.52  0.001078661    1.497    0.332
       332 -10.9858     50.8650    128.3346   2.9196155994e+02   5.9355063603e+00   0.01389476   0.01073799 -18.92  0.001017443    1.400    0.286
       333 -11.2558    128.6273    130.2520   2.9107536963e+02   5.4954191431e+00    0.0112538   0.01073501   6.90 0.0002808725    1.035    0.034
       334 -10.4347    113.0563    130.3488   2.9125554611e+02   5.5782543028e+00   0.01045138   0.00830457 -45.68 0.0005500584    1.233    0.189
       335  -9.5629     70.6554    131.6892   2.9175261988e+02   5.7913751339e+00  0.007009069  0.004706579 -25.67 0.0007045565    1.704    0.413
       336 -11.4216     35.9633    129.4958   2.9214034910e+02   6.0024297211e+00    0.0116903   0.01099094  48.66 0.0006021609    1.125    0.111
       337 -11.1751     32.3689    129.1612   2.9217990599e+02   6.0254861129e+00   0.01834613  0.009155803 -67.17  0.001653724    2.178    0.541
       338 -11.6238    248.1262    129.2397   2.8969265224e+02   4.8609967494e+00   0.01827337  0.009619274  35.53   0.00173406    1.868    0.465
       339 -11.0223     86.5368    129.8502   2.9155863416e+02   5.7266636695e+00    0.0115292  0.009101767 -20.22 0.0003328163    1.350    0.259
       340 -11.5142     61.0330    128.9847   2.9184796018e+02   5.8735575732e+00   0.01202363  0.009222188  16.51 0.0004672219    1.320    0.242
       341 -10.6090     44.7934    127.7611   2.9202832282e+02   5.9745708326e+00   0.01332507  0.008569323 -38.46  0.001171929    1.622    0.383
       342 -11.7011    190.2080    125.4402   2.9033739382e+02   5.2171099226e+00   0.01720241   0.01085646  66.16  0.001543269    2.247    0.555
       343 -10.6819     92.6444    126.7795   2.9147028214e+02   5.7283725990e+00   0.01114519  0.008737256  -0.53 0.0005592931    1.363    0.266
       344  -9.9750    152.8867    125.8827   2.9077014891e+02   5.4137312056e+00  0.008875952  0.007523644  56.06 0.0006849737    1.304    0.233
       345 -10.4269    120.4061    124.2891   2.9113546586e+02   5.6068725979e+00   0.01629699  0.006506064 -65.18  0.001308048    2.685    0.628
       346 -12.5862     68.8223    123.9823   2.9172895415e+02   5.8880277816e+00   0.01943662   0.01216522  28.29 0.0004112883    1.568    0.362
       347 -11.7780    125.1728    124.0584   2.9107913409e+02   5.5837745486e+00   0.01453749   0.01063421  35.88  0.001625519    1.375    0.273
       348  -9.9168    250.2926    122.2790   2.8962706752e+02   4.9275378307e+00  0.006594316  0.004744492 -25.98  0.000226907    1.528    0.346
       349 -10.7368    238.6204    122.1418   2.8976059828e+02   4.9922912034e+00  0.009744567  0.005449596 -49.56 0.0009448085    1.730    0.422
       350 -10.9311    226.8385    120.6544   2.8988754646e+02   5.0728041536e+00   0.01736899  0.007967278 -74.27  0.001363378    3.031    0.670
       351 -11.2798     84.0447    120.5719   2.9153340186e+02   5.8445569717e+00   0.02128367    0.0130948  72.79  0.001929793    2.515    0.602
       352  -9.9964     11.9846    122.1823   2.9237476228e+02   6.2134006532e+00  0.008902917  0.004871968  24.44 0.0004216581    1.819    0.450
       353 -10.7537     58.4449    119.9665   2.9182539659e+02   5.9890328692e+00  0.009991672  0.006316321 -62.12  0.001026493    1.591    0.371
       354 -10.4291     48.6129    119.3113   2.9193510597e+02   6.0492306694e+00   0.01849795  0.009345288  45.89  0.001658067    2.255    0.557
       355 -11.8208     19.6258    117.9678   2.9226203731e+02   6.2199123507e+00   0.02378681   0.01550284 -15.87  0.002383584    1.891    0.471
       356 -12.7488     21.2693    110.2829   2.9219840773e+02   6.2976534523e+00   0.03258326   0.01857876 -36.40  0.003127834    1.945    0.486
       357 -11.2989     26.4463    108.2238   2.9212664374e+02   6.2930775095e+00   0.01199591  0.008790524  41.07 0.0006968075    1.413    0.293
       358  -9.8367    163.9786    119.7558   2.9060654029e+02   5.4228025612e+00   0.00802562  0.005447895  22.46 0.0002013553    1.474    0.322
       359 -11.0175    106.3495    118.6141   2.9126459059e+02   5.7465121862e+00   0.01877137   0.01139628   5.31  0.001814525    1.983    0.496
       360 -10.9920     26.6420    118.4448   2.9218378008e+02   6.1769142910e+00   0.01443075  0.008888724  52.12  0.001136963    1.940    0.485
       361 -10.4423     92.0370    118.2325   2.9142753954e+02   5.8278842243e+00  0.009915659  0.008373375 -25.16 0.0005387456    1.206    0.171
       362 -12.7246     87.5509    114.8057   2.9145936701e+02   5.8906168815e+00   0.01846768   0.01252306  35.06 0.0005407348    1.472    0.320
       363 -10.8335     60.3859    115.5588   2.9177734996e+02   6.0282398434e+00   0.01187283   0.01029955 -74.57  0.001068564    1.235    0.190
       364 -10.0695    221.4988    114.9874   2.8991593838e+02   5.1654456996e+00  0.009161448  0.006322442 -60.36 -0.0002715256    1.445    0.308
       365 -11.5929    182.9558    114.7449   2.9035855831e+02   5.3766548762e+00   0.02366892   0.01259724  41.87  0.001356958    1.978    0.494
       366 -10.4081    178.9750    109.6370   2.9037463107e+02   5.4556438299e+00  0.009835792  0.008451085  55.22 0.0004561444    1.277    0.217
       367 -10.7992    171.3732    115.1726   2.9049455940e+02   5.4344351721e+00  0.008802304   0.00625612 -76.77  0.000685142    1.613    0.380
       368 -11.4544    125.9916    114.0856   2.9101157608e+02   5.6916277131e+00    0.0100403  0.009152961 -52.13            0    1.090    0.083
       369  -9.9422    166.6716    114.3117   2.9054373802e+02   5.4695226165e+00   0.00675337  0.004866254  59.11 0.0004593018    1.667    0.400
       370 -11.9901    232.7936    110.8999   2.8976201078e+02   5.1502663169e+00   0.01257361   0.01146706  62.62  0.001560815    1.201    0.168
       371 -10.2397     95.7462    112.2450   2.9134986499e+02   5.8753290589e+00  0.009113767    0.0070378 -30.96 0.0004373876    1.343    0.255
       372 -11.3487    239.0214    110.7337   2.8968934397e+02   5.1184088109e+00   0.01106246  0.008979321 -50.12 0.0002702266    1.206    0.171
       373 -10.4504    245.3770    109.8376   2.8961095303e+02   5.0940575841e+00  0.009533498  0.005494282 -49.55 0.0004585989    1.680    0.405
       374 -11.6250      3.9412    109.5337   2.9239421783e+02   6.3989620998e+00    0.0135735   0.01096689  15.09  0.001151616    1.247    0.198
       375 -11.5453    112.2648    107.8625   2.9113369466e+02   5.8356818128e+00   0.01521637   0.01257676  58.81  0.001379204    1.364    0.267
       376  -9.3851    215.3013    108.3035   2.8994827878e+02   5.2741662831e+00  0.006779647  0.004723836 -27.45 0.0002249372    1.591    0.371
       377 -10.8348     73.7433    107.6463   2.9157708550e+02   6.0455210507e+00   0.02039905  0.008114292  24.26  0.001677439    2.528    0.604
       378 -11.4058     36.8520    108.1609   2.9200609121e+02   6.2379515145e+00   0.01103533  0.009165074  25.15 0.0004739324    1.196    0.164
       379 -10.7651    209.9548    106.9647   2.9000204517e+02   5.3181582248e+00  0.009304213  0.009171179 -10.16  0.001199885    1.034    0.033
       380 -10.3550    153.0281    107.0127   2.9065847920e+02   5.6253470807e+00   0.01042432  0.007657957  65.84 0.0005416378    1.691    0.409
       381 -12.2489    137.7970    103.5221   2.9081380008e+02   5.7468460353e+00   0.02381468   0.01574155 -86.78 0.0005218761    1.997    0.499
       382 -13.3141    166.3509    102.6310   2.9047928250e+02   5.6026933974e+00   0.02060231   0.01409848 -47.69  0.001189497    1.428    0.300
       383 -10.3857     33.3486    105.0439   2.9202843299e+02   6.2918552653e+00   0.01555222  0.006748661 -50.52  0.001354549    2.185    0.542
       384 -10.1519    173.6148    105.1404   2.9041017916e+02   5.5352073814e+00  0.009598205   0.00545218 -48.92   0.00093636    1.709    0.415
       385 -10.1924     91.1840    104.7793   2.9135904431e+02   5.9839464730e+00   0.01139304    0.0061841  59.63 0.0009474718    2.798    0.643
       386 -10.5971     16.6603    104.8999   2.9222036797e+02   6.3829905098e+00    0.0106932  0.008663956   0.37 0.0003951727    1.293    0.227
       387 -11.3054    233.9160    102.9603   2.8970270241e+02   5.2334682702e+00   0.01376599   0.01069955 -79.74  0.001048256    1.462    0.316
       388 -10.9771    190.0977    101.9882   2.9020178363e+02   5.4815607928e+00   0.01606472  0.008277982 -63.30  0.001497852    1.977    0.494
       389 -11.5797     82.4552    103.8753   2.9145454863e+02   6.0411084267e+00    0.0142953   0.01145682 -64.85 0.0003679315    1.282    0.220
       390 -11.4536     84.8780    100.0672   2.9140439836e+02   6.0709416897e+00   0.01444479  0.009869387  57.43  0.001010839    1.780    0.438
       391 -11.9406     47.5022    101.2657   2.9184298099e+02   6.2584121618e+00   0.02437501    0.0163965  79.97  0.001422795    2.078    0.519
       392 -10.2199    100.0178    103.2862   2.9124837568e+02   5.9531837107e+00  0.009240828  0.008634002   9.87  0.001159572    1.057    0.054
       393 -12.7139     66.7378    100.8426   2.9161837109e+02   6.1598012931e+00   0.02053612   0.01301825  47.79 0.0004057568    1.762    0.433
       394 -10.8462      2.3440    102.3472   2.9237092971e+02   6.4884539868e+00   0.01366028   0.00951056   1.20  0.001012316    1.629    0.386
       395 -10.6333    208.0293    101.8320   2.8999425049e+02   5.3863085663e+00  0.009803521  0.008430995  53.06 0.0004106691    1.264    0.209
       396 -11.7529     57.7160    102.8386   2.9173417242e+02   6.1858254763e+00   0.01077518  0.009940966  16.11 0.0002372081    1.075    0.070
       397 -11.4729    149.0951    100.7040   2.9066703776e+02   5.7175763831e+00   0.01920876   0.01414412  18.89  0.002155535    1.371    0.270
       398 -10.0905    147.5229     95.5242   2.9065495284e+02   5.7843528894e+00  0.009299184  0.006411323 -78.19 0.0007962129    1.707    0.414
       399 -10.7579    109.0196     99.3808   2.9112171702e+02   5.9486462145e+00   0.01503235  0.009687276 -10.25  0.001479298    1.950    0.487
       400 -10.4197    104.9967     98.2667   2.9116165777e+02   5.9828650210e+00   0.00960406   0.00672267  24.87 0.0003290581    1.416    0.294
       401 -11.3853      9.5626     98.2349   2.9226363605e+02   6.4960902106e+00   0.01941061   0.01271336  87.33  0.001894908    2.131    0.531
       402 -10.2581     32.8317     98.8208   2.9199821719e+02   6.3647068117e+00   0.01012916  0.007733759 -68.79 0.0002559315    1.382    0.276
       403 -10.7390     34.3639     94.1462   2.9195332837e+02   6.4091193377e+00    0.0175815   0.01028171 -16.18  0.001164828    2.364    0.577
       404 -10.5914     16.6294     98.9520   2.9218615732e+02   6.4501366856e+00   0.01084261  0.008716556   0.33 0.0006161956    1.309    0.236
       405 -10.6307    124.6155     96.4984   2.9092492708e+02   5.8970064781e+00   0.01152347  0.009439344  21.16 0.0005874446    1.214    0.176
       406 -11.0831    118.9163     96.2537   2.9098926948e+02   5.9304947809e+00   0.01152563  0.008919764 -52.10 0.0003295942    1.263    0.208
       407 -11.0920     90.4358     95.9732   2.9131638366e+02   6.0871094982e+00   0.01160441  0.009131831  22.31 0.0002810969    1.264    0.209
       408 -12.1112     52.5538     94.6599   2.9174619692e+02   6.3056519209e+00   0.01700718   0.01250412 -76.10  0.001036666    1.531    0.347
       409  -9.8154     23.2855     95.7169   2.9209045116e+02   6.4508732545e+00  0.006384456  0.004901075  59.64 0.0001957504    1.523    0.343
       410 -10.0068     18.3680     95.1742   2.9214411118e+02   6.4833554760e+00  0.008936055  0.006238825 -76.82 0.0005108035    1.651    0.394
       411 -10.2767    159.9989     93.7841   2.9050089889e+02   5.7365520170e+00   0.01112689  0.006988499 -16.41  0.001064086    2.035    0.509
       412 -10.5580    154.8724     93.8885   2.9056063426e+02   5.7630693987e+00  0.008794433  0.007527851  61.04            0    1.310    0.236
       413 -10.6423     83.8565     94.0400   2.9138108562e+02   6.1442905122e+00   0.01027902  0.008670996  64.16  0.001211668    1.351    0.260
       414 -10.7733    225.4724     92.7713   2.8974039176e+02   5.3937675721e+00   0.01025331  0.009343921 -74.94 0.0006266409    1.167    0.143
       415 -10.5370    214.7354     92.6181   2.8986316786e+02   5.4536307224e+00   0.01730911  0.009582154  71.19  0.001351928    3.395    0.705
       416  -9.8054     68.7074     93.3038   2.9155173366e+02   6.2340850012e+00  0.006514411  0.004919151  61.09 0.0003053643    1.574    0.365
       417 -10.0123    183.5526     92.4636   2.9022160912e+02   5.6240973963e+00  0.006501237  0.006116897 -23.25 -2.086668e-05    1.035    0.034
       418 -10.9873    143.6420     92.0014   2.9067916715e+02   5.8449460173e+00   0.01583096  0.006438229  24.75  0.001314325    2.454    0.592
       419  -9.4184    102.6374     95.2882   2.9117153228e+02   6.0291030503e+00  0.006832041  0.004770419  55.59 0.0007024183    1.693    0.409
       420 -10.7286      9.6416     92.0805   2.9222695589e+02   6.5649692235e+00   0.01006912  0.008668574  38.43 0.0002624127    1.193    0.162
       421 -11.2354    202.6870     90.3927   2.8998898171e+02   5.5438752937e+00   0.01739463   0.01064782 -34.98  0.001010601    1.798    0.444
       422 -10.8673    136.5162     90.9804   2.9075542220e+02   5.8948979847e+00  0.009939312  0.006329307 -61.24  0.001025765    1.570    0.363
       423 -10.2367     24.3324     90.6504   2.9204889397e+02   6.5023054884e+00  0.006919444  0.004845567  61.24  0.000704799    1.773    0.436
       424 -10.5400    231.4441     89.0083   2.8964962730e+02   5.4037274319e+00    0.0093716  0.008501298  15.15 0.0001806112    1.093    0.085
       425 -10.8365    111.1084     88.8420   2.9103617170e+02   6.0560057081e+00   0.01048482  0.008995386 -64.00 0.0003116472    1.194    0.163
       426 -10.1419     43.8309     88.8308   2.9181303453e+02   6.4181374323e+00  0.008699371  0.007395565  52.70 0.0003288934    1.281    0.220
       427 -10.4642      6.2128     89.3634   2.9225078378e+02   6.6139364284e+00  0.009239658  0.005637509  35.08 0.0004444649    1.626    0.385
       428 -10.4749     89.0319     87.8067   2.9128500812e+02   6.1865948506e+00   0.01125185  0.007121122 -16.59  0.001085215    1.999    0.500
       429 -10.8387     77.9011     87.8945   2.9141405404e+02   6.2455199353e+00   0.01487162  0.008746683 -38.07 0.0007745244    1.825    0.452
       430 -10.5276     80.5458     84.5007   2.9136373764e+02   6.2694882118e+00    0.0119371  0.009255696  18.83 0.0006044264    1.294    0.227
       431 -11.0727     77.5005     84.4122   2.9139839150e+02   6.2868731839e+00     0.011416  0.009223117  72.68  0.001306424    1.476    0.322
       432 -11.7934     63.3770     87.0515   2.9157688961e+02   6.3331340885e+00   0.01358176   0.01183502 -27.70 0.0003457373    1.148    0.129
       433 -12.3134     69.2623     84.5930   2.9149459377e+02   6.3291590757e+00   0.01598428   0.01449209 -58.45  0.001082529    1.114    0.102
       434 -10.1895     39.0566     88.5345   2.9186646723e+02   6.4471100582e+00   0.00937734   0.00632124  22.38 0.0003056714    1.485    0.326
       435 -10.7854    180.6390     86.3325   2.9021939243e+02   5.7088181066e+00   0.01069987  0.009279008  60.55 0.0005889202    1.284    0.221
       436 -11.0931    129.1433     86.5456   2.9081462724e+02   5.9845868879e+00   0.02065256  0.009446871  41.90  0.001798004    2.327    0.570
       437 -10.9829    123.0452     86.9956   2.9088762784e+02   6.0124204624e+00   0.01007294  0.009714378  -6.01 0.0008341993    1.014    0.014
       438 -10.9550     56.4944     86.5217   2.9165330482e+02   6.3760968238e+00   0.01236295  0.004933081 -50.10  0.001026335    2.371    0.578
       439 -11.4138     16.7546     85.2026   2.9210477465e+02   6.6042822195e+00   0.02443985   0.01134043 -42.62  0.001744425    2.286    0.563
       440 -11.0207     11.3258     86.0116   2.9217221339e+02   6.6242764533e+00   0.01307845   0.01029462 -32.79 0.0007615243    1.297    0.229
       441 -10.5464     27.6976     85.5156   2.9198014439e+02   6.5420645236e+00   0.01194488  0.006483532  18.21 0.0007242608    1.962    0.490
       442 -10.9006    170.0940     84.1416   2.9032818535e+02   5.7904753046e+00   0.01003541  0.008219081 -24.62 0.0002531531    1.264    0.209
       443 -11.5711    118.6506     83.7833   2.9091961293e+02   6.0722699464e+00   0.01178312   0.01076347  26.09 0.0007699614    1.097    0.088
       444  -9.5951      3.6985     84.7455   2.9225299837e+02   6.6794024413e+00  0.006484547  0.004751334 -22.67  0.000689548    1.504    0.335
       445 -12.4586    132.3978     82.1090   2.9075118441e+02   6.0169479305e+00   0.01659254   0.01291065  74.63   0.00107247    1.577    0.366
       446 -10.3539    193.9903     82.4727   2.9004293576e+02   5.6800072908e+00  0.009344131  0.006276118  25.31  0.000380045    1.474    0.322
       447 -10.9802     85.0345     82.4828   2.9130014104e+02   6.2680391463e+00   0.01004197  0.006205371  27.45  0.001025099    1.590    0.371
       448 -10.4178     24.1797     82.1143   2.9200100853e+02   6.5992308006e+00  0.009721093  0.008347661 -19.78 0.0005377188    1.187    0.158
       449 -11.4689     95.6023     79.8595   2.9116281699e+02   6.2406545008e+00   0.01554399   0.01083403 -28.53 0.0009230586    1.576    0.366
       450 -10.3968     46.6831     81.4186   2.9173693872e+02   6.4862628180e+00   0.01307178  0.005655314  31.13  0.001136903    2.196    0.545
       451 -10.5434    185.8127     79.5463   2.9012010526e+02   5.7571602676e+00   0.01340852  0.006180614 -41.53  0.001141208    2.364    0.577
       452 -10.7335    148.9621     79.9953   2.9054772053e+02   5.9513005861e+00   0.01030696  0.007691463  65.71 0.0006946294    1.647    0.393
       453 -10.4431    104.9668     84.4710   2.9108158351e+02   6.1383000841e+00   0.01013912  0.006287767  24.73  0.001034218    1.600    0.375
       454 -10.2079    107.7083     77.9566   2.9101194342e+02   6.1968354081e+00  0.008842916  0.008272252 -51.25 0.0003744875    1.069    0.064
       455 -10.8997     69.8868     78.0943   2.9144951953e+02   6.3989492450e+00   0.01421839   0.00903517  18.69   0.00102809    1.621    0.383
       456 -11.9912     51.1267     77.8896   2.9166505285e+02   6.5021133979e+00   0.02086761    0.0136221  13.18  0.001187253    1.642    0.391
       457 -11.4698     49.9794     74.5026   2.9165858353e+02   6.5464025766e+00   0.01570175   0.01051177  49.38 0.0008725273    1.680    0.405
       458 -11.0418      3.3533     77.8256   2.9221675831e+02   6.7591601083e+00   0.01234443   0.01010231  30.70  0.001158207    1.221    0.181
       459 -11.2245     63.0090     75.1304   2.9151170377e+02   6.4692993272e+00   0.01531406   0.01388005 -19.06  0.001908504    1.096    0.087
       460 -12.0913     57.4157     72.9362   2.9156354173e+02   6.5240670345e+00   0.03235662   0.01898988 -87.00  0.002891372    2.545    0.607
       461 -10.8566     53.1637     69.8746   2.9159483575e+02   6.5813797846e+00   0.01180145    0.0087891 -61.06 0.0002923248    1.348    0.258
       462 -11.0482    114.3722     74.2598   2.9091344526e+02   6.2025050718e+00   0.01502264   0.00977383 -27.21  0.001523292    1.773    0.436
       463 -10.7034     82.1116     75.2116   2.9129151792e+02   6.3656092787e+00  0.009591307  0.008344225 -22.71  0.000411802    1.160    0.138
       464 -10.4255     91.9695     74.5424   2.9117376654e+02   6.3200597446e+00  0.009192996  0.005376925 -10.90 0.0005755156    2.400    0.583
       465 -10.1587     68.9222     73.7404   2.9143529402e+02   6.4531408863e+00  0.008764939   0.00801909  23.05 0.0003588051    1.091    0.083
       466  -9.9706     29.3045     74.3409   2.9189655335e+02   6.6592419898e+00  0.006999632  0.004648293 -29.63 0.0007040549    1.680    0.405
       467 -11.6763    231.1868     72.6402   2.8955689327e+02   5.5891213667e+00   0.01126555   0.01048199 -39.51 0.0002791013    1.052    0.049
       468  -9.9661    232.9609     68.7304   2.8951359571e+02   5.6234494559e+00  0.008694089  0.008161258   9.19 0.0002625258    1.052    0.049
       469  -9.4000    122.2890     73.6620   2.9081856746e+02   6.1665315907e+00  0.006628806  0.004937457  64.18 0.0007021185    1.638    0.390
       470 -11.4248     34.9656     72.3139   2.9181933099e+02   6.6516735678e+00   0.01311276   0.01187136  83.48 0.0004612296    1.230    0.187
       471 -10.5217     39.5154     72.0000   2.9176492459e+02   6.6307786101e+00   0.01856527  0.007298773  19.21  0.001439436    2.911    0.656
       472 -11.6625     17.8439     72.2251   2.9201669725e+02   6.7445385465e+00   0.01378906   0.01090638  -7.37 0.0009655852    1.358    0.264
       473 -11.9287      2.5257     71.4533   2.9218926996e+02   6.8353291386e+00   0.02499695   0.01076795 -50.37   0.00107992    2.202    0.546
       474 -10.4259      6.3452     64.9326   2.9210718787e+02   6.8882636605e+00   0.01147134  0.008636036 -51.08  0.000535127    1.294    0.227
       475 -11.0442      6.1639     60.6916   2.9208460809e+02   6.9369687051e+00   0.01439795   0.01351641 -42.68  0.001658145    1.048    0.046
       476 -10.9724      2.4909     60.5322   2.9212614732e+02   6.9584424754e+00   0.01849316  0.008867242 -41.80  0.001630469    2.231    0.552
       477 -11.0756    166.7822     70.7406   2.9028811074e+02   5.9591098500e+00   0.01492986   0.00885121 -44.18   0.00149389    1.693    0.409
       478 -10.4959    200.0512     70.9481   2.8990573006e+02   5.7767938569e+00  0.009586995  0.008912436 -24.86            0    1.053    0.050
       479 -11.7844     87.9931     69.3657   2.9118950603e+02   6.3997291464e+00    0.0159674  0.008470432  43.58  0.001489926    2.040    0.510
       480 -11.3840     53.6321     82.4521   2.9166267476e+02   6.4372919181e+00   0.01121952   0.00977477 -62.91 0.0005357953    1.171    0.146
       481 -10.5900    201.6510     66.6429   2.8986212394e+02   5.8165355271e+00   0.01111899  0.009182803 -28.27 0.0007825851    1.237    0.191
       482  -9.5429    190.2840     67.2961   2.8999697324e+02   5.8707226925e+00  0.006658112  0.004716994 -28.22 0.0002098587    1.543    0.352
       483 -10.9436     92.9369     67.1944   2.9111974482e+02   6.3975338987e+00   0.01326206  0.009068094   9.78 0.0009233461    1.586    0.369
       484  -9.9411     69.5583     67.5498   2.9139186813e+02   6.5193886202e+00  0.006339413  0.006247533  -0.74 7.801341e-05    1.037    0.036
       485 -10.2510     75.2841     66.6733   2.9132061066e+02   6.4984438282e+00  0.006553903  0.004941444  63.91 0.0003431528    1.604    0.377
       486 -11.5540     29.2491     64.8384   2.9184187846e+02   6.7664971840e+00   0.01366296   0.01067846  40.35  0.001575444    1.320    0.243
       487 -10.6617     14.6974     65.1872   2.9201211508e+02   6.8406293819e+00   0.01585406  0.008526939   1.68   0.00134426    2.634    0.620
       488 -10.4284    141.9975     64.7946   2.9053933089e+02   6.1599079309e+00  0.008850909  0.005110493  24.10 0.0004593707    1.727    0.421
       489 -10.0219    102.1885     63.8428   2.9099334951e+02   6.3853936853e+00  0.009015145  0.007263009 -29.83 0.0005815581    1.273    0.214
       490 -10.6337     88.8100     63.0525   2.9114325390e+02   6.4663668376e+00   0.01467272  0.009075066 -76.07  0.001274326    1.942    0.485
       491 -10.1613    120.1857     63.0992   2.9078120170e+02   6.2967131195e+00  0.008916224   0.00757286  60.64 0.0007555755    1.323    0.244
       492 -10.0562    109.7391     63.5980   2.9090472881e+02   6.3474437785e+00  0.009427922  0.005655104  36.64  0.000943701    1.666    0.400
       493 -10.2298     75.2870     63.3101   2.9130096981e+02   6.5362727670e+00  0.006755524  0.004695303 -29.10 0.0002589098    1.576    0.365
       494  -9.7385     11.2709     62.5903   2.9203661514e+02   6.8882273531e+00  0.006768725  0.004890732  69.01 0.0006969647    1.768    0.434
       495 -11.3094     16.5655     59.5959   2.9195797826e+02   6.8935415176e+00   0.01568142   0.01155137  59.59  0.001711551    1.619    0.382
       496 -11.2556     12.8675     55.3804   2.9197619260e+02   6.9608110347e+00   0.01226915    0.0103679 -53.26 0.0004295708    1.166    0.143
       497 -11.6207     10.8517     50.3679   2.9197032169e+02   7.0280246499e+00   0.02207697  0.009954964 -67.71  0.001869883    2.491    0.599
       498 -10.7438    173.7876     58.8367   2.9013775523e+02   6.0550911525e+00  0.009728836  0.008238516 -28.62 0.0005326212    1.193    0.162
       499 -10.8663     38.7317     58.3077   2.9169424119e+02   6.7890879600e+00   0.01231075    0.0103768 -21.22  0.000608869    1.218    0.179
       500 -11.1230    106.6666     56.8409   2.9090077526e+02   6.4400260445e+00   0.02313562   0.01228279  26.38  0.002221768    1.850    0.459
       501 -11.1052     52.5142     55.8495   2.9152062214e+02   6.7427020669e+00   0.01839121  0.009387562 -54.42  0.001741854    1.861    0.463
       502 -11.8862     45.3391     55.6743   2.9160252890e+02   6.7832310623e+00   0.02180249   0.01294713  56.93  0.002047181    2.218    0.549
       503 -11.2827     41.4104     51.1647   2.9162166302e+02   6.8550784570e+00   0.01217923   0.01062027  61.15 0.0002703023    1.277    0.217
       504 -10.7102     37.8083     48.4653   2.9164757267e+02   6.9047965975e+00   0.01497558  0.009405637 -31.32  0.001199835    1.799    0.444
       505 -12.2894     93.5376     54.6286   2.9103950383e+02   6.5356742902e+00   0.01439736   0.01352876 -30.53 0.0006826954    1.036    0.035
       506 -11.2054     28.5539     54.3966   2.9178911183e+02   6.8877400312e+00   0.01517553   0.01284377  79.33  0.001545296    1.373    0.272
       507 -11.3234     19.0810     54.9927   2.9190209862e+02   6.9318544299e+00    0.0219061   0.01144665  65.89  0.001633974    3.709    0.730
       508 -10.0053    133.3517     55.1886   2.9058302242e+02   6.3146358826e+00  0.008585374  0.006182687 -74.52 0.0002739129    1.554    0.356
       509 -11.4269     75.2513     52.4250   2.9123790832e+02   6.6589380656e+00   0.02280484   0.01456396  76.90  0.001819907    2.336    0.572
       510 -10.4636      1.8915     48.1353   2.9206093795e+02   7.1011642420e+00   0.01181408  0.009071523 -42.91 0.0006203458    1.285    0.222
       511 -11.0032      2.1014     52.8973   2.9208622547e+02   7.0464543568e+00   0.01747352   0.01035056  61.13    0.0015949    2.392    0.582
       512 -11.1178      6.2470     51.6383   2.9203096174e+02   7.0384089698e+00   0.01310915  0.008928115  -0.60 0.0008266323    1.704    0.413
       513  -9.5294    191.4829     53.5301   2.8990267383e+02   6.0189957110e+00  0.006498898  0.006152291 -20.45 5.028471e-06    1.027    0.027
       514 -10.7865    120.0306     51.9349   2.9071781420e+02   6.4231301675e+00  0.009570817  0.009101463 -18.24 0.0004064282    1.020    0.020
       515 -10.8590     32.3904     51.3227   2.9172685429e+02   6.9017358135e+00   0.01581512  0.009491937  67.68  0.001365679    2.555    0.609
       516 -11.7585    149.9180     50.4175   2.9036394300e+02   6.2788083508e+00   0.01586269   0.01145528  -4.65 0.0009577119    1.573    0.364
       517 -11.2781     62.7898     48.9468   2.9136162607e+02   6.7651176138e+00   0.01694468  0.009037763 -60.39  0.001624938    1.846    0.458
       518 -12.3470     61.7858     44.5437   2.9134755317e+02   6.8200521761e+00   0.01939598   0.01168505 -59.03 0.0002863562    1.629    0.386
       519 -10.5333    175.4730     49.4569   2.9006348760e+02   6.1514297664e+00  0.006461658  0.006171725 -18.18  8.06525e-05    1.014    0.014
       520 -10.2669    100.7593     49.0611   2.9092359491e+02   6.5593841402e+00  0.009245166  0.008042908 -53.56   0.00111905    1.138    0.121
       521 -11.3513     21.9124     38.2620   2.9177191536e+02   7.1049133020e+00   0.01677936   0.01141463  38.15  0.001449526    1.493    0.330
       522 -10.9338     20.3918     44.2431   2.9182434175e+02   7.0457808094e+00   0.01683736   0.01178103 -81.08 0.0009852578    1.717    0.418
       523 -10.4626     17.3669     48.8383   2.9188608107e+02   7.0103022666e+00   0.01916172  0.009005634  23.38  0.001712106    2.151    0.535
       524 -11.2997     16.5102     45.9470   2.9187914901e+02   7.0474290716e+00   0.02256152   0.01080931  25.83  0.002058778    2.053    0.513
       525 -10.5706     55.7185     46.0182   2.9142627801e+02   6.8360903399e+00   0.01222011  0.008403162  50.31 0.0009006698    1.641    0.391
       526 -10.2248    138.1114     45.1470   2.9046941996e+02   6.4018573444e+00  0.008536676   0.00752457  60.51 0.0002554698    1.255    0.203
       527  -9.9794     67.6386     45.7100   2.9128671218e+02   6.7754467056e+00  0.006951129  0.004726549 -23.27  0.000702641    1.694    0.410
       528 -10.7883     35.6745     31.0941   2.9157099391e+02   7.1116730320e+00   0.01755422   0.01146523  -8.63 0.0009122508    1.892    0.472
       529 -10.1233     34.9903     44.9745   2.9165981055e+02   6.9592029676e+00  0.009200321  0.007402114  62.61  0.001049749    1.443    0.307
       530 -11.4628     37.7317     40.6815   2.9160309672e+02   6.9927791937e+00   0.01939906   0.01278385 -24.27  0.001982522    1.773    0.436
       531 -11.4851     40.1817     36.1514   2.9154836290e+02   7.0305801828e+00   0.02286592   0.01186322  41.31  0.002140376    2.017    0.504
       532 -10.8256     26.1115     44.4300   2.9175929485e+02   7.0129900748e+00   0.01110428  0.009195708 -57.01 0.0005399281    1.200    0.167
       533  -9.8302    180.5054     44.4413   2.8997611698e+02   6.1805791198e+00  0.006405909  0.006214491  -7.26  0.000232099    1.014    0.014
       534 -10.1083    150.7164     43.7204   2.9031559182e+02   6.3497932663e+00  0.006557249  0.004731609 -26.79  0.000692616    1.513    0.339
       535  -9.8231     80.4681     43.5620   2.9112592503e+02   6.7305555026e+00   0.00643118  0.006169586 -14.60 0.0001638058    1.008    0.008
       536 -10.6111    104.6170     42.2141   2.9083906346e+02   6.6155959560e+00  0.009493122  0.005532856 -49.68 0.0004296977    1.661    0.398
       537 -10.9766    166.9932     41.2689   2.9011343810e+02   6.2893471165e+00  0.008811407  0.008234943   6.78 0.0003138759    1.055    0.052
       538 -10.2116     87.0191     40.9464   2.9103496532e+02   6.7246946281e+00  0.007948019   0.00730392 -51.53  0.000984367    1.083    0.076
       539  -9.9242    175.2931     39.3239   2.9000631289e+02   6.2663057023e+00   0.00685488  0.004684045 -29.35  0.000299137    1.616    0.381
       540 -11.2306    157.0032     38.9003   2.9021486328e+02   6.3699978436e+00   0.01099904   0.01018724  54.48  0.000335536    1.159    0.137
       541 -10.6575    153.0624     38.2551   2.9025657036e+02   6.3985557717e+00  0.009978608  0.008348725 -25.66 0.0003275825    1.222    0.182
       542 -11.3705      3.7564     35.8571   2.9196788652e+02   7.2293161127e+00   0.02826569   0.01333817 -76.27  0.002234802    3.077    0.675
       543 -10.3002    204.5039     38.4887   2.8966457514e+02   6.1175221748e+00  0.006479634  0.006182608 -19.64 -1.047594e-05    1.016    0.016
       544 -10.0030    137.1005     37.8377   2.9043837952e+02   6.4895009699e+00  0.009033094   0.00728359 -27.27 0.0004536345    1.282    0.220
       545 -10.3336    193.4615     37.1535   2.8978407585e+02   6.1923425749e+00  0.009558017  0.006289258 -60.27 0.0007804196    1.512    0.339
       546 -10.2271     13.1218     36.9584   2.9186598088e+02   7.1667262736e+00   0.01079816  0.007080923 -30.47  0.001102742    1.699    0.411
       547 -10.2226    129.4406     36.4865   2.9051892335e+02   6.5460597537e+00  0.006439001  0.006177946 -23.09 0.0001306534    1.009    0.009
       548 -12.0157    106.6267     32.5117   2.9075918756e+02   6.7138641722e+00   0.01876977    0.0122823 -71.06  0.001950838    1.687    0.407
       549 -11.4005     55.5430     34.4454   2.9136081747e+02   6.9672142882e+00   0.01477049   0.01136987  21.00 0.0008760224    1.296    0.228
       550 -11.9373     77.2516     32.6134   2.9109920053e+02   6.8710143648e+00   0.02910202   0.01439356  25.05  0.002694481    2.004    0.501
       551 -11.3582     76.0664     27.0606   2.9108048643e+02   6.9398395690e+00    0.0110044    0.0090524 -58.95 0.0003699947    1.217    0.178
       552 -12.0653     70.7967     29.0651   2.9115309792e+02   6.9456664635e+00   0.02700311   0.01407272 -59.81  0.001788088    1.878    0.467
       553 -11.6083     66.1109     24.1793   2.9117874753e+02   7.0258242214e+00   0.01558123   0.01012711  26.81  0.001045066    1.516    0.340
       554 -11.3231     61.0601     33.7006   2.9129269488e+02   6.9459215755e+00   0.01071612  0.009233664 -88.67  0.001139896    1.311    0.237
       555 -11.2432    111.2335     37.2977   2.9073392793e+02   6.6352002637e+00   0.01084522   0.01038852  41.06 0.0003109717    1.090    0.083
       556 -10.9836    134.9577     32.5842   2.9043241582e+02   6.5601365030e+00   0.01179435  0.009321081 -59.36 0.0003663343    1.265    0.210
       557 -10.0742    117.7686     33.5439   2.9063652101e+02   6.6421501419e+00  0.008761288  0.005889249  36.76 0.0004001677    1.496    0.331
       558 -10.7962     24.4164     31.0499   2.9170093042e+02   7.1726068269e+00  0.009871961  0.008355667  21.52 0.0003208282    1.173    0.148
       559 -10.6763     18.0354     31.1559   2.9177534730e+02   7.2056489965e+00   0.01124521  0.007068227 -17.39  0.001080713    2.015    0.504
       560 -10.1818     63.3044     30.3884   2.9124742633e+02   6.9710996967e+00  0.009509647  0.005653728  35.68 0.0009022387    1.670    0.401
       561  -9.6644    174.6916     29.2644   2.8995441448e+02   6.3826169342e+00  0.006446842  0.004835604  55.63 0.0006936896    1.532    0.347
       562 -10.4944    123.2182     28.8633   2.9054623265e+02   6.6653589134e+00   0.00940186  0.008798092  71.60 0.0005890256    1.169    0.145
       563 -11.5594    187.3980     27.0129   2.8979467089e+02   6.3391262035e+00   0.01181203   0.00936437  23.90 0.0004360888    1.252    0.201
       564 -10.1895    159.2158     26.2397   2.9011529643e+02   6.5003364698e+00  0.008372484  0.007357281  70.21 0.0003533864    1.286    0.222
       565  -9.9692    153.4768     26.5098   2.9018311396e+02   6.5283357082e+00  0.006653573  0.005997463 -24.74 7.385984e-06    1.100    0.091
       566 -10.6246    100.7203     25.9616   2.9078916420e+02   6.8193620556e+00  0.009273355  0.008644494 -48.33 0.0008878746    1.065    0.061
       567 -10.4967     50.2244     23.8026   2.9136022371e+02   7.1155022475e+00  0.009587638  0.008795254  65.92  0.000880047    1.199    0.166
       568 -11.8656     38.0339     21.2266   2.9148616803e+02   7.2099769993e+00   0.01578036   0.01394172 -19.03 0.0002003756    1.138    0.121
       569 -10.3145    200.4790    248.9891   2.9093866891e+02   3.7710653559e+00  0.009388687  0.006333778 -61.19  0.000364668    1.484    0.326
       570 -10.3864    189.5126    242.4948   2.9102709005e+02   3.9033103484e+00   0.01542952   0.00489897 -54.26  0.001179529    2.802    0.643
       571 -11.1895    109.7531     22.9686   2.9066731946e+02   6.8042933015e+00   0.01108933  0.009243192   6.88 0.0003439714    1.224    0.183
       572 -10.8834     18.1826     22.9962   2.9172608986e+02   7.2966338673e+00   0.01160722  0.009148006  23.75 0.0008624911    1.259    0.206
       573 -10.0423     14.1590     23.6395   2.9177638193e+02   7.3109798780e+00  0.008990266  0.006021204   6.06 0.0009222034    1.678    0.404
       574 -10.5278    220.9813     22.4745   2.8938092090e+02   6.2080998814e+00  0.009298488  0.004717575  47.85 0.0003924159    2.341    0.573
       575 -11.0471     55.1310     21.7914   2.9129175487e+02   7.1117382056e+00   0.01090898   0.01001637 -35.47  0.000309804    1.064    0.060
       576 -11.6405    197.2464    234.9517   2.9089424644e+02   3.9465048902e+00   0.02055606   0.01194521 -38.61 0.0005682947    1.842    0.457
       577  -9.9302    180.7319     19.6379   2.8982840609e+02   6.4580830786e+00  0.006932987  0.004582057 -32.95 0.0006993254    1.648    0.393
       578 -10.1591    162.0405     19.4830   2.9004317363e+02   6.5609856476e+00  0.008752569  0.005329688 -13.61 0.0008009533    2.193    0.544
       579 -11.1592    101.7020     18.2748   2.9073291402e+02   6.9004832419e+00   0.01132159   0.01091111  38.98 0.0005946486    1.081    0.075
       580  -9.7562    139.9987     17.9840   2.9028885411e+02   6.6970103070e+00  0.007677486  0.007335314 -36.95 0.0003254545    1.030    0.029
       581 -11.3058    131.1767     16.9780   2.9038484513e+02   6.7559790155e+00   0.01138908  0.009327376   8.40 0.0003406502    1.249    0.199
       582 -11.0169    179.0518    248.7063   2.9118356029e+02   3.8897888728e+00  0.009842983  0.009029044 -34.76 0.0003684251    1.066    0.062
       583 -11.8329    181.0146    244.3997   2.9113594998e+02   3.9276884653e+00   0.01795555    0.0105371 -48.40 0.0005060645    1.660    0.397
       584 -10.4428    112.4708     15.0057   2.9058938641e+02   6.8791378646e+00  0.009644832  0.006329862 -61.44 0.0004640846    1.528    0.346
       585 -10.0190     92.6215     14.8390   2.9081777349e+02   6.9880624139e+00  0.008779361  0.006243278 -79.26 0.0004050764    1.651    0.394
       586 -10.7952     65.2659     15.1499   2.9113580870e+02   7.1318950910e+00   0.01738473  0.006689987  40.81  0.001053775    2.732    0.634
       587 -12.2340    186.4082    238.9565   2.9104224628e+02   3.9598828141e+00   0.02359772   0.01542468 -17.91  0.001167202    1.871    0.465
       588 -10.3446    116.6149     14.2075   2.9053684529e+02   6.8657431380e+00  0.009581747  0.005581731 -50.43 0.0008212341    1.657    0.397
       589 -11.3623    177.8404     12.9949   2.8982288803e+02   6.5483673448e+00   0.01433296   0.00865993  34.08 0.0007858057    1.631    0.387
       590  -9.8675     86.4804     13.5859   2.9088143023e+02   7.0352425646e+00  0.006476502  0.006084006 -15.36 9.369953e-05    1.040    0.038
       591 -12.2673    191.1163    235.3290   2.9096697950e+02   3.9753258515e+00   0.01583219   0.01457927 -35.95  0.001381216    1.061    0.057
       592 -10.4487    151.2451    241.3320   2.9146078746e+02   4.1226610445e+00   0.01080591  0.008804958  10.41 0.0007388876    1.251    0.200
       593 -11.4645    149.9977    247.4555   2.9151070203e+02   4.0604264383e+00   0.01760295   0.01322799 -61.12  0.001447603    1.337    0.252
       594 -11.0217    243.4841     12.4956   2.8906321863e+02   6.1980319918e+00  0.006473503  0.006181049 -19.90 -9.558481e-05    1.015    0.015
       595 -10.1658    127.9037     11.7558   2.9039211147e+02   6.8323448435e+00  0.008154371  0.005476627  19.38 0.0005958666    1.515    0.340
       596  -9.8406      2.5536     10.4747   2.9183392143e+02   7.5212348935e+00  0.006392688  0.006211652 -18.64 0.0001022139    1.014    0.014
       597 -12.4126    147.0136    241.5693   2.9151088264e+02   4.1427819729e+00   0.01825074   0.01073102 -53.77 0.0001146576    1.635    0.388
       598 -12.2684    136.6395    243.3328   2.9164056668e+02   4.1787874014e+00   0.01668472     0.012576 -69.30  0.001263039    1.407    0.289
       599 -11.3327    138.1903    249.0986   2.9165617176e+02   4.1055052940e+00   0.01362345   0.01194525   8.35 0.0003245339    1.142    0.125
       600 -11.6166    141.7554    247.2839   2.9160459464e+02   4.1067461466e+00   0.01288479   0.01057597 -28.93 0.0007955433    1.244    0.196
       601 -11.4653    141.9978    242.9586   2.9157669887e+02   4.1541496905e+00   0.01368346   0.01074856 -73.74  0.000834326    1.385    0.278
       602 -10.3756    169.5904    248.2152   2.9128959194e+02   3.9463132142e+00  0.009619503  0.005531915 -48.99 0.0009445379    1.688    0.408
       603 -12.9115    203.0759    241.0566   2.9086267495e+02   3.8463402491e+00   0.01575533    0.0132973 -71.45 0.0007190965    1.258    0.205
       604 -10.9440    172.3221    240.4598   2.9121309682e+02   4.0189051712e+00    0.0206088   0.01222591 -88.05   0.00156228    2.526    0.604
       605 -10.7566    168.5228    238.9844   2.9124825507e+02   4.0559956842e+00   0.01232784  0.009601379  74.72 0.0008557711    1.574    0.365
       606 -11.1221    128.3684    242.8813   2.9173318682e+02   4.2283981988e+00   0.01338916  0.009567684 -42.67 0.0006666674    1.394    0.282
       607 -12.7267    131.2118    236.4981   2.9166339820e+02   4.2849834962e+00   0.02696161   0.01598138 -28.50  0.002569045    2.045    0.511
       608 -11.2139    161.3616    241.0872   2.9134290341e+02   4.0709131559e+00     0.014882   0.01035134  75.96  0.001219606    1.940    0.485
       609 -10.9648    217.7442    240.4805   2.9069059373e+02   3.7736744490e+00   0.01249582   0.01056772 -18.87  0.001140449    1.218    0.179
       610  -9.9859    193.5141    248.5125   2.9101602643e+02   3.8139938233e+00  0.006397733  0.006261651  41.81 0.0001504525    1.072    0.067
       611 -10.2601    237.7022    238.0908   2.9044717602e+02   3.6928268298e+00  0.008930686  0.008032274 -53.78  0.000415598    1.107    0.096
       612 -10.7935    144.0361    237.5335   2.9152173321e+02   4.2042673498e+00  0.009965701  0.008515154 -56.48 0.0008211514    1.165    0.142
       613 -12.0488    161.0718    232.4229   2.9129590624e+02   4.1700343861e+00   0.02035537   0.01268751 -76.50 0.0005205173    1.931    0.482
       614 -12.3444    219.0394    233.3856   2.9063442115e+02   3.8465277380e+00   0.02088052   0.01407972 -30.09 0.0005996025    1.638    0.390
       615 -11.6267    177.2107    233.0271   2.9111363432e+02   4.0762318767e+00   0.02454338   0.01382445  25.19  0.001809296    1.758    0.431
