#   1 NUMBER                 Running object number                                     
#   2 MAG_AUTO               Kron-like elliptical aperture magnitude                    [mag]
#   3 X_IMAGE                Object position along x                                    [pixel]
#   4 Y_IMAGE                Object position along y                                    [pixel]
#   5 X_WORLD                Barycenter position along world x axis                     [deg]
#   6 Y_WORLD                Barycenter position along world y axis                     [deg]
#   7 A_WORLD                Profile RMS along major axis (world units)                 [deg]
#   8 B_WORLD                Profile RMS along minor axis (world units)                 [deg]
#   9 THETA_WORLD            Position angle (CCW/world-x)                               [deg]
#  10 FWHM_WORLD             FWHM assuming a gaussian core                              [deg]
#  11 ELONGATION             A_IMAGE/B_IMAGE                                           
#  12 ELLIPTICITY            1 - B_IMAGE/A_IMAGE                                       
         1 -12.3680     10.8936     49.9683   9.9867129886e+01   6.5561478306e+01     1.466107    0.7239009 -50.23  0.007957835    1.593    0.372
         2 -13.2697     37.1600     50.1722   8.7691938522e+01   6.3186927300e+01    0.8915574    0.6909043   3.25  0.005488137    1.238    0.192
         3 -12.2272      8.8550      8.8095   8.5096078490e+01   7.2958420894e+01    0.4725367    0.2475222  26.65  0.002509633    1.955    0.489
         4 -11.9415     13.3756      3.6501   7.9732525542e+01   7.3236765611e+01    0.4955843    0.4403375 -49.31  0.003620854    2.018    0.504
         5 -10.0718     15.0503     13.8799   8.3949068416e+01   7.1637064714e+01    0.1984565    0.1474338 -13.96 0.0007195882    1.024    0.023
         6 -10.4461     10.5142     24.1219   9.1056305220e+01   7.0408464703e+01     2.448781    0.7782556   7.31  0.005763599   12.144    0.918
         7 -11.4306     20.1375     16.3878   8.2312737344e+01   7.0751372977e+01     0.541011    0.3153942 -10.33   0.00316437    1.685    0.406
         8 -11.0243     26.2780      2.5929   7.1967435034e+01   7.1851202694e+01    0.2527872    0.1749019  34.41 0.0009070061    1.551    0.355
         9 -12.0164      4.0400     17.5721   9.2016331713e+01   7.1983886168e+01    0.4324871    0.4069248 -25.56  0.002419148    1.499    0.333
        10 -10.5056     24.0314      8.0276   7.6049696753e+01   7.1469087156e+01    0.1822863    0.1457236  12.22 0.0003664089    1.219    0.179
        11 -11.4242     21.0601      4.0613   7.5566726903e+01   7.2326743993e+01    0.4531102    0.1988255 -32.18   0.00244638    2.113    0.527
        12 -11.2658      9.8445     15.7334   8.7806224230e+01   7.1827532925e+01    0.2676378    0.1611674 -19.06 0.0007688777    1.401    0.286
        13 -11.5071    108.1725     17.8039   4.9911961859e+01   5.5075373154e+01     0.347006    0.2351068  27.76  0.001870793    1.566    0.361
        14 -12.2606    129.2551     19.2520   4.5984239190e+01   5.0007146025e+01    0.2970501    0.2510955  47.56 0.0005108761    1.103    0.093
        15 -11.6755    238.1352     18.0734   3.2434928115e+01   2.4939379502e+01    0.2387606    0.1859582 -52.60 0.0002763222    1.175    0.149
        16 -11.4313    233.8459     12.4834   3.1618854230e+01   2.6459908239e+01    0.3888952    0.1495771 -32.41  0.001851895    2.661    0.624
        17 -10.3080     43.6045      8.5222   6.6747241186e+01   6.8693466307e+01    0.3137461    0.2284768 -23.84  0.001048391    1.415    0.293
        18 -11.0918     48.7348     16.0036   6.8180348541e+01   6.7010744799e+01    0.4699866    0.2997114  22.26  0.002147015    1.422    0.297
        19 -12.0390     40.9522     16.6720   7.1957765012e+01   6.8105472212e+01     0.485278    0.4509996 -40.42  0.002653963    1.629    0.386
        20 -10.2486     39.6980     11.0086   6.9761418652e+01   6.8996504706e+01    0.2141544    0.1926172  -7.57 0.0006497748    1.354    0.262
        21 -10.2390     62.1294     15.6136   6.2645534876e+01   6.4792275437e+01    0.2964942    0.2136302   8.30  0.001795094    1.312    0.238
        22 -10.7213    157.1173     11.6353   3.9129174150e+01   4.4047458396e+01    0.3007566    0.1883491 -60.08  0.000972211    1.773    0.436
        23 -11.3511     76.8852     11.0766   5.5595478008e+01   6.2458938899e+01    0.6496045    0.2793216  51.00  0.002828698    2.010    0.502
        24 -12.3026    128.8320     11.6122   4.3528170977e+01   5.0847901416e+01    0.3898178    0.2764489  80.65  0.002173217    1.450    0.310
        25 -10.3456    117.8885     11.4988   4.5549289380e+01   5.3437535812e+01    0.4822666    0.2329406 -16.47  0.002212299    2.570    0.611
        26 -10.7216    100.1452     12.1517   4.9678465368e+01   5.7426866301e+01    0.2314476    0.1785857  11.34 0.0008397928    1.385    0.278
        27  -9.8818    138.7892     11.7928   4.1895968932e+01   4.8450396466e+01    0.1845271    0.1445462 -69.19  0.001075924    1.412    0.292
        28 -11.5999    164.1555      8.1033   3.7227921106e+01   4.2690222515e+01    0.3873052    0.3031536   5.07  0.001509649    1.721    0.419
        29 -11.5316    146.0642      7.2646   3.9392745228e+01   4.7112024828e+01    0.5166396    0.3641738  41.76  0.002326219    1.502    0.334
        30 -10.6794    148.4853      1.9071   3.7465297358e+01   4.6989228312e+01    0.4140286    0.1965988  85.62  0.001829692    2.391    0.582
        31 -12.6353    213.8174      5.8332   3.1751778554e+01   3.1445938618e+01    0.7951295    0.4185031 -75.13  0.004228713    1.865    0.464
        32 -11.1668    191.2896      6.8272   3.3949493652e+01   3.6416780929e+01    0.4097302    0.3181965 -85.84  0.002185781    1.097    0.088
        33 -11.4044    194.7298      2.2582   3.2543890875e+01   3.6071008130e+01    0.3670096     0.208148  89.34   0.00159591    1.619    0.382
        34 -10.6672     91.4231      6.8554   4.9742532957e+01   5.9809832214e+01     0.418644    0.1889659  36.94  0.001928524    2.178    0.541
        35 -10.7708    230.9033      6.4078   3.0592610448e+01   2.7734359942e+01     0.192033    0.1279387 -57.04 0.0004489886    1.253    0.202
        36 -12.4193    179.1989      4.4327   3.4561638247e+01   3.9462611090e+01    0.3426011    0.2338429 -80.86 0.0003708996    1.372    0.271
        37  -9.4541    156.4706      6.4867   3.7744722844e+01   4.4681030532e+01    0.1287299    0.1102314  76.22 0.0001894744    1.012    0.012
        38 -10.3752     81.5206      5.3789   5.1768521631e+01   6.2032306150e+01    0.2296926    0.2012199 -60.12  0.001496164    1.557    0.358
        39 -10.0266    246.2811      8.3516   2.9937727400e+01   2.4398466404e+01   0.09676547    0.0889729  40.21  0.000701425    1.652    0.395
        40  -9.8378     74.3403      2.6179   5.2637067613e+01   6.3729256143e+01    0.2609379    0.1763739 -48.32  0.001332483    2.171    0.539
        41 -11.9686     67.8311      3.7042   5.5158125240e+01   6.4919083104e+01    0.2193026    0.1727828  31.61 0.0003199193    1.030    0.029
        42 -10.6783    243.0449      2.7904   2.9071502497e+01   2.5642566963e+01    0.1879316     0.137198 -54.14 0.0004612261    1.186    0.157
        43 -10.6198    169.7227      2.4688   3.5061854587e+01   4.1876997968e+01    0.2405805    0.1603384 -67.15 0.0006436984    1.515    0.340
        44 -10.2414    126.3715      2.7761   4.1023745719e+01   5.2184394960e+01    0.2349682    0.1566077  34.49 0.0005967329    1.605    0.377
        45 -10.6438    230.7514      1.6546   2.9639794379e+01   2.8264310413e+01    0.1809969    0.1305335  75.87 0.0001035798    1.354    0.261
        46 -10.9639    108.1153      1.6203   4.3952534175e+01   5.6515821455e+01    0.2062068    0.1454276  53.82 0.0005163507    1.175    0.149
        47  -9.5386     33.2085      1.8101   6.8051673048e+01   7.0986943145e+01    0.1858519    0.1637127  36.18  0.001343797    1.574    0.365
        48 -11.9440     98.1384      4.8584   4.7323572610e+01   5.8506390593e+01    0.3076242    0.2590145  11.63  0.001089263    1.244    0.196
        49  -9.1325     82.3121      1.2932   4.9803970844e+01   6.2201159960e+01    0.1312764   0.07595262  33.19  0.000352211    1.592    0.372
        50  -9.9255     58.9619    182.2953   1.0837560193e+02   2.9024673057e+01    0.1918602    0.1733677  62.42 0.0007310543    1.090    0.083
        51 -10.6080    250.1086    246.8723   7.6971745772e+01  -1.1988799998e+01    0.1846328    0.1338978  -1.66  0.001063775    1.013    0.013
        52 -12.4151    226.1953    245.7425   8.1031253686e+01  -8.9286180233e+00    0.7013726    0.3552288  -1.82  0.003226597    2.889    0.654
        53 -12.3187    232.6052    245.2548   7.9788005734e+01  -9.6753939183e+00    0.5840986    0.2023718 -31.08  0.002642775    2.980    0.664
        54 -10.0661     72.5812    250.1371   1.1244168267e+02   1.2388800188e+01    0.1934603    0.1634582   4.91  0.001264878    1.687    0.407
        55 -13.1623     18.9873    237.3399   1.2193452573e+02   2.1270540021e+01     1.251695    0.3811607  55.74  0.005659545    2.843    0.648
        56 -13.3928      5.7106    245.1075   1.2475117864e+02   2.1061872762e+01    0.9372973    0.5099676  38.97  0.004582129    1.708    0.414
        57 -12.7791     22.2718    249.0009   1.2197352440e+02   1.8632104587e+01    0.8039844    0.2462689  34.47   0.00382898    2.907    0.656
        58 -11.0501     17.4838    247.4818   1.2276077578e+02   1.9426581103e+01    0.1996281    0.1573266 -84.13 0.0005318758    1.313    0.239
        59  -9.4413      1.5516    180.5218   1.2202196937e+02   3.5308155743e+01    0.1225719   0.09579379  87.49 0.0001394896    1.010    0.010
        60  -9.8055    244.3784    178.4017   6.5567146355e+01  -1.3240835194e+00    0.2551806   0.09811039 -27.88  0.000946085    3.114    0.679
        61 -10.7658     46.5175    177.7975   1.1096986010e+02   3.1649500080e+01    0.3187194    0.2426106 -79.36  0.001187885    1.183    0.155
        62  -9.7321     69.7193    178.1941   1.0508647734e+02   2.8596715174e+01    0.1857319    0.1562605 -42.33 0.0005350341    1.358    0.264
        63  -9.3857    200.6779    176.3267   7.3247240987e+01   6.1866270402e+00    0.1346823    0.1163774 -83.10 0.0006949126    1.687    0.407
        64 -11.1487     34.2264    174.1090   1.1365659198e+02   3.3909801392e+01    0.2525126    0.1970429 -67.05  0.000394849    1.208    0.172
        65 -10.8173     18.2061    173.1729   1.1753566870e+02   3.5680213367e+01    0.3556082    0.1943587  64.14  0.001816556    1.851    0.460
        66 -12.2339     36.3373    165.9578   1.1220714099e+02   3.5708887106e+01    0.9525616     0.461663 -85.70  0.004088921    2.261    0.558
        67 -11.3203     39.7835    162.2928   1.1085465198e+02   3.6262105842e+01    0.6200334    0.3135029  89.40  0.002599634    2.385    0.581
        68 -12.2454     50.1741    161.7171   1.0797606642e+02   3.5234686514e+01    0.5329823    0.3810678  67.23 0.0006328167    1.464    0.317
        69 -11.4458     44.8797    163.3109   1.0961807918e+02   3.5444624091e+01    0.3934351    0.2589913 -88.12  0.001513799    1.518    0.341
        70  -9.5197     74.4935    171.4659   1.0285163219e+02   2.9590488669e+01    0.1424515    0.1337574 -84.99 4.395313e-05    1.035    0.034
        71  -9.9367     99.1466    164.9138   9.5151425922e+01   2.7383741782e+01    0.2244229    0.1952395  78.68  0.000353368    1.211    0.174
        72 -10.5695     10.2059    162.8269   1.1859506524e+02   3.8862830594e+01    0.3056711     0.151677  37.97 0.0009051379    2.085    0.520
        73  -9.0209    200.3269    162.6609   7.0447536763e+01   8.8604920739e+00    0.1416536    0.1173604 -78.65 0.0007051599    1.730    0.422
        74 -12.5641     22.1999    156.9854   1.1492879751e+02   3.9308378269e+01    0.5970846    0.5113067   9.55  0.003766906    1.490    0.329
        75  -9.6133    157.5182    154.9806   7.8137954468e+01   1.8781671396e+01    0.2303719    0.1298192 -25.22 0.0008104077    2.630    0.620
        76 -10.1699     11.2852    153.7422   1.1747999278e+02   4.1007195779e+01    0.2257385    0.1841012  -0.90  0.001420478    1.637    0.389
        77  -9.9277    177.3703    150.8750   7.2673699620e+01   1.5674857503e+01    0.2841269    0.2114089  69.21  0.001281507    1.871    0.466
        78  -9.3410    216.3906    155.2061   6.5741702276e+01   7.3333768092e+00     0.192844    0.1233196 -46.56  0.000344313    1.559    0.359
        79  -9.6033      5.6656    149.9982   1.1860405569e+02   4.2336992979e+01      0.17214    0.1286233 -80.80 0.0003192512    1.079    0.074
        80 -10.8114     33.1201    148.1358   1.1088245589e+02   4.0523629282e+01     0.212865    0.1838578 -72.81 0.0003127893    1.037    0.036
        81 -10.2362     17.6440    146.9400   1.1506218642e+02   4.2199621541e+01    0.2836398    0.1738076 -33.21  0.001427502    2.110    0.526
        82 -10.2413    207.0628    146.4968   6.5589723118e+01   1.0709078241e+01    0.2051893    0.1450515  43.24  0.000653373    1.535    0.349
        83  -9.5485     41.1661    146.1959   1.0831778835e+02   4.0196889593e+01    0.1838144    0.1468759  73.31 0.0003252645    1.286    0.222
        84 -10.2643     10.4946    144.4699   1.1676336442e+02   4.3359767991e+01    0.2315371    0.1418239 -47.42 0.0007173611    1.694    0.410
        85  -9.5293    220.4584    143.9565   6.2558387472e+01   8.6709505557e+00    0.2158084    0.1262384 -39.42 0.0006852718    1.525    0.344
        86  -9.6664     82.4123    139.8023   9.5040561666e+01   3.6413178114e+01    0.2166072    0.1317854 -48.05 0.0008221053    1.596    0.373
        87  -9.6016     57.3202    139.3211   1.0245819994e+02   4.0084738245e+01    0.1493395    0.1034325 -34.83 0.0007044195    1.670    0.401
        88 -10.6663      2.7787    137.3643   1.1817347579e+02   4.5632762495e+01    0.2895058    0.1330211 -73.32  0.001078289    1.722    0.419
        89 -10.3068      9.3320    136.8835   1.1627844423e+02   4.5324695661e+01    0.1889129    0.1314212 -71.85 0.0004433333    1.165    0.142
        90 -10.0506     32.1168    135.6216   1.0945048734e+02   4.3799198353e+01    0.2286194    0.1639411 -80.68 0.0006140087    1.298    0.230
        91  -9.9875    123.0017    135.4683   8.2452580996e+01   3.0226977073e+01    0.2369475     0.156032  41.31 0.0004773849    1.545    0.353
        92  -9.8457     20.6788    135.2142   1.1279466316e+02   4.4898870697e+01    0.2000137   0.09556025 -62.81 0.0009378956    1.694    0.410
        93 -10.0659    249.3178    133.9826   5.5707952899e+01   5.3341831209e+00    0.1965617      0.14651 -35.65 0.0008139946    1.117    0.105
        94 -10.0975    127.9810    132.6948   8.0442264406e+01   2.9887130831e+01    0.2143004    0.2063577  43.43 0.0004143573    1.061    0.057
        95 -10.3328    111.5313    132.0501   8.4839324344e+01   3.3277218452e+01    0.3732509    0.1555445 -57.00  0.001218613    2.716    0.632
        96 -10.9640     55.2094    132.7543   1.0193260840e+02   4.2029730099e+01    0.3480781    0.2019745  46.48  0.001246677    1.920    0.479
        97 -11.3461     74.0853    129.5292   9.5446713485e+01   4.0289819681e+01    0.3624017    0.3045345 -62.16  0.001124158    1.126    0.112
        98 -11.6840     37.0597    129.2260   1.0696235760e+02   4.4948478794e+01    0.5906094    0.3078378 -45.39  0.002691634    1.912    0.477
        99 -10.5047     24.2314    126.0067   1.1045892773e+02   4.6928738453e+01    0.1942729     0.188287 -70.44 0.0004129836    1.149    0.130
       100 -11.4915     21.7712    121.1866   1.1052181329e+02   4.8337357473e+01    0.6716078     0.252356 -38.90            0    3.382    0.704
       101 -11.0811     10.7932    123.0036   1.1420281247e+02   4.8675017312e+01     0.280913     0.216565 -81.61  0.001316786    1.153    0.133
       102 -10.5425      2.8455    122.8956   1.1660757546e+02   4.9188881834e+01    0.2174083    0.1351908 -61.44 0.0004138988    1.303    0.233
       103  -9.8012      1.3867    119.0226   1.1660261419e+02   5.0219545445e+01    0.1909848    0.1002376 -74.34 0.0003305513    1.542    0.352
       104  -9.1623     32.4494    121.5580   1.0716721092e+02   4.7332603972e+01    0.1384431    0.1163416 -57.22 3.360223e-05    1.058    0.055
       105  -9.7226    220.1999    124.2215   5.8203796658e+01   1.2349873855e+01    0.1947992    0.1576401 -58.08 0.0005060571    1.312    0.238
       106 -10.2888     72.3006    116.6811   9.3189414041e+01   4.3779005587e+01     0.376481    0.1752886 -56.27  0.001473649    2.004    0.501
       107 -10.4411     86.0431    116.7283   8.8798859901e+01   4.1597503357e+01    0.2640223    0.2106804 -54.07 0.0006061562    1.200    0.167
       108 -10.9647     13.3793    126.1667   1.1381735585e+02   4.7713289165e+01    0.3123956    0.2279939  26.84 0.0006318882    1.625    0.385
       109  -9.9354    213.9905    115.6592   5.7295065378e+01   1.5157964641e+01    0.1891128    0.1812108  44.50 0.0004726568    1.157    0.136
       110 -11.1786    249.3232    112.1201   5.1096110947e+01   9.0133029307e+00    0.2542399    0.1974256 -45.97  0.000411293    1.107    0.096
       111 -10.0231     94.9951    112.4985   8.4937012901e+01   4.1066047888e+01     0.249766    0.2038334 -48.90 0.0008996868    1.177    0.150
       112 -11.5964     55.2142    109.8081   9.7320305917e+01   4.7818715057e+01    0.4516538    0.2478248 -49.22  0.001398472    1.625    0.385
       113 -11.4684     36.4878    109.8969   1.0374313738e+02   4.9871770533e+01     0.362385     0.282934  81.14  0.001010528    1.505    0.335
       114 -10.5937      1.4135    108.9605   1.1535679278e+02   5.2670864215e+01    0.3319866    0.2164643 -78.92  0.001309368    1.335    0.251
       115 -10.4839      2.5044    105.5028   1.1453863136e+02   5.3452652598e+01    0.4191625     0.142557  28.92  0.001843998    3.262    0.693
       116 -12.1012     14.2472    109.0576   1.1113897760e+02   5.1893590941e+01     0.427595     0.327448  10.11  0.002203432    1.580    0.367
       117  -9.5761     82.5532    108.7161   8.7921347266e+01   4.4119741714e+01    0.2049127     0.143867 -61.93 0.0007939223    1.508    0.337
       118 -10.4925     25.1202    107.4229   1.0718259340e+02   5.1495167105e+01    0.2279502    0.1456729 -71.30  0.001190957    1.434    0.303
       119 -10.4760    243.9561    104.6990   5.0242444427e+01   1.1229634142e+01    0.1798878     0.164924 -51.42 0.0005648003    1.093    0.085
       120 -11.1039    120.2899    100.9894   7.4284668450e+01   3.8729836709e+01    0.7288308    0.3403021 -28.82  0.002192763    3.593    0.722
       121 -10.4057     51.3486    104.1206   9.7377023943e+01   4.9688186770e+01    0.2371512    0.1962992 -13.01  0.001307597    1.319    0.242
       122 -10.6719     13.6512    103.1864   1.1041416978e+02   5.3368359026e+01    0.3440878    0.1318028 -35.15  0.001353055    3.179    0.685
       123 -11.0094     36.9736    102.1525   1.0202284280e+02   5.1731858928e+01    0.4253032    0.2498653  11.74  0.001617296    2.104    0.525
       124 -10.1462     25.5912    102.4746   1.0611929291e+02   5.2671446557e+01    0.2390177    0.1512642 -74.68 0.0004970914    1.566    0.361
       125  -9.9563     24.2065     99.3484   1.0602194212e+02   5.3543202726e+01    0.1729535    0.1662131 -25.83 0.0003246774    1.166    0.142
       126 -11.3990      3.1860     97.5783   1.1317103634e+02   5.5324268688e+01    0.4935726    0.2740341  62.89  0.002431475    2.505    0.601
       127 -11.4138    143.6084     98.5038   6.7410260439e+01   3.4119036736e+01    0.5706494    0.4290012  53.37  0.002668232    1.375    0.273
       128 -10.8728     62.1005     98.9629   9.2358347886e+01   4.9551691414e+01    0.3536295    0.2996318   9.56  0.001003429    1.275    0.215
       129 -11.5156    162.0697     98.3640   6.3047846097e+01   2.9908359301e+01    0.7812119    0.2662306 -43.32  0.002506559    2.856    0.650
       130 -10.8235    152.2647     91.4332   6.3357339130e+01   3.3543733403e+01    0.4317907    0.2809436  67.69  0.001802313    1.929    0.482
       131 -12.5411    166.2945     84.1288   5.8257821486e+01   3.1628489571e+01     1.483246    0.7098597  53.35  0.005796466    2.105    0.525
       132 -11.1796     14.9084     97.6423   1.0903846420e+02   5.4628795246e+01    0.3912929    0.1536352 -67.70  0.001690809    2.170    0.539
       133 -10.7160     38.8946     95.6853   9.9926706086e+01   5.3105436507e+01    0.4427898    0.2045536  45.04  0.001815287    2.862    0.651
       134  -9.6810    250.1266     95.8664   4.7541334365e+01   1.1538726288e+01    0.1986216    0.1521475 -57.19 0.0005150693    1.221    0.181
       135 -10.4434    153.5904     96.2376   6.4388083946e+01   3.2289229762e+01    0.2145243    0.1484156 -29.96 0.0004223676    1.572    0.364
       136 -10.1115     66.5336     98.0987   9.0582452282e+01   4.9131925119e+01    0.2061759    0.1966498 -64.36  0.000415793    1.131    0.116
       137 -11.6217     26.3345     91.7129   1.0371374959e+02   5.5206133345e+01    0.6656401    0.2995467 -74.12  0.002662501    2.767    0.639
       138 -11.1610     21.8592     87.9210   1.0460581369e+02   5.6455985751e+01    0.5267727    0.1725415 -59.32  0.002145933    2.350    0.575
       139 -10.0221    134.6723     93.4782   6.8247641188e+01   3.7171665064e+01     0.280004    0.1433254 -41.20  0.001073255    1.944    0.486
       140  -8.9904    113.3210     93.3179   7.4080307630e+01   4.1850635209e+01      0.15922     0.121931  -1.65 0.0003546338    1.664    0.399
       141  -9.9745    108.9950     92.3092   7.5061633738e+01   4.2959559243e+01    0.2825187    0.1667089 -44.05  0.001184659    1.668    0.401
       142  -9.6777     31.4486     93.0057   1.0208295312e+02   5.4458127909e+01    0.1998148    0.1172055 -60.99 0.0003960555    1.496    0.331
       143  -9.5156     46.7453     92.6149   9.6310944145e+01   5.2990034831e+01    0.1733086    0.1288554  37.63  0.000324694    1.529    0.346
       144 -11.1001     10.8238     90.9620   1.0934000355e+02   5.6481149350e+01    0.3634533    0.2045706  13.86  0.001233652    2.120    0.528
       145  -9.2970     88.0007    104.2468   8.4988779666e+01   4.4258190443e+01    0.1866319    0.1303683  35.20 0.0003310643    1.495    0.331
       146 -10.5314     96.6000     89.6790   7.8105308313e+01   4.5979066057e+01    0.3822816    0.1867245  37.64  0.001485958    2.124    0.529
       147 -10.2700     58.0093     89.8149   9.1439973415e+01   5.2249864860e+01    0.3787231    0.2034269  30.09  0.001696518    1.999    0.500
       148 -10.4243     82.9567     88.8628   8.2346176638e+01   4.8640848096e+01    0.2271895    0.1881808 -14.91 0.0005248549    1.265    0.209
       149 -10.7206     78.5633     88.0902   8.3621711580e+01   4.9556553193e+01    0.3476019    0.2385697 -53.37  0.001233255    1.487    0.327
       150 -11.0373     45.7276     86.9325   9.5261402100e+01   5.4433581872e+01    0.5082656    0.3499712 -79.65  0.002470703    1.989    0.497
       151 -10.0068     65.0337     87.4878   8.8237788114e+01   5.1802473103e+01    0.2553553    0.2271335  -3.60  0.001155162    1.131    0.116
       152 -10.4203     67.3153     84.3618   8.6512710604e+01   5.2164896722e+01    0.3078704    0.1818499 -25.79   0.00130916    2.084    0.520
       153 -12.2688    158.1575     90.3920   6.1731674016e+01   3.2370027601e+01     0.613754    0.3808693 -39.49  0.002491267    1.595    0.373
       154  -9.1814    120.7049     87.3103   7.0190031529e+01   4.1526973745e+01    0.1515593    0.1239462 -83.22 0.0005491415    1.592    0.372
       155 -12.7114     44.6281     75.2411   9.2510401842e+01   5.7194284538e+01    0.3110214     0.277066  54.57 0.0005105584    1.435    0.303
       156 -12.3790     50.8084     66.4323   8.7349894574e+01   5.8311664332e+01     1.441148    0.5957358 -59.83  0.004988993    3.755    0.734
       157 -12.2095     36.9060    243.9631   1.1893984554e+02   1.8001812705e+01    0.6366721    0.3016591 -89.46  0.002811911    2.217    0.549
       158 -12.0055      5.3963     84.0239   1.1012816610e+02   5.8410913015e+01    0.6039385    0.4470742 -61.05  0.003808312    1.103    0.094
       159 -11.5234     43.4323     38.0036   8.0251151563e+01   6.4590073503e+01    0.6108415    0.3050965  45.43  0.001924135    2.851    0.649
       160 -10.7515     15.0643     59.8732   1.0073180773e+02   6.3230912987e+01    0.2467591    0.1849027 -17.61 0.0003674839    1.276    0.217
       161 -12.2282     30.9885     63.5064   9.4748936734e+01   6.1154828708e+01     1.181573    0.7984245  69.74   0.00554132    3.004    0.667
       162 -12.9586     11.4538     75.2558   1.0600332661e+02   6.0086723163e+01     1.036481    0.5421842  32.03  0.005055657    2.292    0.564
       163 -13.9124     16.6039     67.6797   1.0208945314e+02   6.1442015595e+01    0.5980044    0.4255771 -27.90   0.00222539    1.292    0.226
       164 -12.9599     75.7032    239.0190   1.1078424233e+02   1.4128667768e+01    0.7293227     0.683351  60.96  0.005097792    1.174    0.148
       165 -12.1629     26.7738     49.6933   9.2278707861e+01   6.4355895244e+01    0.6428156    0.3158478 -53.31   0.00319682    1.953    0.488
       166 -11.8963      5.1969     58.8860   1.0490696800e+02   6.4039109390e+01    0.2520154    0.2098115 -45.03 0.0003188656    1.087    0.080
       167 -11.7960      6.2637     67.9802   1.0656419621e+02   6.2007955558e+01    0.2402968    0.1644626 -48.30 0.0002947406    1.138    0.121
       168 -12.5013      3.2114     63.1911   1.0680126696e+02   6.3212584515e+01    0.3983879    0.3064244  80.27  0.002300072    1.774    0.436
       169  -9.9887    115.0564     84.1483   7.0833618461e+01   4.3386919083e+01    0.2798306    0.2013248  47.06  0.001103969    1.408    0.290
       170 -11.2270     30.2106     81.8554   9.9995905287e+01   5.7179969357e+01    0.3052034    0.2575699   3.45  0.001250799    1.287    0.223
       171 -11.9765     35.4389     42.6353   8.5719977406e+01   6.4775845953e+01    0.7349069    0.3615412   9.37  0.003219478    2.804    0.643
       172  -9.9996     50.8803     99.1113   9.6377557774e+01   5.0958130914e+01    0.2103248    0.1853368 -40.93 0.0005016354    1.027    0.026
       173 -10.9658     60.9773     78.4177   8.7096767303e+01   5.4395132326e+01    0.3252922    0.2138794 -50.30 0.0004220115    1.458    0.314
       174 -11.9918     62.2796     71.6143   8.4499186814e+01   5.5651727701e+01    0.3631069    0.2463698 -26.51 0.0003021082    1.501    0.334
       175  -9.2443    134.5943     78.4815   6.3843595230e+01   4.0126373033e+01    0.1503424    0.1454518   2.79 -1.266792e-05    1.051    0.048
       176 -11.7747     21.3833     80.1212   1.0308667525e+02   5.8304631796e+01    0.5315307    0.3302743 -36.09  0.002541129    1.473    0.321
       177 -10.6420     74.1936     75.3951   8.1288759068e+01   5.3006634754e+01    0.2510388    0.1782145 -32.73 0.0006518107    1.363    0.266
       178 -10.9944    207.5564     73.3785   4.8233168639e+01   2.3912869866e+01    0.2347191    0.2280075 -20.60 0.0002268925    1.194    0.163
       179 -10.2086     86.1789     80.4483   7.8706515895e+01   4.9880844346e+01     0.277499    0.2174593  -9.92 0.0008969573    1.417    0.294
       180 -10.6630     93.9648     74.0148   7.4078459354e+01   4.9725345268e+01    0.2266494    0.2083483  -6.67 0.0003589161    1.039    0.037
       181 -11.0010    100.9290     72.3837   7.1338747641e+01   4.8655142517e+01    0.4035106    0.2725153  67.99 0.0006006681    2.260    0.558
       182  -9.7596    129.3213     71.5797   6.3061242254e+01   4.2606498788e+01    0.2779358    0.1458106  54.42  0.001109459    1.959    0.490
       183 -10.3219     76.8015     64.2930   7.6677773954e+01   5.4773382893e+01    0.3913565    0.2723531 -42.25  0.001988281    1.430    0.301
       184 -11.0124     77.3209     69.8861   7.8380144620e+01   5.3597070323e+01    0.3670999    0.2897117  47.93  0.001417216    1.454    0.312
       185  -9.8531    194.5201     70.0974   4.9405226138e+01   2.7407492330e+01    0.2090005    0.1357493 -36.56 0.0007004362    1.519    0.342
       186  -9.5090    167.7633     69.7953   5.3988379928e+01   3.3784858133e+01    0.1928068    0.1630479 -80.47 0.0003470236    1.260    0.206
       187 -11.2761    155.8489     83.3660   6.0271037708e+01   3.4237695647e+01    0.6759834    0.3949243  29.58   0.00255581    2.535    0.606
       188  -9.9268     42.5627     68.4926   9.1360420698e+01   5.8886794027e+01    0.2420239    0.2043686 -32.18  0.001288211    1.024    0.023
       189  -9.2245    189.2770     68.6463   4.9874008205e+01   2.8861837200e+01    0.1510126    0.1024727 -65.16 0.0002940004    1.648    0.393
       190  -9.4140    123.0000     67.8670   6.3531587722e+01   4.4712239771e+01    0.2416076   0.08499445 -37.73 0.0007973001    2.907    0.656
       191  -9.8122    127.6999     66.6920   6.1937533518e+01   4.3841863867e+01    0.1967376    0.1736806 -80.74  0.001026887    1.318    0.241
       192 -11.3924     93.7759     66.5939   7.1680111632e+01   5.1181813790e+01    0.3553451    0.2626559  10.87 0.0009847376    1.579    0.367
       193  -9.2505    143.7470     64.3521   5.7375749846e+01   4.0462193384e+01    0.1489602     0.112247 -66.39  0.000381133    1.598    0.374
       194 -10.1563    201.9137     62.3766   4.6352643018e+01   2.6921974778e+01    0.2299355    0.1720885 -53.88 0.0004704289    1.249    0.199
       195  -9.0714    222.5650     62.5823   4.3650138127e+01   2.2305110144e+01    0.1358135    0.1127597 -64.43 0.0001303621    1.070    0.065
       196 -10.8289     84.8851     61.8545   7.3004283095e+01   5.3765294894e+01    0.2308089    0.1880422   3.57  0.001236924    1.260    0.206
       197 -10.7078    155.0488     60.1483   5.3718622003e+01   3.8420128651e+01    0.2271354    0.2070242 -42.97            0    1.126    0.112
       198 -10.3926    119.6245     60.9349   6.2175915663e+01   4.6668853874e+01    0.2549604     0.192994  36.74 0.0007020021    1.317    0.241
       199  -9.2014     98.2928     60.2920   6.8092364423e+01   5.1404864054e+01    0.1451396    0.1087689   8.69 0.0001740949    1.552    0.356
       200 -11.0580     59.1758     58.4520   8.1304365179e+01   5.8730311712e+01    0.3231073    0.3021258 -56.76  0.001363881    1.350    0.259
       201 -10.1672    147.1288     57.1018   5.4436629026e+01   4.0811888201e+01    0.2680645    0.2187293 -72.99  0.001217317    1.392    0.282
       202 -11.9966    104.9920     52.6909   6.3429112347e+01   5.1256762235e+01    0.3046583    0.2408432  46.46 0.0002017256    1.223    0.182
       203 -10.9740     75.3081     56.2451   7.4379074926e+01   5.6517017749e+01    0.2254794    0.2080067 -11.56 0.0003209923    1.084    0.078
       204  -9.7569     99.0231     55.9415   6.6349279304e+01   5.1994555355e+01     0.235711    0.1663228  16.01 0.0008430622    1.681    0.405
       205  -9.7485     68.4735     56.4463   7.6981792254e+01   5.7646325827e+01    0.1377782    0.1238567  -4.83  7.24631e-06    1.034    0.033
       206 -10.1299    131.8563     54.6333   5.7062565225e+01   4.4846619310e+01    0.3691332    0.1919404  37.75  0.001471986    2.238    0.553
       207 -11.4567     88.2074     51.3240   6.8122629894e+01   5.4949449164e+01    0.3652939    0.2547318  31.59 0.0007081362    1.400    0.286
       208 -10.6559     62.4608     52.6328   7.7909183022e+01   5.9303502680e+01    0.4257921    0.2458966 -44.62  0.002076713    1.772    0.436
       209 -10.3591    120.2157     52.2648   5.9137371719e+01   4.7925202387e+01    0.2559513    0.2010679  15.33 0.0006547536    1.458    0.314
       210  -9.7175     95.8691     52.7330   6.6182716693e+01   5.3176027082e+01    0.2177424     0.177259   8.99 0.0008855716    1.273    0.215
       211  -9.6847     56.4139     53.2305   8.0546979216e+01   6.0112978923e+01    0.2206014    0.1411632 -12.96  0.001043113    1.811    0.448
       212 -10.0780    237.7334     51.4088   3.9450392836e+01   2.0742370630e+01    0.1667161    0.1133703  59.43 0.0008966078    1.656    0.396
       213 -11.3494    129.0220     49.2741   5.5988267030e+01   4.6324069740e+01    0.5076557    0.3408532 -10.83  0.002349355    1.951    0.487
       214  -9.4970     73.3532     51.3121   7.3280857748e+01   5.7721551265e+01    0.1464303    0.1002708   3.52 0.0007044997    1.729    0.421
       215 -10.4204    199.6483     49.5871   4.3495417186e+01   2.9330062899e+01    0.2566703    0.2015495 -86.41  0.001009711    1.242    0.195
       216 -10.3416     52.7351     49.9679   8.0861839428e+01   6.1236907545e+01    0.2393096    0.1880697  34.35 0.0007871033    1.400    0.286
       217  -9.8205    181.3503     49.4596   4.6078944768e+01   3.3658885766e+01    0.2445185    0.1485046 -55.43 0.0009076985    1.735    0.423
       218 -10.3108    153.1705     47.5767   5.0355362098e+01   4.0758406395e+01    0.3919328    0.2041276  63.43  0.001060816    1.888    0.470
       219  -9.4064    119.7466     47.3542   5.7597145482e+01   4.8769299701e+01    0.1390802    0.1095093 -65.30 0.0006957437    1.603    0.376
       220 -10.4180     77.9220     46.0599   6.9654805374e+01   5.7765386000e+01    0.3433211    0.2384139 -60.00 0.0009311431    2.287    0.563
       221 -10.4644    142.8396     45.4639   5.1743692954e+01   4.3564147667e+01    0.2858388    0.2138635 -73.16  0.001133743    1.629    0.386
       222 -10.1358    111.2702     46.3602   5.9454403115e+01   5.0842019925e+01    0.4173885    0.1516854  48.31  0.001542188    2.508    0.601
       223 -10.8608     57.3173     46.2027   7.7545563888e+01   6.1226186754e+01    0.2206991    0.1799409  22.59 0.0007080488    1.197    0.165
       224 -11.1038      6.7080     41.4383   9.9327365971e+01   6.7517177518e+01    0.3486875    0.1605393 -40.33 0.0008534957    1.681    0.405
       225 -10.7468     91.9898     43.4045   6.3970587051e+01   5.5424453266e+01    0.3502844    0.2693907 -50.91  0.001654491    1.618    0.382
       226 -10.4467     95.9310     42.7812   6.2527658202e+01   5.4698171706e+01    0.2234996    0.1687364  23.57 0.0007685741    1.336    0.252
       227  -9.5883     50.8425     44.8461   7.9718279680e+01   6.2411032685e+01    0.1646579    0.1517765 -38.83 0.0005357477    1.338    0.253
       228 -11.5186     52.0531     40.3020   7.7415300863e+01   6.3004812367e+01    0.3817756    0.2868508  -1.50  0.001070054    1.251    0.201
       229 -11.6934     57.1317     34.0081   7.2714475758e+01   6.3218870904e+01    0.4081871    0.3299792 -36.33  0.002092265    1.389    0.280
       230 -10.1738    107.7529     42.5068   5.9039568054e+01   5.2181701328e+01    0.3946342    0.1869189  37.50  0.001097106    2.304    0.566
       231 -10.3346     18.1956     42.3791   9.3899283622e+01   6.6517200655e+01    0.4555711    0.1407973 -41.28  0.001597167    2.619    0.618
       232 -10.8657     23.9308     41.8854   9.0915005510e+01   6.6108136138e+01    0.2790164    0.2589181 -89.16  0.001323953    1.658    0.397
       233 -10.3803     30.0964     33.1893   8.4551543949e+01   6.7020967368e+01    0.4058416    0.2694748 -38.41  0.002452119    1.386    0.278
       234 -11.9436     27.7392     38.0660   8.7637280076e+01   6.6429164132e+01    0.3636015    0.2032619  26.08  0.001223353    1.846    0.458
       235 -11.8362     24.2955     35.0932   8.8186437660e+01   6.7300217441e+01    0.4045275    0.2409052  -3.68 0.0007285923    1.780    0.438
       236 -10.3922    125.2968     42.6890   5.4677352517e+01   4.8139203845e+01    0.3048359    0.1302315  64.83  0.001084775    2.902    0.655
       237 -11.0022     80.6641     36.6687   6.5047985261e+01   5.8660215290e+01    0.6360164    0.3442544 -13.00  0.002694242    2.610    0.617
       238 -10.0111     84.6827     34.7432   6.2958567446e+01   5.8136991392e+01    0.1369379   0.09330386  21.48 0.0002111335    1.537    0.349
       239 -12.0721     69.8216     40.0671   7.0247873331e+01   6.0167072753e+01    0.4822861    0.4413781  -7.03  0.001359528    1.136    0.120
       240 -11.8022     75.1589     35.6344   6.6532120899e+01   5.9854101707e+01    0.6071711     0.353877   8.10  0.001792632    2.521    0.603
       241  -9.3876    232.4702     39.9849   3.7518106221e+01   2.3392582991e+01    0.1774227    0.1102897 -40.79 0.0003250178    1.473    0.321
       242 -11.0795    152.6317     39.1729   4.7938964426e+01   4.2032491304e+01      0.25546    0.2385909 -78.44 0.0004305802    1.079    0.073
       243  -9.6471    142.1733     40.6661   5.0378007560e+01   4.4378897707e+01    0.1994011    0.1162406  52.31 0.0002969672    1.583    0.368
       244 -10.7822    225.1958     38.2925   3.7869737307e+01   2.5160032404e+01    0.2206637    0.1722828 -60.86 0.0003895635    1.094    0.086
       245  -9.4450    116.8158     39.6154   5.5665652380e+01   5.0530207116e+01    0.1952976    0.1292219  65.23 0.0006429949    1.633    0.387
       246  -9.7249    160.0380     38.4497   4.6436347857e+01   4.0319876505e+01    0.2067905    0.1263314  62.03 0.0003180946    1.511    0.338
       247 -10.4918      1.8533     37.3430   1.0052356969e+02   6.8586392992e+01     0.245823    0.1492174 -43.53  0.001047888    1.254    0.203
       248  -9.8121    134.5389     35.8924   5.0402742022e+01   4.6839057812e+01    0.2029724    0.1389825 -28.77 0.0009531984    1.594    0.373
       249  -9.4433    119.7753     35.9491   5.3678783980e+01   5.0326657474e+01    0.1722471    0.1159186 -26.56 0.0004562346    1.619    0.383
       250 -10.2094      1.5042     25.7868   9.6754663953e+01   7.0743371149e+01    0.2197285    0.1036396 -46.05 0.0003935991    1.646    0.393
       251 -11.8667     74.4797    233.4978   1.1050091944e+02   1.5406684287e+01    0.3907224    0.2094118  37.12  0.001631533    1.680    0.405
       252 -10.4039     88.8708    241.2880   1.0827133243e+02   1.1856852833e+01    0.2232266    0.1555968 -33.99  0.001223662    2.146    0.534
       253 -10.0209    195.3208    238.9595   8.5802254760e+01  -3.7401840118e+00    0.2397372     0.154455   9.79  0.001326696    1.587    0.370
       254 -11.0181      8.3408     34.0612   9.6023674522e+01   6.8810177021e+01     0.387858     0.305949 -64.65  0.001888925    1.662    0.398
       255 -10.6989    243.9055    237.3643   7.6467624491e+01  -1.0031974070e+01    0.1926607    0.1448443 -27.16  0.000887873    1.379    0.275
       256 -10.8539     25.1354     20.2751   8.1460450493e+01   6.9630269195e+01    0.3917771     0.226534   3.26  0.001581819    1.822    0.451
       257 -10.9660     29.8068    232.9934   1.1958993044e+02   2.1005632545e+01    0.2837907    0.1619335  70.03  0.001667348    1.551    0.355
       258 -11.6772     17.2295     31.5713   9.0422791542e+01   6.8571249989e+01    0.5491616    0.2859386  12.90  0.002396769    1.999    0.500
       259 -11.5468     22.2103     25.3854   8.5270541704e+01   6.9144597226e+01    0.2715772    0.2196528   3.75 0.0007345516    1.183    0.155
       260  -9.7343    177.3288    235.3151   8.8836875216e+01  -4.9101852998e-01    0.1338651   0.09100743   1.92 0.0005110039    1.676    0.403
       261 -11.3458     88.9985    249.5832   1.0908886984e+02   1.0259309662e+01    0.2920886    0.2190582  37.80 0.0008364487    1.212    0.175
       262 -10.2972    109.4694    242.7789   1.0411921171e+02   8.5853573828e+00    0.2444272    0.1603659  55.84 0.0006964158    1.514    0.340
       263 -10.1390     38.2334    232.8054   1.1790875768e+02   2.0100948423e+01    0.1771339    0.1299251  68.85 0.0006388676    1.116    0.104
       264 -10.1180     95.4973     34.9564   5.9711131125e+01   5.5878357380e+01    0.2490045    0.1348914 -24.66 0.0006774057    2.038    0.509
       265 -10.7177     97.3022     31.0897   5.7716442048e+01   5.5990399136e+01    0.3868068    0.2091844  54.68   0.00147037    1.784    0.439
       266 -11.3505    102.0619     28.7719   5.5530944637e+01   5.5236621882e+01    0.3921644    0.3080964  75.81 0.0006667151    1.566    0.361
       267  -9.8365     63.9640     35.2517   7.0515140216e+01   6.1907251814e+01    0.1817444    0.1473852  15.99  0.001094588    1.093    0.085
       268  -9.5801    201.8094     34.1692   3.9446719241e+01   3.0900613490e+01    0.1666695     0.148662  56.70 0.0003782684    1.289    0.224
       269 -10.2221    108.8524     34.1167   5.5723896127e+01   5.3062679877e+01    0.3109307    0.1675095  39.79  0.001412041    1.827    0.453
       270 -11.3093    221.8369     32.1523   3.6842153942e+01   2.6675782027e+01    0.2509785    0.1813253  89.54 0.0003426071    1.290    0.225
       271 -10.3279    205.8451     32.5667   3.8605183494e+01   3.0180243609e+01    0.1953589    0.1707939 -37.52 0.0004570108    1.280    0.219
       272  -9.9445    166.4802     33.0036   4.3846597530e+01   3.9438412568e+01    0.1979303    0.1359636 -30.01  0.001032347    1.600    0.375
       273 -10.6487     89.5013     31.7872   6.0279372422e+01   5.7549292900e+01    0.2435299    0.2024858  35.28  0.000524673    1.080    0.074
       274 -10.9498     48.1588     31.9014   7.5615437412e+01   6.4907468723e+01    0.2173669     0.168945  11.99            0    1.140    0.123
       275 -10.5732     50.2379     27.8766   7.2969602154e+01   6.5194929920e+01    0.2920589    0.1927973  10.41 0.0009546188    1.522    0.343
       276  -9.4803    145.5954     30.8481   4.6673162961e+01   4.4784798527e+01    0.1964382    0.1196282 -44.01 0.0009540508    1.767    0.434
       277 -10.4411    236.2757     30.3585   3.5120779847e+01   2.3839618592e+01    0.2174514     0.193209 -80.04  0.000697526    1.166    0.142
       278 -11.4115     69.7264     26.7253   6.4771360749e+01   6.2070115563e+01    0.4346542    0.3061182  15.37  0.002460947    1.399    0.285
       279 -10.5973     68.2933     21.9611   6.3230528693e+01   6.2929928362e+01    0.3663919    0.1731197  51.53  0.001181241    2.267    0.559
       280  -9.9117     60.1340     27.1594   6.8577805262e+01   6.3705265989e+01    0.1907487    0.1549857 -46.24  0.000730923    1.653    0.395
       281 -10.0280     62.3641     23.8099   6.6242437533e+01   6.3763945203e+01    0.2651322    0.1478243 -13.69  0.001293866    2.102    0.524
       282 -10.9849     57.9785     22.6816   6.7452492088e+01   6.4661165531e+01    0.4860944    0.2706302  26.72  0.001485806    1.775    0.437
       283  -9.7259    144.4885     26.9653   4.5669436404e+01   4.5505791132e+01    0.1953623   0.09771984 -52.79 0.0008098211    2.532    0.605
       284 -11.0711    128.8746     26.8188   4.8578421713e+01   4.9282216332e+01    0.4220203    0.2376187  69.89  0.001839933    1.862    0.463
       285  -9.9037    203.7220     25.5908   3.7181026385e+01   3.1516286979e+01    0.2366312    0.1240122 -53.08  0.001176326    1.820    0.451
       286 -10.2714    169.0083     25.9939   4.1521621907e+01   3.9658938872e+01    0.1976871     0.176246  89.39   0.00121596    1.022    0.022
       287 -10.0804     23.9902    232.4825   1.2069152252e+02   2.1735732203e+01    0.1963542     0.141155 -69.04 0.0006767038    1.499    0.333
       288  -9.7954    193.3159     25.6539   3.8342523451e+01   3.3909927416e+01    0.1415159   0.08530575 -65.99 0.0007048029    1.720    0.419
       289  -9.3234    119.1462     25.5789   5.0217899667e+01   5.1718121407e+01    0.1864516    0.1084988  46.98 0.0003523418    1.551    0.355
       290 -11.6520    164.8558     23.1039   4.1304176575e+01   4.0990179620e+01    0.2587658    0.2151792  67.75   0.00155365    1.100    0.091
       291 -10.7481     97.8198     23.6794   5.4726683832e+01   5.6758237546e+01    0.5220062    0.1788253  51.12   0.00186175    2.455    0.593
       292 -10.7322     94.1815     22.2844   5.5176191468e+01   5.7701429540e+01     0.607232    0.2210529  42.55   0.00241785    2.554    0.608
       293 -10.1719     63.0245    242.6329   1.1370552424e+02   1.5089628783e+01    0.1766175    0.1315688  52.25 0.0004485559    1.110    0.099
       294 -11.2794    103.0320     19.4731   5.1770017362e+01   5.6062972714e+01    0.4701743    0.3283097  65.20  0.001968295    1.477    0.323
       295  -9.8937    111.5537     27.9471   5.2815673634e+01   5.3202100473e+01    0.1881634    0.1341253 -23.10  0.000334582    1.537    0.350
       296 -10.2173    186.1242     22.9990   3.8514844441e+01   3.5906024178e+01    0.1992319    0.1681935 -79.59 0.0004779917    1.059    0.055
       297  -9.6692    226.0867     22.4221   3.4323108337e+01   2.6949758762e+01    0.1760585     0.107244  75.06 0.0008155737    1.562    0.360
       298 -10.4273    192.2865     21.6177   3.7460185829e+01   3.4616522991e+01    0.2378382    0.1494194  62.98  0.001294904    1.512    0.338
       299  -9.4624    170.0070    229.0388   8.9355979109e+01   1.6961475052e+00    0.1583441    0.1399598  10.97 0.0005341052    1.044    0.042
       300 -10.5759     89.4699     20.9704   5.5983654784e+01   5.8849010537e+01    0.2633518    0.1485259  39.39 0.0008573269    1.602    0.376
       301 -10.3411    151.7393    229.0101   9.3227260915e+01   4.5939306806e+00     0.163518    0.1167875 -47.21 0.0008985719    1.578    0.366
       302 -10.9969    120.3953    226.3047   9.9674649613e+01   1.0089010437e+01    0.2197367    0.1766761 -77.67  0.001051615    1.472    0.321
       303  -9.9595    172.8166     20.2721   3.9447410928e+01   3.9380970495e+01    0.2117726    0.1458007 -87.43 0.0005908554    1.445    0.308
       304 -10.1705     65.9865    226.2063   1.1159345845e+02   1.8059603025e+01    0.2045187    0.1706102 -86.62 0.0006089965    1.184    0.155
       305  -9.4723     50.5206     18.5209   6.8607323185e+01   6.6414093617e+01    0.1254335    0.1019152   8.69 3.003462e-05    1.015    0.015
       306 -11.8753      5.0770    235.7261   1.2443045593e+02   2.2968900074e+01    0.5960191    0.2924038  47.64  0.003147391    1.652    0.395
       307 -11.2524      4.6615    226.5522   1.2405901025e+02   2.4873537726e+01     0.302581    0.1453555  54.23  0.001778344    1.687    0.407
       308  -9.6053    190.5072    226.4873   8.4712859099e+01  -1.0524277415e+00     0.132696    0.1103855   8.34 -6.619124e-05    1.030    0.029
       309  -9.6241     54.6733     18.9628   6.7090616616e+01   6.5683502993e+01    0.1689195    0.1419117   2.42  0.001027319    1.082    0.076
       310  -9.5723    151.3239     18.6544   4.2017736134e+01   4.4749095322e+01    0.1399668    0.0932416 -68.71 0.0004095128    1.739    0.425
       311 -10.1562    143.2741     17.0364   4.2801711944e+01   4.6862966728e+01     0.174301    0.1647445  89.95 0.0002846695    1.094    0.086
       312 -11.5594     21.1555    222.2898   1.2060743049e+02   2.4161910622e+01     0.272615    0.1766275  84.56   0.00100709    1.317    0.240
       313  -9.7258    126.5441    221.5505   9.7640725281e+01   1.0056917148e+01    0.2141849    0.1134065  45.93 1.810799e-05    1.790    0.441
       314  -9.6977     41.9865    220.9807   1.1623240604e+02   2.2164410684e+01    0.1527943    0.1244174  68.95  0.000781407    1.012    0.012
       315 -10.7845     74.6072     15.9900   5.8458213768e+01   6.2409667477e+01    0.3936492    0.1920924  50.49 0.0009850846    1.882    0.469
       316 -10.8066     70.3730     13.8025   5.8901345089e+01   6.3460457590e+01    0.2978631    0.1608894  38.74  0.001226984    1.606    0.377
       317  -9.7481    142.9535    220.7696   9.3877587493e+01   7.5520338881e+00    0.1914831    0.1036135  35.14 0.0008850819    1.669    0.401
       318  -9.9619     37.9796    217.6876   1.1681230773e+02   2.3340075661e+01    0.1739894    0.1396545  55.65 0.0009058853    1.137    0.121
       319  -9.8053     96.5085     13.9762   5.1289703986e+01   5.8056799931e+01    0.2171223    0.1736917  44.23  0.001324602    1.070    0.065
       320 -11.7549      9.7407    217.3364   1.2258050490e+02   2.6339068003e+01    0.3331036    0.1805287  58.08  0.001813691    1.548    0.354
       321  -9.2663     26.1488     14.2217   7.8053021862e+01   7.0387660876e+01    0.1728254    0.1154154  -5.27 0.0002179796    1.311    0.237
       322  -9.9706     30.9877     12.8356   7.4882442731e+01   6.9972801317e+01     0.180148    0.1247496  -0.13 0.0004917335    1.240    0.194
       323 -11.3094     29.9261    215.8770   1.1836786643e+02   2.4625467605e+01    0.3379995    0.2641098  19.75  0.001869887    1.698    0.411
       324 -10.4917    159.0140     15.7898   4.0056150616e+01   4.3179971958e+01    0.2304907    0.1468251 -48.40 0.0005262349    1.662    0.398
       325 -11.8335    236.0439    214.4823   7.3866338838e+01  -5.7933206598e+00    0.4482048    0.2301116 -22.98  0.001772416    1.972    0.493
       326 -10.2976     23.6872    216.3146   1.1969552391e+02   2.5187099836e+01    0.2000671    0.1473106  -7.47  0.001161848    2.389    0.581
       327  -9.5996    137.2373    215.7595   9.4374673561e+01   9.4717159629e+00    0.2253079    0.1088432  26.06  0.000887414    2.453    0.592
       328  -9.2697    107.3081     10.7303   4.7488049582e+01   5.5945631991e+01    0.1203921   0.09741519 -81.28 0.0001885352    1.541    0.351
       329  -9.9142     67.1375    215.3070   1.1023623842e+02   2.0258997138e+01    0.1899667    0.1677655  12.78 0.0008418105    1.447    0.309
       330 -10.4548     21.5356    212.6662   1.1988941040e+02   2.6204442724e+01    0.2886887    0.1101798  57.63  0.001314901    2.498    0.600
       331  -9.9961    208.8571    211.9498   7.8507677158e+01  -1.4640331300e+00    0.2050918    0.1534296  -4.82 0.0005486786    1.264    0.209
       332  -9.4095     76.3285    212.3002   1.0782639681e+02   1.9665264285e+01    0.1248554    0.1047107 -21.43 0.0003554622    1.641    0.391
       333 -12.2340      4.7680    207.6902   1.2302405626e+02   2.8881707770e+01    0.5601961    0.2706176  85.29  0.003036893    1.822    0.451
       334 -10.3247    108.0013    209.9924   1.0020972217e+02   1.5425098691e+01    0.2265005    0.1571823  66.42 0.0008134209    1.670    0.401
       335 -10.5996     10.8002    208.5152   1.2183948905e+02   2.8156380378e+01    0.2206063    0.1669148 -53.35 0.0005886262    1.659    0.397
       336 -10.6348    245.0060    203.0167   7.0179574717e+01  -5.2919905036e+00    0.3584678    0.2083758  52.70   0.00167163    3.313    0.698
       337 -10.3394    175.4084    202.6854   8.3694827015e+01   5.5839006791e+00    0.2399724    0.2036798  32.06 0.0004965719    1.149    0.130
       338  -9.2933    188.3794    205.4636   8.1455394611e+01   2.9005138953e+00    0.1355759    0.1200764  -1.65  0.000120346    1.029    0.028
       339 -11.2589     19.9222    199.3869   1.1928118884e+02   2.9340772155e+01    0.4237499    0.1861238 -77.11   0.00208729    2.002    0.500
       340  -9.5575    215.4882    194.5483   7.3959599830e+01   4.2841615769e-01    0.1373753    0.1144138  -6.11 1.194458e-05    1.049    0.046
       341 -10.8750     16.8267    193.1837   1.1949992741e+02   3.1061440647e+01    0.2839286    0.2339365  30.24  0.001430546    1.466    0.318
       342  -9.5361    211.5006    188.5184   7.3554733826e+01   2.1189640424e+00     0.138813     0.119397  -8.29 0.0008103792    1.012    0.012
       343  -9.4614      1.9885    187.9930   1.2241559857e+02   3.3542776098e+01    0.1483136    0.1151251  84.15 0.0005505168    1.002    0.002
       344 -11.1901     16.5255    184.5454   1.1889792367e+02   3.3109342206e+01    0.4239405    0.1891775 -77.36  0.001907185    1.926    0.481
       345 -10.0924     14.7018    180.6575   1.1900927706e+02   3.4193285690e+01    0.2162371    0.1516222 -65.65 0.0006555116    1.355    0.262
       346 -10.1217    168.4829    184.2342   8.1720370515e+01   1.0434843093e+01    0.3419759    0.2221957  70.33  0.001307447    3.052    0.672
