#   1 NUMBER                 Running object number                                     
#   2 MAG_AUTO               Kron-like elliptical aperture magnitude                    [mag]
#   3 X_IMAGE                Object position along x                                    [pixel]
#   4 Y_IMAGE                Object position along y                                    [pixel]
#   5 X_WORLD                Barycenter position along world x axis                     [deg]
#   6 Y_WORLD                Barycenter position along world y axis                     [deg]
#   7 A_WORLD                Profile RMS along major axis (world units)                 [deg]
#   8 B_WORLD                Profile RMS along minor axis (world units)                 [deg]
#   9 THETA_WORLD            Position angle (CCW/world-x)                               [deg]
#  10 FWHM_WORLD             FWHM assuming a gaussian core                              [deg]
#  11 ELONGATION             A_IMAGE/B_IMAGE                                           
#  12 ELLIPTICITY            1 - B_IMAGE/A_IMAGE                                       
         1 -14.9260    159.7620     42.6795   2.9027351168e+02   6.3171143579e+00   0.06526843   0.04496153 -54.97  0.003955487    1.453    0.312
         2 -14.7476    172.3948      9.7821   2.8992311738e+02   6.6162035387e+00   0.06310338   0.05350285   9.27   0.00464464    1.225    0.184
         3 -12.3819    189.8694     14.6585   2.8974667698e+02   6.4530814499e+00   0.02063055   0.01163019 -71.49  0.001729552    2.068    0.516
         4 -10.7161    150.9864    242.5496   2.9159471990e+02   4.0790986885e+00   0.01232593  0.008488922 -43.58 0.0007055891    1.512    0.339
         5 -14.0062    195.9082    236.3399   2.9102791875e+02   3.8755719856e+00   0.03972198   0.01857577 -47.23   0.00342643    2.211    0.548
         6 -14.1961    196.7374    245.5961   2.9107441995e+02   3.7643620176e+00   0.04957035   0.02857045  20.32   0.00468163    1.843    0.458
         7 -12.7011    176.2558    249.4016   2.9133869399e+02   3.8460152361e+00   0.02195906   0.01836992 -31.42 0.0007625601    1.266    0.210
         8 -13.1240    179.5982    243.1827   2.9126155741e+02   3.8968937675e+00   0.03025173   0.01865865 -83.66  0.002794681    2.174    0.540
         9 -20.2120     79.7158    179.6637   2.9205330954e+02   5.2359396149e+00    0.8695176    0.3452145 -64.02   0.06866824    2.679    0.627
        10 -12.7493    161.6254    197.7155   2.9119691414e+02   4.5283441638e+00   0.02205648     0.018076  72.48  0.001818747    1.391    0.281
        11  -9.5716     23.0381    204.6414   2.9287366972e+02   5.2944696049e+00   0.01714068  0.008655508 -28.33  0.001284572    3.224    0.690
        12 -12.3911    138.0536    198.6012   2.9148017620e+02   4.6623477962e+00   0.03174587   0.01671294  53.40  0.002361573    2.386    0.581
        13 -11.3054     21.8627    239.9089   2.9310088763e+02   4.8967346282e+00   0.01053693    0.0086017 -55.59  0.001197479    1.236    0.191
        14 -11.1255      7.6004    237.4791   2.9325440681e+02   5.0113207681e+00  0.006584291  0.006367546  60.78 0.0001449348    1.060    0.056
        15  -9.7984     17.6560    199.7699   2.9290769701e+02   5.3831271766e+00  0.006637689  0.005031173 -12.34 0.0006876101    1.548    0.354
        16 -14.3714    207.5219    178.2538   2.9053762973e+02   4.4704734144e+00   0.05407634   0.03636181 -68.81  0.004407844    1.602    0.376
        17 -13.8958    195.6209    171.0224   2.9063378168e+02   4.6263183224e+00   0.03952551   0.02310323 -76.36  0.002872053    2.132    0.531
        18 -12.2819    203.0914    172.3359   2.9055376615e+02   4.5654769603e+00   0.01715453   0.01351274 -73.64  0.001143373    1.372    0.271
        19 -10.9078     33.3911    187.7116   2.9264892551e+02   5.4258339128e+00   0.02411131   0.01983557 -28.05  0.002752747    1.310    0.236
        20 -12.4724     31.0730    182.2083   2.9264293705e+02   5.5031153530e+00   0.01903965    0.0117384  27.70 0.0004473468    1.584    0.369
        21 -12.0144     28.2028    179.5948   2.9266098129e+02   5.5505817860e+00    0.0176159   0.01213222  -1.69  0.001013246    1.800    0.444
        22 -11.8999    123.4304    185.0004   2.9156995414e+02   4.9077796912e+00   0.01675038    0.0122391  58.44 0.0006724845    1.553    0.356
        23  -9.8125     13.6093    233.4053   2.9315891583e+02   5.0215733547e+00  0.006765753  0.006035786 -23.41 0.0001895298    1.174    0.148
        24 -13.2875    189.7320    250.0734   2.9118409962e+02   3.7558834660e+00   0.07354423   0.01641292  26.07  0.004210695    4.868    0.795
        25 -12.6973    185.7322    167.9587   2.9073165042e+02   4.7220363066e+00   0.02455729   0.01242347 -63.64  0.002107103    2.061    0.515
        26 -12.9729    199.1875    222.6053   2.9090578540e+02   4.0129897262e+00   0.02224452   0.01129159  37.19  0.001371102    1.884    0.469
        27 -11.3265     26.1467    172.6107   2.9264292146e+02   5.6432633179e+00   0.01883334   0.01107988  34.81   0.00103248    1.628    0.386
        28 -12.0179    230.0816    166.4115   2.9019975822e+02   4.4679020244e+00   0.01383323  0.009193458 -89.15  0.001328948    1.995    0.499
        29 -12.0207    201.2614    165.1760   2.9053169546e+02   4.6587820980e+00   0.01845194   0.01245018  74.96  0.001087324    1.999    0.500
        30 -11.0184     20.3656    166.6728   2.9267519207e+02   5.7465924411e+00   0.01242989   0.01070566 -10.47 0.0008194274    1.248    0.198
        31 -11.1913    222.7589    162.1248   2.9025985387e+02   4.5619516135e+00   0.01647848   0.01044204  87.35  0.001135344    2.262    0.558
        32 -14.4729    163.1580    157.5004   2.9093407517e+02   4.9802290660e+00   0.03486307   0.02845959  44.03  0.003392393    1.230    0.187
        33  -9.7957     26.2395    227.3832   2.9297352157e+02   5.0139153516e+00  0.006996973  0.004770097 -35.25 0.0006925725    1.639    0.390
        34 -14.8391    143.8086    144.0364   2.9108030012e+02   5.2530923871e+00   0.05211831   0.03171699 -78.51  0.004604578    2.066    0.516
        35 -14.5853    152.0514    144.5597   2.9098624536e+02   5.1966397820e+00   0.03738972   0.02616202 -66.24  0.003954429    1.500    0.333
        36 -12.4322    134.6228    108.6198   2.9097289120e+02   5.7154699816e+00   0.04815287  0.007773467 -62.79  0.002347118    6.938    0.856
        37 -15.0172    134.4827    146.6229   2.9120608660e+02   5.2804854137e+00    0.0699101   0.03342016 -71.23  0.005381689    2.588    0.614
        38 -14.4136    135.6762    128.2907   2.9108034498e+02   5.4834461670e+00   0.08657294   0.01938942 -64.80  0.004667537    5.780    0.827
        39 -10.2822     22.9702    156.2866   2.9258144470e+02   5.8499650711e+00  0.009390107  0.008359237  23.61 0.0004816762    1.105    0.095
        40 -10.5522     13.2680    155.8474   2.9269338827e+02   5.9140151329e+00   0.01264994   0.00832907 -11.69 0.0007870783    2.029    0.507
        41 -11.2340    192.2798    153.8747   2.9056865866e+02   4.8434059393e+00   0.01548398  0.007657201 -54.11  0.001387449    1.979    0.495
        42 -10.3784     17.9461    153.4794   2.9262376488e+02   5.9127466490e+00   0.01269653   0.00854264 -42.12 0.0007737505    1.568    0.362
        43 -13.3033    174.0245    148.6881   2.9075225274e+02   5.0147366663e+00   0.02023647   0.01830917  69.11  0.001440554    1.181    0.154
        44 -10.4120      7.4990    149.6833   2.9272416297e+02   6.0198377866e+00   0.01099898  0.007893801  -8.16 0.0006615638    1.704    0.413
        45 -10.8055    182.0193    148.9237   2.9065942860e+02   4.9630528684e+00    0.0109435  0.007740428  62.28 0.0007142642    1.686    0.407
        46 -12.0931     27.6428    145.4102   2.9246025339e+02   5.9463655639e+00   0.01843837    0.0155657  -5.85  0.001152236    1.283    0.221
        47 -12.3939    175.5108    142.0006   2.9069396824e+02   5.0823139581e+00   0.01327246  0.008743515  43.72 0.0005576717    1.537    0.349
        48 -10.4404      3.6878    138.4088   2.9270081593e+02   6.1724028392e+00   0.01188401  0.007357971 -41.45 0.0002928376    1.740    0.425
        49 -11.8676    147.9875    133.7161   2.9096812309e+02   5.3458776883e+00  0.009491825  0.008589419  30.93 0.0004052206    1.080    0.074
        50 -13.4740    160.3644    128.1307   2.9078805888e+02   5.3341395211e+00   0.02200951   0.01871513 -60.82  0.001924842    1.200    0.166
        51 -10.8156     16.9197    225.2328   2.9307045537e+02   5.0952753850e+00  0.008879758  0.006511356 -46.97 0.0007123993    1.388    0.280
        52 -12.8820     22.7840    220.1536   2.9297054972e+02   5.1179291677e+00   0.01935303   0.01117024 -46.49  0.001681526    1.787    0.440
        53 -11.2730     28.6598    218.3365   2.9289023239e+02   5.1030511597e+00   0.02604403   0.01131991 -32.68  0.001710544    4.172    0.760
        54 -11.4695    126.3168    250.6055   2.9193426079e+02   4.1373893564e+00    0.0192648  0.005586434  31.08  0.001357326    3.084    0.676
        55 -11.7058     16.3727    250.1448   2.9322748078e+02   4.8126029540e+00  0.009541661  0.007804316 -56.79  0.001082348    1.235    0.191
        56 -11.3204     16.2547    208.9864   2.9298001959e+02   5.2858366849e+00    0.0111319  0.007187361 -40.00  0.001102915    1.680    0.405
        57 -12.9451     11.3541    206.0798   2.9302026393e+02   5.3489975959e+00   0.03109872   0.01674915  22.91   0.00227607    1.919    0.479
        58 -10.8566    205.3176    110.2361   2.9014876410e+02   5.2636612690e+00   0.01434138  0.009505985  18.46  0.001039642    1.590    0.371
        59 -11.7683    168.7604    202.2796   2.9114058348e+02   4.4323338537e+00   0.01264543  0.009810494  69.28 0.0007719756    1.509    0.337
        60 -12.6891    147.4626    189.1208   2.9131159899e+02   4.7135764859e+00   0.02295173   0.01346168  -3.90   0.00193535    2.616    0.618
        61 -13.1863    156.1940    190.8110   2.9121893996e+02   4.6407756649e+00   0.02603677   0.01710514  61.70  0.001922263    1.897    0.473
        62 -11.6518     26.9034     98.1565   2.9218193095e+02   6.4930595491e+00   0.02105846   0.01783769  -1.89  0.002352991    1.267    0.210
        63 -13.5144    154.3193    185.9493   2.9121146645e+02   4.7080152196e+00   0.03237932   0.01524046  38.04  0.002843906    2.035    0.508
        64 -12.5674    154.3127    195.9757   2.9127252956e+02   4.5930387526e+00   0.02923394   0.01735839  85.82  0.002478979    2.682    0.627
        65 -13.3581    157.7324    202.6357   2.9127271996e+02   4.4957206545e+00   0.03171921   0.02279993  66.27  0.002736053    1.691    0.409
        66 -11.9088     46.7779     92.5591   2.9191290018e+02   6.4362147068e+00   0.02278554   0.01325786   9.77  0.002048718    2.167    0.539
        67 -11.2161     41.8152     92.0886   2.9196871108e+02   6.4718502250e+00   0.01729189   0.01097836  85.28  0.001033252    2.273    0.560
        68 -12.2978    163.8384    203.0566   2.9120331524e+02   4.4535385259e+00   0.01609989   0.01448097  69.95 0.0003928905    1.194    0.162
        69 -10.3320    103.8681     81.9312   2.9117338985e+02   6.2095986024e+00  0.009634235   0.00864577 -14.78 0.0003418792    1.169    0.144
        70 -10.6215    142.9858     80.2983   2.9070138952e+02   5.9889397360e+00  0.009369419  0.008655296  22.25 0.0004957183    1.063    0.060
        71 -11.6438    149.0089     35.7047   2.9035786601e+02   6.4629248590e+00    0.0321573   0.01274199  47.57  0.002343506    3.086    0.676
        72 -14.4092    148.8710     57.4191   2.9049218982e+02   6.2150520486e+00   0.05505932   0.04644947 -35.49 0.0009829288    1.237    0.192
        73  -9.6156    159.6750    247.7453   2.9152391260e+02   3.9663924587e+00  0.006699981  0.005062443 -17.50 0.0002598373    1.548    0.354
        74 -13.1610    163.4489     34.1934   2.9017809208e+02   6.3916759678e+00   0.02080942   0.01862208  36.19  0.000845362    1.097    0.088
        75 -10.5383     13.6430     59.9213   2.9210617640e+02   7.0122202727e+00  0.009206007  0.008444298 -71.00 0.0004517741    1.133    0.117
        76 -12.0204    168.0090    242.1613   2.9139184153e+02   3.9794867911e+00   0.01862955   0.00992022 -65.26  0.001206966    1.996    0.499
