#   1 NUMBER                 Running object number                                     
#   2 MAG_AUTO               Kron-like elliptical aperture magnitude                    [mag]
#   3 X_IMAGE                Object position along x                                    [pixel]
#   4 Y_IMAGE                Object position along y                                    [pixel]
#   5 X_WORLD                Barycenter position along world x axis                     [deg]
#   6 Y_WORLD                Barycenter position along world y axis                     [deg]
#   7 A_WORLD                Profile RMS along major axis (world units)                 [deg]
#   8 B_WORLD                Profile RMS along minor axis (world units)                 [deg]
#   9 THETA_WORLD            Position angle (CCW/world-x)                               [deg]
#  10 FWHM_WORLD             FWHM assuming a gaussian core                              [deg]
#  11 ELONGATION             A_IMAGE/B_IMAGE                                           
#  12 ELLIPTICITY            1 - B_IMAGE/A_IMAGE                                       
         1 -13.7619      4.4893      9.7836   1.2747556666e+02   7.4937211664e+01     2.645767    0.9971787 -52.14   0.01282427    1.941    0.485
         2 -14.3180    199.8755     17.0969   6.5514933751e+01   3.2797813153e+01     2.778077       1.5311  25.09   0.01183457    2.665    0.625
         3 -11.8919     80.6691    247.9230   1.3809758309e+02   1.6185977085e+01    0.4953418    0.1700407  47.38   0.00263698    2.392    0.582
         4 -11.2149    249.5213    248.3093   1.0859066504e+02  -4.1130328572e+00    0.3281577    0.1204984 -31.84  0.001945075    3.070    0.674
         5 -10.8992    125.9528    250.2221   1.2994659498e+02   1.0543869273e+01    0.2556178    0.1146906  29.28    0.0014676    1.827    0.453
         6 -12.1627    128.3514    244.4901   1.2894587936e+02   1.1008686927e+01    0.3773097    0.1775024  33.17  0.002241193    1.603    0.376
         7 -11.9295     99.2023    248.7256   1.3474005472e+02   1.3953362891e+01    0.4174676    0.2148866  40.56   0.00225648    1.441    0.306
         8 -14.5544     32.1749    247.4379   1.4682078165e+02   2.1213014909e+01      9.87425     2.948136  21.49   0.02932685   10.292    0.903
         9 -14.7794     49.7724    219.8738   1.4217179001e+02   2.3988228031e+01     1.705703     1.509349  46.18  0.009848393    1.178    0.151
        10 -11.8116    120.1859    238.9892   1.2993572721e+02   1.2785892234e+01    0.2676205    0.1959077  83.51  0.001824247    2.093    0.522
        11 -10.6993     69.1331    234.9647   1.3937046126e+02   1.9433523717e+01    0.2358735    0.1998628  66.65  0.001405571    1.205    0.170
        12 -11.7402    139.1679    248.5568   1.2736326000e+02   9.1286115274e+00    0.3419203    0.2315264 -50.15  0.002475447    2.006    0.501
        13 -11.0340     75.6652    242.5137   1.3865170563e+02   1.7545997171e+01    0.2322975     0.141048  61.50  0.000942014    1.662    0.398
        14  -9.1454    180.2987    232.6497   1.1797460345e+02   5.8254515810e+00    0.1008122     0.080918  47.11 0.0007036298    1.688    0.408
        15  -9.9854    229.7087    230.0632   1.0909253021e+02  -1.5752299347e-01     0.150249    0.1074088   2.71 0.0006174617    1.120    0.107
        16 -11.3428    149.8622    229.4415   1.2322538294e+02   1.0267322706e+01    0.4206155    0.1098122  34.92  0.001754011    2.985    0.665
        17 -10.3466     32.8842    228.5429   1.4589846472e+02   2.4168008150e+01    0.1986558    0.1600193  57.48 0.0005980631    1.088    0.081
        18 -10.5892     35.1435    225.1732   1.4531318927e+02   2.4522136558e+01    0.2649772    0.1799249  23.78   0.00127539    1.608    0.378
        19 -15.8793      6.9028    217.6843   1.5038137194e+02   2.8266183897e+01     8.559953     1.513344 -78.04   0.02772448    5.141    0.805
        20 -11.5947     84.8855    219.1706   1.3503397422e+02   2.0196471576e+01     1.138327   0.01046533  40.92  0.003324121    6.303    0.841
        21  -9.4120     94.5841    216.7044   1.3282055275e+02   1.9421220483e+01    0.2571904    0.1220453  55.38  0.001269482    2.448    0.591
        22  -8.8954    152.6867    213.0449   1.2057289951e+02   1.2182304387e+01     0.153319    0.1314266  16.39 0.0003402373    1.096    0.088
        23 -10.2409    193.2819    195.4232   1.1003120873e+02   8.7644359831e+00    0.6213917    0.3460912 -59.02  0.001981495    8.104    0.877
        24 -11.5408     67.8459    195.9180   1.3659259039e+02   2.6357097599e+01    0.3332965    0.2309669 -39.76  0.001267417    1.956    0.489
        25 -11.6790     73.0025    188.5976   1.3474162015e+02   2.7152388652e+01    0.2497929    0.2233665 -43.74 0.0006742465    1.352    0.261
        26  -9.1349    120.0457    188.2376   1.2402408740e+02   2.0904422113e+01    0.2046889    0.1421337  15.40  0.001137354    1.606    0.377
        27  -9.0421    125.5446    186.2316   1.2251615154e+02   2.0450844202e+01    0.4879242    0.1347188  27.74  0.001111956    8.514    0.883
        28 -10.9899     81.9101    176.3945   1.3132727758e+02   2.8458267855e+01    0.2215993    0.2118917  50.23 0.0003715585    1.086    0.079
        29 -13.2260     69.3775    173.9715   1.3407568350e+02   3.0522550882e+01    0.4627831    0.2688437 -41.02  0.001779334    2.316    0.568
        30 -12.1241     88.5563    167.3010   1.2855736348e+02   2.9431480950e+01     0.827852    0.4918663  50.73  0.004255742    1.682    0.405
        31 -12.9948     67.5432    144.7877   1.3097815643e+02   3.7091505697e+01     1.181537    0.6555866  78.43  0.005057715    2.661    0.624
        32 -12.4318     57.9453    131.6056   1.3186137781e+02   4.1309542900e+01       1.6595    0.5959224 -80.71  0.004390758    6.457    0.845
        33 -10.0051    100.6952    151.2930   1.2307827681e+02   3.1038693609e+01    0.2605189    0.2539406 -27.54 0.0008209083    1.089    0.082
        34  -9.3413    103.3580    147.0588   1.2166481127e+02   3.1530258489e+01     0.275866    0.2009722 -15.43 0.0007797593    1.852    0.460
        35 -11.9606     89.5811    150.5421   1.2586837371e+02   3.2844583034e+01    0.2691481    0.2387152 -21.44  0.001604257    1.292    0.226
        36 -11.6773     41.3483    206.4872   1.4307201996e+02   2.7218894570e+01    0.5500017    0.2800146 -61.91 0.0002677482    2.225    0.551
        37  -9.6168    134.2535    147.2654   1.1389168230e+02   2.6354847423e+01    0.4340892    0.1256809 -51.80  0.001330155    4.315    0.768
        38  -8.6945    192.1854    144.1837   1.0052474999e+02   1.6458627019e+01    0.1669825    0.1576401 -26.13 0.0003942169    1.288    0.224
        39  -9.7487    111.3680    136.4929   1.1758888438e+02   3.2495668755e+01    0.3081584    0.2105651 -18.45  0.001236427    2.040    0.510
        40 -10.4535     98.8431    133.7874   1.2046768676e+02   3.5133586575e+01    0.2570927    0.2159287 -19.38 0.0007087555    1.366    0.268
        41 -11.2928     50.0528    130.0306   1.3398020391e+02   4.2569668045e+01    0.2934192    0.2353189  71.32 0.0006402549    1.235    0.191
        42  -9.9146     44.6372    130.3062   1.3562376196e+02   4.3071673923e+01    0.1413291   0.08683689  61.29 0.0007038556    1.738    0.425
        43 -13.5476     44.7040    229.5475   1.4370865203e+02   2.2864413766e+01    0.7415377    0.3281248  36.22  0.001866243    1.731    0.422
        44  -9.5926    107.9882    123.5586   1.1584623339e+02   3.5881703916e+01    0.1971947    0.1914527 -30.45 0.0003198707    1.037    0.035
        45 -11.1300    168.2029    113.3117   9.8305887485e+01   2.6270231001e+01    0.3265888    0.2988495 -57.38 0.0007303988    1.318    0.241
        46 -10.9758     53.1094    110.2016   1.3002709629e+02   4.7021376870e+01     0.312946    0.1887725 -71.65  0.001023235    1.631    0.387
        47 -11.1961     44.3716    109.7660   1.3284785781e+02   4.8072134897e+01    0.3282424    0.2418901  67.22  0.001801263    1.459    0.315
        48 -11.6766    105.8857    247.2417   1.3337985109e+02   1.3372951725e+01    0.2657389    0.2160309  -7.52  0.001303108    1.613    0.380
