#   1 NUMBER                 Running object number                                     
#   2 MAG_AUTO               Kron-like elliptical aperture magnitude                    [mag]
#   3 X_IMAGE                Object position along x                                    [pixel]
#   4 Y_IMAGE                Object position along y                                    [pixel]
#   5 X_WORLD                Barycenter position along world x axis                     [deg]
#   6 Y_WORLD                Barycenter position along world y axis                     [deg]
#   7 A_WORLD                Profile RMS along major axis (world units)                 [deg]
#   8 B_WORLD                Profile RMS along minor axis (world units)                 [deg]
#   9 THETA_WORLD            Position angle (CCW/world-x)                               [deg]
#  10 FWHM_WORLD             FWHM assuming a gaussian core                              [deg]
#  11 ELONGATION             A_IMAGE/B_IMAGE                                           
#  12 ELLIPTICITY            1 - B_IMAGE/A_IMAGE                                       
         1 -14.9796    159.4965     43.5373   8.3032009548e+01   3.9672358027e+01     1.437036     1.060408 -18.20  0.003918228    1.431    0.301
         2 -13.8012    170.1390     15.2669   7.1987149689e+01   4.0327479963e+01    0.9064586    0.5529836  79.18  0.003932118    1.776    0.437
         3 -14.5643    172.3439      8.4847   6.9518635219e+01   4.0418513020e+01     1.147568    0.7304701  71.31  0.004086094    1.500    0.333
         4 -12.7685    189.4718     13.8328   6.8942365400e+01   3.5492727940e+01    0.4124329    0.2470945 -39.38  0.001681079    1.679    0.404
         5 -10.7836    151.0757    241.5527   1.2891320279e+02   6.7810966875e+00    0.1565734    0.1356197  44.99 0.0005722672    1.109    0.098
         6 -20.2030     80.0392    178.0558   1.3442664189e+02   2.8795727532e+01     15.51873     6.359746 -65.31   0.07110987    2.461    0.594
         7 -12.7591    210.1514    187.4418   1.0991305394e+02   4.3266671856e+00    0.4623002    0.2972986 -70.14  0.001735113    4.686    0.787
         8 -13.7328    207.0722    178.0131   1.0866748459e+02   6.2870164548e+00    0.5797256    0.4632321   3.30  0.002845241    1.275    0.215
         9 -11.9335    203.6251    171.4317   1.0800276016e+02   7.9549769756e+00    0.4631629    0.2507063  34.13  0.001966442    1.848    0.459
        10 -11.3972    123.6422    184.9630   1.2636911024e+02   2.0578503439e+01    0.2500896     0.170427  54.58 0.0006365263    1.369    0.270
        11 -13.8589    174.1338    192.2313   1.1751669345e+02   1.0238926964e+01    0.6443276    0.3765941 -56.30  0.002835141    2.346    0.574
        12 -10.9307     16.3780    249.9110   1.5127991672e+02   2.3357582650e+01    0.1252666   0.06964783  89.35 0.0009693758    1.504    0.335
        13 -12.2185    200.0361    179.7284   1.1030740784e+02   7.3575576619e+00    0.3531812    0.2261694 -58.43   0.00165314    2.482    0.597
        14 -13.7022    195.6595    170.7204   1.0936599778e+02   9.6170020804e+00    0.6499803    0.4427197 -47.08  0.002111294    1.710    0.415
        15 -11.9802    194.3024    165.6555   1.0860129195e+02   1.0707530833e+01    0.3031619    0.2372911  74.75 0.0008603912    1.818    0.450
        16 -10.2462     28.5849    240.4332   1.4901346277e+02   2.3612370071e+01    0.1021364   0.06632343  68.98 0.0002377091    1.087    0.080
        17 -11.7321    203.5106    175.5111   1.0883632168e+02   7.3449298222e+00    0.2450833    0.2236392  -1.39 0.0008539899    1.090    0.082
        18 -10.9586     21.8387    238.6762   1.4994527814e+02   2.4606954857e+01    0.1354683   0.09769378 -89.34 0.0006041953    1.289    0.224
        19 -11.8728    127.0168    250.3599   1.3396209488e+02   9.2497248882e+00    0.1526668    0.1122301  45.31  0.001096241    1.128    0.114
        20 -13.4995    178.0378    171.2188   1.1289682508e+02   1.2985666965e+01    0.5019289    0.3604151 -50.89  0.002639181    1.611    0.379
        21 -10.1896    145.0121    234.9969   1.2916609389e+02   8.6709326772e+00    0.1212133    0.1149847 -85.64 0.0003766956    1.267    0.211
        22 -11.9065    201.2241    164.7568   1.0709416950e+02   9.4810858216e+00    0.4635595    0.3155035 -48.08  0.001755118    1.744    0.427
        23 -11.1176    222.4660    161.6766   1.0254238979e+02   5.7971575622e+00    0.2605733     0.205416 -59.94 0.0008296627    1.833    0.454
        24 -14.8294    143.3901    143.8602   1.1462608862e+02   2.4997048548e+01     1.133735    0.5275282 -54.67  0.004356969    2.531    0.605
        25 -14.6700    135.6144    129.7160   1.1328793286e+02   2.9441119706e+01     1.988905    0.4177892 -49.35    0.0049872    5.421    0.816
        26 -11.0478     14.3705    155.2744   1.4578162096e+02   4.1040102754e+01    0.1820632    0.1402236 -55.53 0.0008867662    1.525    0.344
        27 -11.3741     18.1791    153.2363   1.4479411828e+02   4.1139741029e+01    0.2569396    0.1426287 -51.23  0.001444548    2.100    0.524
        28 -10.0555     17.4061    223.4535   1.4984389203e+02   2.7625640856e+01   0.09605104   0.07394046  80.87 0.0005402619    1.178    0.151
        29 -12.8128    174.1646    148.9697   1.0909785994e+02   1.7708247442e+01    0.4046364    0.3197731 -40.67  0.001348047    1.315    0.239
        30 -11.1413    218.3628    219.1837   1.1404790149e+02  -1.3014465220e+00    0.1509564     0.110471 -39.77 0.0009521562    1.736    0.424
        31 -12.7314    134.2245    244.2038   1.3209596314e+02   9.0325254348e+00    0.3849299    0.1910792 -44.24  0.002158707    2.818    0.645
        32 -12.6857     27.3560    145.4220   1.4199829521e+02   4.1978263500e+01    0.3229179    0.2777636  79.39  0.001351565    1.146    0.127
        33 -10.6525     30.9032    211.0803   1.4688631670e+02   2.8437773153e+01    0.1634246   0.09689837  67.15 0.0002919264    1.343    0.255
        34 -13.0208     11.6995    206.0462   1.4982233956e+02   3.1279931590e+01    0.4189249    0.2252389  35.80  0.002318209    2.124    0.529
        35 -13.1822    153.9061    185.5734   1.2033818025e+02   1.5083775403e+01    0.4383825    0.2685344  46.38  0.002121788    1.474    0.322
        36 -12.7900    155.1115    190.1653   1.2086956373e+02   1.4066450457e+01    0.3489552    0.2500109  53.17  0.001954311    1.330    0.248
        37 -15.3680    134.1607    146.6828   1.1729417411e+02   2.6235082175e+01     1.552944    0.6895912 -54.03  0.005674694    2.486    0.598
        38 -12.9999    160.3840    128.2774   1.0731700148e+02   2.4547577740e+01    0.4446481    0.3752624 -42.80  0.001791026    1.200    0.166
        39 -13.8758    156.1704    199.1109   1.2211046293e+02   1.2368003881e+01    0.7957906    0.5112319 -77.55  0.003751649    2.774    0.639
        40 -13.0285    164.2864    157.6526   1.1298669772e+02   1.8133458302e+01    0.3686297    0.2664206  49.09 0.0008449175    1.340    0.254
        41 -12.2464    163.8018    202.8572   1.2124466375e+02   1.0405379347e+01    0.3125304    0.2596732 -82.40 0.0008018051    1.565    0.361
        42 -10.6302     22.9436    156.3151   1.4406535001e+02   4.0060739633e+01    0.1520238    0.1253341  81.29 0.0004961909    1.106    0.096
        43 -13.1070    161.1422    197.6856   1.2092589879e+02   1.1714867938e+01    0.4308051    0.3300101 -72.73  0.002440582    1.748    0.428
        44 -10.7991    205.4034    110.1249   9.3649049028e+01   1.7716426579e+01    0.2578704    0.1998434  36.74 0.0006739574    1.321    0.243
        45 -11.4552    139.3941    201.2033   1.2566890658e+02   1.4949078871e+01    0.2866632    0.2620381 -42.92 0.0005627404    1.292    0.226
        46 -10.4875     22.5567    107.4695   1.3838106081e+02   5.0757727841e+01    0.1734101    0.1165436  -2.19  0.001020468    2.298    0.565
        47 -11.3687    136.2236    196.8351   1.2564045467e+02   1.6252987724e+01    0.3233398    0.2258225  83.27  0.001730656    1.932    0.482
        48 -13.3325    180.4486    193.4341   1.1652025669e+02   8.8876897854e+00    0.4337894    0.4020125  87.66  0.001580727    1.336    0.251
        49 -11.6821     28.1860     96.6816   1.3505025110e+02   5.2683356901e+01    0.3382931    0.1928193   2.35  0.001714191    2.981    0.664
        50 -12.2591    169.8548    195.3560   1.1886898512e+02   1.0518945532e+01    0.2651467    0.2374796  31.61 0.0007765839    1.052    0.050
        51 -12.8423     47.4150     92.6488   1.2855107109e+02   5.1704360423e+01    0.4057603    0.2769168  15.18  0.002285784    1.953    0.488
        52 -14.0778    165.9797    188.9556   1.1853091361e+02   1.2279229261e+01     0.740529    0.4026159  45.64  0.003622748    1.651    0.394
        53 -14.7664    174.4801    185.8093   1.1632155555e+02   1.1219105667e+01    0.8621749    0.5970032 -56.45  0.004582475    1.827    0.453
        54 -10.6209    103.7144     81.9425   1.0906332454e+02   4.5648297175e+01    0.2223281     0.192597  22.35 0.0002900931    1.246    0.198
        55 -12.7875    138.1626    242.1688   1.3119699229e+02   8.7157666042e+00    0.3304358    0.2713304 -78.26  0.001647055    1.492    0.330
        56 -14.3704    148.7926     58.0537   9.0015060326e+01   4.0166851944e+01     1.094052    0.8495281  -9.16 0.0009569254    1.423    0.297
        57 -11.1450    160.4597    247.4347   1.2802953607e+02   4.5164997391e+00    0.2792831    0.1596584  25.20 0.0009547116    2.259    0.557
        58 -13.2203    163.4772     34.9021   7.9455098982e+01   3.9804938889e+01    0.4299976    0.4172174  -5.91 0.0008690883    1.048    0.046
        59 -10.6791     13.6433     59.9275   1.3235041245e+02   6.1728029350e+01    0.1682104    0.1177017 -58.96 0.0004597953    1.131    0.116
        60 -11.9140    149.8647     36.0091   8.2388914517e+01   4.3100805998e+01    0.5520301    0.3116279  80.73  0.002091934    2.749    0.636
        61  99.0000    139.7292    249.9543   1.3180136270e+02   7.3874768340e+00    0.4601444    0.3353331 -71.06  0.003248301    1.805    0.446
        62 -10.1892     12.4250    243.4972   1.5156931755e+02   2.4770727636e+01   0.09534256   0.06548733  72.13 9.841282e-05    1.048    0.046
