#   1 NUMBER                 Running object number                                     
#   2 MAG_AUTO               Kron-like elliptical aperture magnitude                    [mag]
#   3 X_IMAGE                Object position along x                                    [pixel]
#   4 Y_IMAGE                Object position along y                                    [pixel]
#   5 X_WORLD                Barycenter position along world x axis                     [deg]
#   6 Y_WORLD                Barycenter position along world y axis                     [deg]
#   7 A_WORLD                Profile RMS along major axis (world units)                 [deg]
#   8 B_WORLD                Profile RMS along minor axis (world units)                 [deg]
#   9 THETA_WORLD            Position angle (CCW/world-x)                               [deg]
#  10 FWHM_WORLD             FWHM assuming a gaussian core                              [deg]
#  11 ELONGATION             A_IMAGE/B_IMAGE                                           
#  12 ELLIPTICITY            1 - B_IMAGE/A_IMAGE                                       
         1 -11.2354    209.6002      1.9930   3.8812111757e+01   3.1942805523e+01    0.5189427    0.4079583   9.81 0.0005177092    1.760    0.432
         2 -15.0174    168.4946     63.8090   6.2359445993e+01   3.4469117328e+01     9.209105     4.535049 -58.10   0.02996326    3.245    0.692
         3 -13.6556    221.4191     37.4186   4.6626606820e+01   2.4944938082e+01     2.117711     0.892065 -48.15  0.008558193    2.310    0.567
         4 -12.6340    233.6452      6.1810   3.7805858396e+01   2.5763804573e+01     1.845266     1.277729 -28.37  0.007995754    1.576    0.366
         5 -14.7562    239.1876     77.6019   5.4441560254e+01   1.4932075847e+01     7.877001     1.185426 -36.52   0.02094153    4.836    0.793
         6 -14.3553    240.4984     29.2799   4.2611706703e+01   2.1490424422e+01     2.575705    0.7958512  58.27  0.009875678    3.232    0.691
         7 -13.2579    241.9306     45.5733   4.6336394489e+01   1.9022801556e+01     1.291769     1.034691  72.14  0.003579546    1.304    0.233
         8 -11.6964    131.5430     19.6606   5.5154753506e+01   5.0006828970e+01    0.6350188    0.4774164 -49.21  0.003081322    1.540    0.351
         9 -11.4365    135.0495     14.6833   5.2639884294e+01   4.9661574529e+01     0.652768    0.3418606 -33.42  0.002974541    2.020    0.505
        10  -9.2141    186.0059     18.7369   4.5901809743e+01   3.6148572591e+01    0.3466354    0.1883214 -48.53  0.001565909    1.907    0.476
        11 -13.2136    191.1946     46.6237   5.3212166687e+01   3.1265974727e+01     2.146114     1.671873 -55.80   0.01098408    1.296    0.228
        12  -9.4239    115.9685     12.5176   5.5812232857e+01   5.4510665196e+01    0.3109381    0.2207064  54.22   0.00129181    1.278    0.218
        13 -11.0307    120.3073      8.8630   5.3432200875e+01   5.3830638590e+01    0.4898116     0.432578 -31.84  0.001355467    1.268    0.211
        14  -9.6633    129.1518      9.4960   5.1881564851e+01   5.1625461519e+01    0.3564416      0.19226 -12.47  0.001290246    2.185    0.542
        15 -10.2196    215.3423      9.0474   4.0065255126e+01   2.9815341811e+01    0.3311141    0.2405374 -66.77 0.0007667415    1.272    0.214
        16 -11.4577    248.4674      2.4099   3.5873526736e+01   2.2813613208e+01    0.3917142    0.2653932  85.31  0.001651526    1.370    0.270
        17 -10.4220    188.9418      2.6671   4.1006951715e+01   3.7041862944e+01    0.2754209    0.2328999 -18.98 0.0008967888    1.384    0.278
        18  -9.8270    182.7849      3.2654   4.1848738350e+01   3.8553447105e+01    0.4480437    0.2402315  82.17  0.001820018    1.826    0.452
        19  -9.1242    172.0236      2.3545   4.2843750843e+01   4.1392016972e+01    0.2668423    0.1780927 -41.51  0.001331589    1.573    0.364
        20 -14.3430    218.1150     71.2063   5.5833552289e+01   2.0813501081e+01     9.835437    0.7243192 -41.40    0.0196687    8.087    0.876
        21 -10.6437     66.3458    143.6863   1.0967958160e+02   3.7806885824e+01    0.4485899    0.3167262  83.38   0.00169425    1.504    0.335
        22 -10.1621    236.1924    174.6926   7.7259224990e+01  -1.9042109483e-01    0.3819318    0.2744392  69.41  0.001443157    2.608    0.617
        23 -10.5449    230.9489    168.0203   7.6812965286e+01   1.7849145593e+00    0.4298453     0.248979 -41.39  0.002074478    1.817    0.450
        24  -9.9700    100.9966    176.0000   1.0619423203e+02   2.5027079104e+01    0.1930283    0.1729572  73.09   0.00113779    1.001    0.001
        25 -10.0774    226.8547    175.4131   7.9093526033e+01   1.3656388194e+00    0.3207602    0.1663853  44.63  0.001479645    1.973    0.493
        26  -8.9784    204.9940    169.0232   8.1926367610e+01   6.5403219197e+00    0.2064042    0.1914696  10.19            0    1.041    0.040
        27  -8.3987     69.8552    165.8661   1.1207228739e+02   3.2088909309e+01    0.1794069    0.1618459 -79.64 0.0002695518    1.127    0.113
        28  -8.8071    208.8932    165.1835   8.0350636667e+01   6.4403804125e+00    0.3594522    0.1927177  60.79  0.001323345    3.226    0.690
        29 -10.1852    116.5312    245.5512   1.1185035069e+02   9.1101618403e+00    0.2166149    0.1814079  56.91 0.0005444181    1.083    0.076
        30 -10.0784    135.3257    241.6316   1.0790876754e+02   6.7922083272e+00    0.3563843    0.1895659  60.14  0.001620871    2.234    0.552
        31  -8.4950    222.9556    145.4445   7.3340163445e+01   7.0429462344e+00    0.2064559    0.1388453  42.96 0.0006403569    1.531    0.347
        32 -11.0930    179.8439    143.2787   8.1442162481e+01   1.6542861710e+01    0.4800811    0.3635131 -79.58  0.001852846    1.934    0.483
        33  -9.4004    211.5515    136.7119   7.3452979671e+01   1.0933182320e+01    0.2804776    0.1410085 -32.97  0.001123597    1.991    0.498
        34 -10.2994    193.6022    143.7575   7.8652321990e+01   1.3472897752e+01    0.5064086    0.2397112  35.64  0.001864291    2.449    0.592
        35  -9.3245    159.0843    142.8226   8.5985582978e+01   2.1140059469e+01    0.2395491     0.213732  84.00  0.001219678    1.270    0.212
        36 -10.3722    154.0844    131.0259   8.4379211653e+01   2.4740621035e+01     0.547661    0.3060662 -69.93   0.00165473    3.915    0.745
        37 -10.5796    160.1113    129.0864   8.2485349805e+01   2.3816039251e+01     0.490273    0.3489764 -31.36  0.002193631    1.529    0.346
        38 -10.9318    136.1477    125.6293   8.7473880056e+01   2.9815429231e+01     1.043437    0.4702438 -61.10  0.003090972    3.736    0.732
        39 -10.1514    129.6743    116.1711   8.6777593569e+01   3.3308810422e+01    0.7666756    0.4103472 -70.35  0.002179049    4.318    0.768
        40  -9.3621    223.1737    127.9369   6.9239305660e+01   1.0024215153e+01    0.2286668    0.1951158 -58.12  0.001215384    1.349    0.259
        41  -9.4369    226.8409    122.4048   6.7279021967e+01   1.0206760228e+01    0.2858188    0.2045483 -25.87 0.0008044655    1.360    0.265
        42  -9.8257    205.6718    122.2331   7.1089020107e+01   1.4852868742e+01     0.297721    0.2371453 -69.83 0.0007457256    1.600    0.375
        43  -8.3732    141.4508    122.4833   8.5357651121e+01   2.9371463215e+01    0.1548544    0.1534499 -48.11 0.0002106165    1.013    0.012
        44 -11.0213    215.2049    116.3225   6.7856626370e+01   1.3797062589e+01    0.8266523    0.3715581 -29.13  0.002997908    2.478    0.596
        45  -8.6305    150.6738    117.8228   8.1893346234e+01   2.8337293240e+01    0.2482469    0.2077922  36.17 0.0002287695    1.235    0.190
        46 -10.1429    168.0698    114.3373   7.6903191623e+01   2.5061194956e+01    0.4731268    0.2543132 -43.37   0.00126208    1.847    0.459
        47 -10.1672    134.8115    111.1244   8.4120557108e+01   3.3323984406e+01      0.65024    0.2169328 -40.66  0.001947896    3.204    0.688
        48  -7.5299    113.6809    113.3004   9.0361247914e+01   3.7234965446e+01    0.1549502    0.1213279  85.13 0.0007023253    1.621    0.383
        49  -9.4656    142.5794    104.8267   8.0429314664e+01   3.2954484083e+01    0.3279238     0.205418  31.03  0.001297327    1.955    0.488
        50  -9.9100    160.8724    117.9550   7.9498921408e+01   2.5983617514e+01    0.3249115    0.2524122 -75.39 0.0005366615    1.652    0.395
        51  -9.9832    123.9522    102.9099   8.4785852934e+01   3.7474520997e+01    0.4270798    0.3155943 -11.90  0.001856265    1.850    0.460
        52  -9.5342    149.6985    100.7391   7.7526427320e+01   3.2170030368e+01    0.3161793     0.276837  23.82 0.0006782534    1.238    0.192
        53 -12.8315    231.8336     54.0811   4.9583668965e+01   2.0153788995e+01    0.8776201    0.5725724  52.16  0.002019741    1.692    0.409
        54  -8.8609     71.9895    239.7648   1.1943528906e+02   1.6567979117e+01    0.1535354   0.07868304  43.40 0.0008826064    1.634    0.388
        55 -11.0381      4.8917     93.7241   1.1971630247e+02   5.5565526920e+01    0.3400695    0.1781355 -64.69  0.001946057    1.420    0.296
        56  -9.4971    135.4415     97.0847   8.0085466946e+01   3.6215095957e+01    0.2920183    0.2292603  57.88 0.0008696153    1.364    0.267
        57 -10.7878    160.8848     94.4239   7.3090150433e+01   3.0782465146e+01    0.7057375    0.3566509  38.90  0.002545605    2.295    0.564
        58  -7.8144     95.9933     93.7735   9.0310329962e+01   4.5038488745e+01    0.1742804    0.1249452  39.15  0.000229833    1.478    0.324
        59 -12.1581    198.7880     72.4446   5.9259521387e+01   2.5346611004e+01     1.304408     0.568026  38.10  0.004079392    3.659    0.727
        60  -9.9285    143.7006     90.4149   7.6039896109e+01   3.5691107110e+01    0.3119361    0.2958311  75.36  0.000728347    1.111    0.100
        61 -10.1920    208.7881     85.3389   6.1044892325e+01   2.0726039872e+01    0.6108016    0.3714284 -65.36  0.002032483    2.328    0.570
        62 -11.2373    159.4367     84.4836   7.0534147245e+01   3.3062787111e+01    0.3886317    0.3273177 -24.59 0.0007695946    1.246    0.197
        63  -9.6040      5.4863     83.4908   1.1798988713e+02   5.7865443612e+01    0.1211203    0.0927781 -64.72 0.0001122465    1.005    0.005
        64  -9.3681    126.9659     77.8754   7.6560631262e+01   4.2061533333e+01    0.4260216    0.2415974 -65.47  0.001383794    3.425    0.708
        65  -7.9085    140.3025     78.2936   7.3221536614e+01   3.8884346690e+01    0.1570169    0.1230956  11.95 0.0002744459    1.573    0.364
        66 -10.4834      9.4232     77.4044   1.1560229980e+02   5.9022203809e+01    0.2932052   0.08900464 -65.53  0.001264619    2.441    0.590
        67  -7.6603    207.2726     74.2641   5.8339902864e+01   2.2948939322e+01    0.1404479    0.1163998  19.49 0.0002259001    1.469    0.319
        68  -9.7252    151.8766     72.7158   6.8697127982e+01   3.7114364045e+01    0.4520585    0.2775262 -67.06   0.00162196    2.632    0.620
        69 -10.2721    111.4713     73.0350   7.9363608186e+01   4.6401137942e+01    0.2595766    0.2485227   0.66 0.0002335218    1.025    0.024
        70 -10.4703    120.7776     69.7199   7.5623587621e+01   4.5025853530e+01    0.5165707    0.3190751 -56.15  0.002048962    2.050    0.512
        71  -9.5970     12.0539    222.6542   1.2884259650e+02   2.6795224053e+01    0.2317029    0.1845044 -71.95  0.001292716    1.554    0.357
        72  -8.8810    228.6583    221.3563   8.7427036477e+01  -5.5138324653e+00    0.1896943    0.1637666  27.05 0.0006829068    1.260    0.207
        73  -9.7520    144.1922     68.5298   6.9184772130e+01   3.9756884890e+01    0.3011665     0.257458 -56.37  0.001113011    1.262    0.207
        74  -9.3077    196.0262     62.9232   5.7070601675e+01   2.7580269810e+01    0.3447601    0.2216633  76.48  0.001500265    1.809    0.447
        75 -10.2502      9.0773     70.1744   1.1436042438e+02   6.0653045179e+01    0.2629707    0.1585332  60.25  0.001440846    2.424    0.587
        76  -8.2419     72.5936     58.4834   8.7060078237e+01   5.6477239578e+01    0.1385602    0.1225409 -27.15 0.0001091997    1.031    0.030
        77 -10.5783    129.7978     56.3861   6.8719472423e+01   4.5331013307e+01    0.3245662    0.2489941  30.25  0.001211264    1.380    0.275
        78  -8.8496    226.7791    204.1688   8.4705220772e+01  -2.9013147110e+00    0.2102407    0.2010256 -68.82   0.00138464    1.582    0.368
        79  -9.2300    159.4320    158.0910   8.9268083452e+01   1.7881008792e+01    0.3208364    0.2481418 -89.11  0.001187315    1.778    0.438
        80 -11.1798    123.2487     38.6472   6.4065563656e+01   4.9632117135e+01    0.4689842    0.3176906  58.87  0.002253089    1.511    0.338
        81  -9.6386    189.8300    150.6082   8.0998087633e+01   1.2976602307e+01    0.3749687    0.2387469  46.95  0.001500904    1.575    0.365
        82  -9.4449     10.9987    205.4929   1.2812642757e+02   3.0234440073e+01    0.1544166   0.09252126  44.46  0.001037314    1.606    0.378
        83  -8.8568     69.5033    181.1182   1.1411218427e+02   2.8676210491e+01    0.1765353    0.1526044  77.87 0.0004373651    1.044    0.042
        84  -8.9499    197.9466     27.5419   4.6860195936e+01   3.2057882565e+01    0.3592488    0.2067364 -26.79    0.0016557    1.871    0.465
        85  -9.1202    151.9744    149.4656   8.9130196537e+01   2.1240596690e+01    0.2894369     0.216616 -79.35  0.001303381    1.802    0.445
        86  -9.5099    149.4074    146.1891   8.9012379601e+01   2.2480860840e+01    0.2908611      0.22519 -80.24 0.0005367428    1.660    0.398
        87  -7.7530    186.6549     25.7457   4.7842468222e+01   3.5173923518e+01    0.1440673    0.1004836  43.10 0.0002910963    1.586    0.370
        88 -10.3466    179.0961     23.9095   4.8359909497e+01   3.7347942911e+01    0.5608963    0.3381909  69.09   0.00239783    1.559    0.358
        89  -9.8386    195.0153    198.6993   8.9719454392e+01   3.4415373311e+00    0.3865243    0.2396979 -65.07  0.001600197    3.384    0.705
        90  -9.1783    215.4999    198.7443   8.5784561518e+01  -2.0246324963e-01    0.2750867    0.1921592  48.33  0.000996061    1.607    0.378
        91 -10.3256    246.2879    196.4592   7.9796438511e+01  -5.0028048940e+00    0.2228467    0.1936617 -12.11 0.0002722038    1.211    0.175
        92  -9.5405    216.0967     17.8663   4.2219224551e+01   2.8657972172e+01    0.2077298    0.1741955 -48.30  0.000501174    1.161    0.138
        93  -9.7386    133.7265    145.5360   9.2657866829e+01   2.5855078418e+01     1.081145    0.2793698 -55.24  0.002501176    6.103    0.836
        94  -7.8879    167.3745     15.4813   4.7481037452e+01   4.1321427513e+01    0.1368036    0.1274432  62.10 0.0002568635    1.059    0.055
        95 -10.4680     69.9969    145.4881   1.0901363423e+02   3.6874595625e+01    0.4086062    0.3432237  58.98  0.001276704    1.195    0.163
        96  -9.0436    215.9987    193.9471   8.4786243853e+01   4.3531121559e-01     0.199246    0.1694337  11.24 0.0002928646    1.020    0.019
        97 -12.2283      3.4729    186.7016   1.2847205264e+02   3.4754154646e+01    0.7652584    0.3130762 -79.76  0.004244313    1.949    0.487
        98  -9.7959    216.4916    189.0252   8.3746197908e+01   1.1050925926e+00    0.2389518     0.222615 -60.33 0.0006989227    1.464    0.317
        99  -9.0120    204.0685    152.7948   7.8596103358e+01   9.5976577413e+00    0.2180386    0.2063771  81.40 0.0007151965    1.280    0.219
       100  -9.3071    209.7475    187.5899   8.4752245929e+01   2.5485908869e+00     0.281792    0.2104848  65.92  0.001433187    2.047    0.511
       101 -10.0138    184.3171    185.1437   8.9340090028e+01   7.7228653178e+00     0.238838    0.2139996  38.87 0.0003226036    1.096    0.088
       102  -8.0847    136.5282    185.4304   9.9642592749e+01   1.6754221331e+01    0.1404602    0.1279793  48.45 0.0001016453    1.030    0.029
       103  -8.5907    220.4738    184.4634   8.2102298158e+01   1.1013633749e+00    0.1355955    0.1182767   8.85 0.0001149062    1.015    0.015
       104  -9.7304     50.5828    169.7120   1.1707548645e+02   3.3698862354e+01    0.4840059    0.2608589 -53.37  0.001815018    2.029    0.507
       105 -13.4612     35.5777    166.7374   1.2018885044e+02   3.6073596444e+01     1.423589     1.054331  -0.10  0.001615905    2.298    0.565
       106 -12.7804     45.9605    160.5331   1.1710191695e+02   3.6355641165e+01    0.8995073    0.7502226 -70.56   0.00252035    1.186    0.157
