#   1 NUMBER                 Running object number                                     
#   2 MAG_AUTO               Kron-like elliptical aperture magnitude                    [mag]
#   3 X_IMAGE                Object position along x                                    [pixel]
#   4 Y_IMAGE                Object position along y                                    [pixel]
#   5 X_WORLD                Barycenter position along world x axis                     [deg]
#   6 Y_WORLD                Barycenter position along world y axis                     [deg]
#   7 A_WORLD                Profile RMS along major axis (world units)                 [deg]
#   8 B_WORLD                Profile RMS along minor axis (world units)                 [deg]
#   9 THETA_WORLD            Position angle (CCW/world-x)                               [deg]
#  10 FWHM_WORLD             FWHM assuming a gaussian core                              [deg]
#  11 ELONGATION             A_IMAGE/B_IMAGE                                           
#  12 ELLIPTICITY            1 - B_IMAGE/A_IMAGE                                       
         1 -12.6332      3.1643     45.8799   1.1799938074e+02   6.5756714660e+01    0.8852091    0.1369861 -48.26  0.003502848    3.691    0.729
         2 -12.8756    202.6033     34.1494   6.0633185589e+01   3.0956238859e+01    0.7938921    0.6442642  85.79  0.004402582    1.062    0.059
         3 -12.7503      4.1295      3.7187   1.0188936131e+02   7.1812304656e+01    0.9520888    0.5462556  24.95  0.006809388    1.666    0.400
         4 -12.9063      2.1603     18.5182   1.0907755396e+02   7.0093207325e+01    0.7186504    0.6092357  35.43  0.005617893    1.935    0.483
         5 -13.4399    220.5549     15.7743   5.5020703457e+01   2.9286390215e+01    0.8109558    0.7237996  74.38  0.003814046    1.362    0.266
         6 -10.3949     97.2283    239.2871   1.2640786963e+02   1.0613368700e+01    0.3742123    0.2781405  75.10  0.001287536    1.389    0.280
         7 -11.3321    183.1336    249.9725   1.0986709165e+02  -5.3601712395e+00    0.5560334    0.2217846  35.79  0.002410409    2.270    0.559
         8 -10.5737    169.2906    248.9043   1.1252616450e+02  -2.9926178537e+00    0.3223338    0.2265232  -4.02 0.0007231898    1.837    0.456
         9 -11.6060    170.4660    243.9971   1.1150981192e+02  -2.3135973067e+00     0.429664    0.2141144  44.46  0.001366639    1.975    0.494
        10 -10.8571    162.3410    250.1821   1.1415768667e+02  -2.1023538214e+00    0.3677856    0.2032755  39.34  0.001722159    1.611    0.379
        11 -11.2841    143.2762    249.1112   1.1797096162e+02   1.1895832514e+00     0.471669    0.2389835  57.94  0.001915653    2.878    0.653
        12 -12.8328    118.5033    237.2335   1.2156100942e+02   7.6086234184e+00    0.9046946    0.8400033 -17.06  0.004387928    1.299    0.230
        13 -11.4366    133.0739    249.1011   1.2011019112e+02   2.8579920482e+00    0.7255956    0.2299695  42.62  0.002737626    2.749    0.636
        14 -11.2262    115.1540    250.2229   1.2401387397e+02   5.5397715244e+00    0.7037059    0.3378845  33.82   0.00318552    2.066    0.516
        15 -10.8398    109.6636    247.7873   1.2485076150e+02   6.8983823190e+00    0.3577287    0.2784514  56.77  0.001747857    1.166    0.142
        16 -12.2560    124.8113    248.1665   1.2171875502e+02   4.3837331154e+00    0.8396521    0.5481356 -64.10   0.00446683    1.779    0.438
        17 -10.6589    125.7863    243.4083   1.2085861645e+02   5.1590138303e+00    0.2860353    0.2078746  31.52  0.001065256    1.364    0.267
        18 -11.1146     99.9395    247.7516   1.2687727948e+02   8.4397731876e+00    0.4812593     0.365076  50.67  0.002843023    1.147    0.128
        19 -11.1720    113.4017    230.9852   1.2179602866e+02   9.7628985659e+00    0.4597667    0.3505946 -22.58  0.002130362    1.882    0.469
        20 -11.9661    102.8505    230.4509   1.2404221367e+02   1.1605184198e+01     0.877354     0.472119  28.80   0.00320928    2.213    0.548
        21  -9.8558     81.3865    248.1684   1.3074957477e+02   1.1180844263e+01    0.2861841    0.2014215  89.03 0.0009855889    1.468    0.319
        22 -11.3491     84.0312    240.7128   1.2936882117e+02   1.2344182483e+01    0.9977439    0.3552997  53.84  0.003663085    3.215    0.689
        23 -12.1265    102.5663    239.0296   1.2523501813e+02   9.8226561143e+00    0.6487827    0.5680084 -25.65  0.001224362    1.504    0.335
        24 -10.4584     84.1673    230.2515   1.2809619716e+02   1.4586650843e+01    0.3394741    0.2262773 -53.44  0.001794261    1.668    0.400
        25  -9.9819     91.0693    241.5003   1.2798299654e+02   1.1105816830e+01    0.3017469    0.1999132  43.63  0.001116888    1.363    0.266
        26 -11.3220     87.7681    237.0385   1.2814707454e+02   1.2559871984e+01    0.6952198    0.3333285  56.38  0.003046379    2.208    0.547
        27 -10.9298     74.1209    243.7070   1.3175431140e+02   1.3176748390e+01     0.457602     0.311202 -57.49  0.002403803    1.645    0.392
        28 -11.0123     59.5616    245.7243   1.3489709068e+02   1.4803714582e+01    0.5744317    0.3310247  76.02  0.003011019    1.820    0.451
        29 -12.5130      2.8624    190.2677   1.4162580056e+02   3.3803539051e+01     2.075243    0.3145401 -74.11  0.006024349    5.559    0.820
        30 -12.7983      4.7595    226.5800   1.4396489351e+02   2.5416495527e+01      1.18489      1.14894 -32.09  0.009110998    1.585    0.369
        31 -12.5156      6.3472    215.1865   1.4286215180e+02   2.7775693415e+01     3.122315     1.593416   2.44  0.009083857   10.719    0.907
        32 -12.1324      9.6464    206.7274   1.4155102563e+02   2.9374909824e+01     1.141425    0.6430534   7.36  0.005372378    3.730    0.732
        33 -13.2324     41.0036    243.7758   1.3835849292e+02   1.7647892382e+01     1.603282    0.8933483  67.18  0.005130915    1.656    0.396
        34 -13.6363      6.3338    244.6791   1.4483229355e+02   2.1422674666e+01     1.220178     1.075302  59.83 0.0009042026    1.374    0.272
        35 -11.5584     21.8297    219.6905   1.4013100356e+02   2.5177001026e+01    0.2342886    0.1849666 -77.84 0.0004559327    1.202    0.168
        36 -12.7729     23.8095    225.2008   1.4018709764e+02   2.3725471413e+01    0.4368069    0.3339827 -50.48 0.0008448558    1.716    0.417
        37 -14.0697     29.7392    218.5841   1.3842376879e+02   2.4545536567e+01     1.476065     1.118249 -52.24  0.009125345    1.627    0.385
        38  -9.0969     53.7485    241.0190   1.3560983003e+02   1.6587238883e+01    0.1764982      0.14189 -89.57 0.0005221206    1.134    0.118
        39 -11.2411     67.6570    245.6369   1.3326804900e+02   1.3696481050e+01    0.4994273     0.279368  41.63  0.002000127    1.634    0.388
        40  -8.9209     56.2654    250.4384   1.3598339080e+02   1.4268353861e+01    0.1952458      0.14796  39.48 0.0009115233    1.414    0.293
        41 -12.8300     26.2693    247.3803   1.4141747382e+02   1.8671977608e+01    0.9517442    0.7321824  48.05  0.006557183    1.347    0.258
        42 -10.0483    129.6730    235.6103   1.1890471795e+02   6.0805971129e+00    0.2292173    0.1286238 -56.05   0.00105711    1.955    0.488
        43  -9.2583     54.6279    235.3472   1.3488727690e+02   1.7696913810e+01    0.2148386    0.1263346  67.67 0.0009708083    1.653    0.395
        44 -11.6260    179.2299    244.0070   1.0970231375e+02  -3.7241552861e+00     0.418171    0.2316209  36.28  0.002086395    1.643    0.391
        45 -11.3140     86.6884    248.0775   1.2965500830e+02   1.0407250020e+01    0.5805584    0.3558712  46.28  0.002394841    1.420    0.296
        46  -9.4537     56.6273    228.8547   1.3381913382e+02   1.8863117378e+01    0.2988134    0.1387091 -78.05   0.00112708    2.306    0.566
        47  -9.5285     77.1545    220.8242   1.2846925105e+02   1.7763241260e+01     0.249694    0.1729939  87.93 0.0006508119    1.499    0.333
        48  -9.9894     80.0945    227.3275   1.2862388840e+02   1.5852508095e+01    0.3014814    0.2418639 -23.07 0.0007778935    1.885    0.469
        49  -9.8534     78.7849    224.7904   1.2859991393e+02   1.6618687642e+01    0.2760815    0.2319279 -16.83  0.001316416    1.756    0.431
        50 -10.0792    136.1585    224.9057   1.1583992408e+02   7.1884123221e+00     0.411071    0.1940975 -51.14 0.0009562708    2.243    0.554
        51  -9.2199     92.3461    225.9563   1.2575875606e+02   1.4270901230e+01    0.2211121    0.1607935  85.51 0.0008895396    1.473    0.321
        52  -9.1102    132.1990    224.6556   1.1668181629e+02   7.9257955570e+00    0.1913146    0.1775548 -86.19  0.000720721    1.136    0.120
        53  -9.2695     65.0362    224.5939   1.3156948323e+02   1.8662327918e+01    0.2617581    0.1566378 -49.47  0.001299048    2.022    0.505
        54  -8.7843     45.8131    225.2186   1.3571318679e+02   2.1098096983e+01    0.1574871    0.1384021 -72.28 0.0004352915    1.267    0.211
        55  -8.5425    164.3802    224.1277   1.0951347878e+02   2.4449988582e+00    0.1806921     0.133772 -62.28 0.0003757721    1.636    0.389
        56  -9.4499    117.6149    223.9244   1.1983274734e+02   1.0578715224e+01    0.2430891    0.1911433  27.76 0.0007381275    1.376    0.273
        57 -10.6238     98.5254    222.7634   1.2395121021e+02   1.3997703581e+01    0.3021907    0.2605683  73.68  0.000967218    1.089    0.082
        58 -10.2762     87.4897    223.5228   1.2651731198e+02   1.5575989714e+01    0.2550253     0.213511  65.03 0.0007826565    1.077    0.071
        59 -10.3893     70.7096    219.2952   1.2971056241e+02   1.9062083103e+01      0.43846    0.3229187 -85.77  0.002445554    1.302    0.232
        60 -10.0137    141.7208    219.6388   1.1374352234e+02   7.3273797269e+00    0.3472176    0.2493529 -48.66  0.001772412    1.472    0.321
        61  -9.8912    245.8343    218.9887   9.2418022538e+01  -9.4995783027e+00    0.2183547    0.1239451 -17.19   0.00108662    2.031    0.508
        62  -9.7881    117.1601    215.5306   1.1865322210e+02   1.2510483157e+01    0.3490111    0.2493145  12.33  0.001089005    1.989    0.497
        63  -9.3895    111.8621    215.3071   1.1983490581e+02   1.3465806898e+01    0.1972537    0.1720891  46.05 0.0004068838    1.105    0.095
        64  -9.2289     87.6557    212.6013   1.2501208923e+02   1.8055121607e+01    0.3851336    0.2168162  68.26  0.001325787    2.303    0.566
        65 -10.3963     56.4966    209.8389   1.3175596995e+02   2.3256155769e+01    0.6781924    0.3406184 -87.49  0.002863803    2.449    0.592
        66  -9.9605     62.8260    209.1661   1.3024633694e+02   2.2550212625e+01    0.3935251    0.3404845 -24.14  0.001695431    1.611    0.379
        67  -9.1690     63.5868    205.0814   1.2956428071e+02   2.3417145497e+01    0.2380563     0.168536 -87.33 0.0003677996    1.368    0.269
        68  -8.4440     74.2794    208.3208   1.2751530656e+02   2.1105506138e+01    0.1312293    0.1064001 -37.65 0.0003419334    1.583    0.368
        69  -8.2161    134.4570    207.5082   1.1334514795e+02   1.1260413305e+01    0.1437477    0.1401471  28.77 7.494532e-05    1.062    0.059
        70 -10.5259    106.8275    203.5826   1.1917491850e+02   1.7027730325e+01    0.2766985     0.233744 -75.20 0.0002822907    1.186    0.157
        71  -9.1162     90.3948    205.1211   1.2330376045e+02   1.9382467866e+01    0.3210807    0.1725036  23.49  0.001261259    2.711    0.631
        72  -8.6157     83.5174    201.5214   1.2440619682e+02   2.1329011243e+01    0.1448645    0.1279848  79.47 -2.556687e-05    1.037    0.036
        73 -10.1372     74.8946    200.1261   1.2625708167e+02   2.2978897104e+01    0.2367976    0.1995568 -89.47 0.0004198025    1.093    0.085
        74  -8.1420     96.7141    199.2980   1.2091184055e+02   1.9745543351e+01     0.147699    0.1065421  73.81 0.0001827552    1.550    0.355
        75 -11.6939     53.9106    193.6733   1.3038015964e+02   2.7489539681e+01    0.4893814    0.3734486 -58.51  0.001150911    1.319    0.242
        76 -11.5779     49.1225    217.4002   1.3421802869e+02   2.2459051774e+01     1.082831    0.6299264  68.46  0.002365184    1.751    0.429
        77 -11.0859    143.9872    240.4985   1.1654880435e+02   2.7089006965e+00    0.3815511    0.1218154  38.35  0.001384896    2.816    0.645
        78  -9.9452    250.2677    193.5689   8.6912428780e+01  -5.8842119319e+00    0.2383223    0.1379047 -24.60  0.001196448    1.802    0.445
        79  -9.4720     33.9574    192.5904   1.3491919448e+02   3.0179234982e+01    0.3484723    0.1997667  80.64 0.0008643683    1.860    0.462
        80  -9.5583     30.6062    193.2187   1.3575495878e+02   3.0399966767e+01    0.1845683    0.1444497 -74.99 0.0002150526    1.125    0.111
        81  -8.9884     25.9853    192.7010   1.3674956150e+02   3.1021670132e+01    0.1792023    0.1502877  84.37 0.0006748713    1.057    0.054
        82  -9.4110     21.7035    192.8225   1.3772469891e+02   3.1436570888e+01    0.2963507    0.2027608  72.37  0.001164559    1.365    0.267
        83  -9.2109    191.2640    191.7414   9.7730582718e+01   4.1951984988e+00    0.1998937    0.1977937 -52.10 0.0008513188    1.116    0.104
        84  -8.2747     38.6285    192.2658   1.3380193530e+02   2.9722662952e+01    0.1397422   0.08637549  65.81 0.0006988914    1.664    0.399
        85  -8.4985     15.0033    190.0051   1.3894618494e+02   3.2768367069e+01    0.1511726    0.1212365 -88.83 0.0004402161    1.013    0.013
        86  -9.1346     76.1455    186.6923   1.2398644604e+02   2.6086841047e+01    0.3589028    0.2124132  80.46  0.001130524    2.337    0.572
        87 -10.1190      9.6549    186.8369   1.3983917202e+02   3.4015616526e+01    0.3895074    0.1934971  86.63  0.001904204    2.005    0.501
        88 -10.1173     71.0979    187.0795   1.2529779217e+02   2.6739070491e+01    0.2814658    0.1897263  42.86 0.0003531584    1.505    0.336
        89 -11.4767     60.3636    185.6480   1.2774372156e+02   2.8607909651e+01    0.2873993    0.2478521 -55.21 0.0005629697    1.232    0.188
        90  -9.2447    107.0222    185.5598   1.1608938376e+02   2.1319112657e+01    0.2117528    0.1961218 -79.57 0.0003266258    1.041    0.039
        91  -8.9825     29.5220    184.3505   1.3503284011e+02   3.2665892907e+01     0.359983    0.1812885 -52.15  0.001435268    2.044    0.511
        92 -10.2608     37.2015    180.1956   1.3270248437e+02   3.2842355990e+01    0.3139783    0.1864654 -56.32 0.0004540758    1.592    0.372
        93  -9.5000     27.0406    179.7429   1.3509914723e+02   3.4050227520e+01     0.234964    0.1590726 -69.28 0.0002974223    1.254    0.203
        94  -8.1423     47.6416    179.7306   1.3007688382e+02   3.1726793317e+01     0.131911    0.1020275 -34.89  0.000699522    1.642    0.391
        95  -8.7909     12.4854    178.4941   1.3839277447e+02   3.5753140414e+01    0.1281174    0.1024271 -80.50 0.0008102591    1.033    0.032
        96  -9.0725    105.2694    175.9175   1.1478035343e+02   2.3997319889e+01    0.3400222    0.1658565  39.12  0.001327245    2.073    0.518
        97 -11.9750    248.1911    171.4529   8.2986865809e+01  -1.6628855789e+00    0.7303467    0.3616261 -43.74  0.003471602    1.744    0.427
        98 -11.6732    247.2834    158.1104   8.0497239820e+01   9.1505818910e-01    0.7598962    0.5250116 -81.89   0.00361294    2.567    0.611
        99 -10.8595    245.2823    162.1060   8.1616445856e+01   5.1055805703e-01    0.3082267    0.2026758 -30.12  0.001163549    1.484    0.326
       100 -10.2020     71.8199    173.5323   1.2300568439e+02   3.0022711660e+01    0.2547359    0.2271484 -70.89 0.0003376624    1.048    0.046
       101 -10.0718     56.8235    173.3162   1.2684819217e+02   3.2163145452e+01    0.3261157    0.2239342  54.44  0.001462348    1.527    0.345
       102 -10.0627     12.4890    173.0516   1.3783283707e+02   3.7063348846e+01     0.328022    0.1587386 -58.58  0.001371866    1.800    0.444
       103  -9.3724     17.9486    172.3224   1.3644723783e+02   3.6748516634e+01    0.2275273    0.1552898 -88.12  0.001303906    1.300    0.231
       104 -10.9038      2.3029    172.2008   1.4013719562e+02   3.8112613132e+01    0.5503661    0.2225994 -83.88  0.002442645    2.369    0.578
       105  -9.9487      4.8379    167.1458   1.3904440621e+02   3.9119984335e+01    0.2366411    0.1940887 -71.91  0.000750746    1.109    0.098
       106 -11.4118     12.9095    167.0643   1.3708848668e+02   3.8474746348e+01    0.4585406    0.3618152 -81.13  0.002272005    1.030    0.029
       107 -10.9994      8.7573    165.2826   1.3790602686e+02   3.9253420069e+01    0.5212625    0.1716067 -53.29  0.002176511    2.768    0.639
       108  -9.6814     27.3527    171.6030   1.3406558354e+02   3.6014430759e+01    0.3426357    0.1830687 -46.85  0.001049737    2.067    0.516
       109  -9.1679     51.6671    171.1321   1.2785224953e+02   3.3374796909e+01     0.219501    0.1770767  55.08 0.0005246465    1.285    0.222
       110  -8.7164     42.7564    169.9590   1.2997375647e+02   3.4747652811e+01     0.182192    0.1022401 -66.51 0.0007392575    1.546    0.353
       111  -9.5762     38.8769    167.6431   1.3064864893e+02   3.5768292077e+01    0.2352583    0.1682217 -77.86 0.0003598622    1.246    0.197
       112 -11.4732     79.8237    165.7238   1.1956631044e+02   3.0784639521e+01    0.5755616    0.4417988  20.15  0.002564794    1.594    0.373
       113  -9.0732     81.6859    157.5168   1.1755367152e+02   3.2563556211e+01    0.5110244     0.141693 -62.46  0.001349108    4.531    0.779
       114  -9.9406     68.1782    166.2909   1.2276503512e+02   3.2377048976e+01    0.2540824     0.190747 -71.67 0.0003820794    1.250    0.200
       115  -9.7940     44.2872    165.4084   1.2893224481e+02   3.5706948209e+01    0.3555896     0.219134 -20.36   0.00153406    2.834    0.647
       116  -9.8494     29.8250    164.8984   1.3260102371e+02   3.7417823394e+01    0.2045117    0.1589918 -52.80 0.0006837802    1.291    0.225
       117  -9.9466     24.0061    162.0206   1.3371920563e+02   3.8701687333e+01    0.1984137    0.1652766 -74.42 0.0003736659    1.024    0.023
       118  -8.9127     66.7486    161.4235   1.2232183689e+02   3.3809983059e+01    0.1754278    0.1447657  14.70   0.00026299    1.493    0.330
       119  -9.1415     28.6866    161.0104   1.3238278382e+02   3.8494399490e+01    0.1871025    0.1422894 -71.89 0.0002980691    1.103    0.093
       120 -11.2865     10.1582    157.3283   1.3667369307e+02   4.1061188989e+01    0.3484118    0.2111616  85.75  0.001225381    1.668    0.401
       121  -9.8962     12.4824    154.0034   1.3568633113e+02   4.1678745483e+01    0.2486037    0.1327779 -64.58 0.0008151412    1.491    0.329
       122  -8.9247     46.4708    156.4212   1.2699334860e+02   3.7702724196e+01    0.1388452     0.121773 -78.35 4.384242e-05    1.038    0.036
       123 -10.2696     26.3180    154.6971   1.3215349688e+02   4.0285074889e+01    0.2443891    0.1753224  68.04  0.000942992    1.520    0.342
       124 -10.7544    249.4493    150.8394   7.8707649874e+01   1.8886622842e+00    0.3600312    0.2662021 -54.67   0.00204876    1.320    0.242
       125  -9.1166     54.1365    151.7612   1.2412232565e+02   3.7934774324e+01     0.269886    0.1498252 -42.75 0.0007856764    1.960    0.490
       126  -9.8610     93.9451    150.2317   1.1273950015e+02   3.2372472596e+01    0.3149107    0.2721928  34.75 0.0008955512    1.237    0.191
       127  -8.4459     86.9890    151.0146   1.1482221199e+02   3.3343846238e+01     0.180993    0.1645742 -63.79            0    1.032    0.031
       128 -10.9219     21.7922    149.2288   1.3261442609e+02   4.2047919549e+01    0.5304434    0.1850309  43.67  0.002129818    3.291    0.696
       129  -9.1151     82.0381    148.9954   1.1579539116e+02   3.4648271565e+01    0.2233518    0.2066681 -73.70 0.0004378233    1.036    0.035
       130 -11.5353     68.2009    144.1213   1.1875135411e+02   3.7956050657e+01    0.7226132    0.5070385  85.42  0.003065889    1.828    0.453
       131  -9.7144     59.2192    146.7876   1.2181573143e+02   3.8524621012e+01    0.4018867    0.2169133 -30.85  0.001544796    2.866    0.651
       132 -12.0864      3.7432    144.2538   1.3679017046e+02   4.4685813519e+01    0.6027121     0.375355  85.40  0.003367859    1.656    0.396
       133 -12.5325      9.2121    142.7936   1.3514946302e+02   4.4641111895e+01    0.7270877    0.2747533 -72.46  0.003148217    2.278    0.561
       134 -10.8326      5.7705    141.4073   1.3590005567e+02   4.5223364826e+01    0.2488682    0.2291171  83.89  0.001083114    1.195    0.163
       135 -12.6379    247.7458    101.6625   6.9096056241e+01   1.1060831939e+01    0.8903142    0.5743798 -37.25  0.004787042    1.557    0.358
       136 -12.5565    248.3175    134.1934   7.5549161123e+01   5.1321455251e+00     1.143324    0.6120165 -36.96  0.005470236    1.752    0.429
       137  -9.6659    249.8022    117.7762   7.2042677827e+01   7.8392928943e+00    0.2380116    0.1995423 -70.77 0.0008081385    1.181    0.153
       138 -11.7164    247.7221    113.1481   7.1402006558e+01   9.0449099186e+00    0.5031824    0.4072628  54.03  0.003051612    1.463    0.316
       139  -8.6286     97.0983    146.4348   1.1106850627e+02   3.2768055811e+01     0.215766     0.152441  35.35 0.0005878782    1.507    0.336
       140 -10.9636     16.5380    139.9874   1.3276658232e+02   4.4746293527e+01    0.3342581     0.224205  61.23 0.0003824687    1.756    0.430
       141  -9.8227    133.2949    141.0078   1.0017778821e+02   2.7131692293e+01    0.3355172    0.2748639 -64.33 0.0008871802    1.269    0.212
       142  -9.2770    107.0899    135.9320   1.0595862173e+02   3.3518540118e+01    0.3923691    0.2600139 -14.81   0.00150667    2.525    0.604
       143 -12.7301      3.5849    122.0071   1.3389735090e+02   4.9950546149e+01    0.7176901    0.4417619 -56.07  0.004232539    1.291    0.225
       144  -9.2733     44.4794    130.0157   1.2300925415e+02   4.4473972283e+01    0.2105533    0.1218808 -61.36 0.0004421081    1.521    0.342
       145  -8.8538     58.8264    127.8183   1.1823388309e+02   4.3256443312e+01    0.1873884    0.1594866 -84.63 0.0004137186    1.283    0.221
       146  -9.7220     32.6208    126.7811   1.2599133780e+02   4.6502541133e+01    0.1962908    0.1157509 -72.45 0.0009555707    1.687    0.407
       147  -8.2856     47.7055    126.2950   1.2131120749e+02   4.5004589816e+01    0.1331933    0.1041257  78.31 0.0001751357    1.561    0.359
       148  -8.4176    209.7010    125.6928   8.0021351521e+01   1.4143174426e+01    0.1393575    0.1156519  -6.44 0.0002968842    1.594    0.373
       149  -9.0562     94.0396    133.1057   1.0897822299e+02   3.6565099301e+01    0.2240322     0.193741 -24.07 0.0003155498    1.268    0.211
       150 -11.9494     15.3305    120.1202   1.3009219730e+02   4.9579194480e+01    0.4604035    0.2368161 -81.26  0.002119574    2.310    0.567
       151 -11.9341    247.9703    142.4274   7.7254643690e+01   3.6826579782e+00    0.5826458    0.3985646 -38.40  0.003104568    1.289    0.224
       152  -9.6635     31.0070    119.4952   1.2515267171e+02   4.8393869749e+01    0.1827579   0.09706601  51.48 0.0008105527    2.604    0.616
       153 -10.1785    232.1153    116.6393   7.4378676334e+01   1.1370645227e+01    0.2421194    0.1694983 -53.60 0.0007173006    1.275    0.216
       154 -13.0477      8.7986    110.8038   1.3056170672e+02   5.2199288999e+01    0.9329328    0.2967366 -68.51  0.003271423    2.906    0.656
       155 -12.4120     14.6132    100.8763   1.2688624587e+02   5.4038654977e+01    0.4850155    0.3442544 -39.26  0.001836408    1.254    0.203
       156  -9.2719    167.8132    112.9126   8.5192159745e+01   2.5840262090e+01    0.3427185    0.2214915 -74.63  0.001240455    2.289    0.563
       157 -11.6903      2.6083    110.9265   1.3251430796e+02   5.2560396306e+01    0.5929588    0.2094868 -65.56  0.002677453    2.208    0.547
       158  -9.2750    235.7308    146.0083   7.9922090478e+01   5.1657401251e+00    0.1978007    0.1600125 -41.76 0.0005041197    1.080    0.074
       159  -8.8904     29.3225    109.3223   1.2371244486e+02   5.0921326386e+01    0.1397356    0.0838991 -35.29 0.0002477145    1.678    0.404
       160  -8.8709     59.9536    107.9683   1.1343658877e+02   4.7774986717e+01    0.1697099    0.1463049 -44.18  0.000304329    1.048    0.046
       161 -10.4991     19.3370    105.8924   1.2629430759e+02   5.2554699364e+01     0.195411    0.1754025  37.60 0.0008138598    1.350    0.259
       162  -8.4290     71.7154    100.2960   1.0771018529e+02   4.7797201942e+01    0.1323075    0.1125766  84.89 0.0002620322    1.544    0.352
       163 -11.8530      2.2952     77.5694   1.2643841241e+02   5.9811711081e+01    0.8150006    0.0412214 -60.88  0.002062165    7.913    0.874
       164 -11.4734    245.0379    121.7059   7.3508712951e+01   7.9983178244e+00    0.5692115     0.362913  61.41  0.002988844    1.868    0.465
       165 -11.7951    150.9549    247.4115   1.1611157338e+02   2.4858848360e-01    0.4829817    0.3456316  46.74  0.002694651    1.327    0.246
       166 -11.8534    135.3750    236.2408   1.1776130478e+02   4.9939444390e+00    0.5995365    0.2598074 -43.59  0.002421674    2.772    0.639
       167 -11.2185    133.7760    232.7314   1.1758026277e+02   5.9753936413e+00    0.3236307    0.2424268 -66.80  0.001248807    1.525    0.344
       168 -10.8808    198.1298    245.7721   1.0617252781e+02  -6.9628373535e+00    0.2789081     0.189604  25.46  0.001584525    1.352    0.260
