#   1 NUMBER                 Running object number                                     
#   2 MAG_AUTO               Kron-like elliptical aperture magnitude                    [mag]
#   3 X_IMAGE                Object position along x                                    [pixel]
#   4 Y_IMAGE                Object position along y                                    [pixel]
#   5 X_WORLD                Barycenter position along world x axis                     [deg]
#   6 Y_WORLD                Barycenter position along world y axis                     [deg]
#   7 A_WORLD                Profile RMS along major axis (world units)                 [deg]
#   8 B_WORLD                Profile RMS along minor axis (world units)                 [deg]
#   9 THETA_WORLD            Position angle (CCW/world-x)                               [deg]
#  10 FWHM_WORLD             FWHM assuming a gaussian core                              [deg]
#  11 ELONGATION             A_IMAGE/B_IMAGE                                           
#  12 ELLIPTICITY            1 - B_IMAGE/A_IMAGE                                       
         1 -16.3024    245.2159     83.5847   7.4967630424e+01   1.3196536105e+01     6.003659    0.8205834 -39.73   0.01548216    5.397    0.815
         2 -16.9011    180.1177     93.4891   8.8401975937e+01   2.6703209822e+01     3.600838     2.343238 -19.46   0.01474961    2.112    0.527
         3 -16.4073    233.5845     77.4171   7.5169318882e+01   1.6803687283e+01     2.325829     1.304774 -38.67   0.01066724    1.683    0.406
         4 -18.8949    211.9023     98.8394   8.3774278067e+01   1.8097239722e+01     8.937963     5.507388 -47.32    0.0399795    1.569    0.363
         5 -17.1224    148.4617     90.9396   9.4665940754e+01   3.4735723302e+01     6.738435     4.381463  -8.24   0.02543117    2.670    0.625
         6 -12.2401    240.3942     23.2587   6.2152502809e+01   2.3126291653e+01     0.477295    0.2290582 -60.26  0.002251649    2.106    0.525
         7 -10.5770    204.7018     16.6445   6.4394039384e+01   3.2240597433e+01    0.4254994    0.2060427  86.08  0.001835378    2.355    0.575
         8 -11.0919    200.8276     15.7360   6.4623088242e+01   3.3274241305e+01    0.5708514    0.2527433  47.03  0.002404229    2.729    0.634
         9  -9.9485    247.5499     15.5312   5.9890165187e+01   2.2485500286e+01    0.2851811    0.1043811 -37.23  0.001290205    2.542    0.607
        10 -11.0852    238.0565      9.9214   5.9548946286e+01   2.5242731094e+01    0.2741958    0.1991966  59.49 0.0009811553    1.528    0.346
        11 -12.6270    223.4683      8.4634   6.0553552620e+01   2.8723276819e+01    0.3820213    0.2094761 -49.61  0.001236068    1.723    0.420
        12 -10.0467     12.4084      9.6611   1.1107055268e+02   7.0163788481e+01    0.1679758    0.1211308 -14.76 0.0004313795    1.021    0.020
        13  -9.3131     19.7100      9.2957   1.0761846667e+02   6.9555395341e+01   0.08864977   0.07926362 -20.54 0.0002849446    1.554    0.356
        14 -10.3250    184.2348      8.2138   6.4734585836e+01   3.8074712585e+01    0.2073239    0.1483504  64.51 0.0004291174    1.228    0.185
        15  -9.6478    209.5646      6.4304   6.1454669716e+01   3.2189049021e+01    0.1279027    0.1059294 -89.40 0.0001291057    1.002    0.002
        16 -12.1253    166.4328      2.5820   6.5537335926e+01   4.2892360557e+01     0.293199    0.2565721  80.99 0.0006512535    1.063    0.059
        17  -9.4954     36.7185      5.3079   9.8615252183e+01   6.8164781622e+01   0.09234953   0.08250964 -20.89 0.0002501657    1.561    0.359
        18  -9.1443     66.5099      6.5396   8.8357460550e+01   6.3726766864e+01    0.1183692     0.094046  15.34 0.0001555248    1.006    0.006
        19  -9.6133    140.9864      3.4723   6.9621597419e+01   4.8834216474e+01     0.195351    0.1090864  62.70 0.0003837713    1.521    0.342
        20  -9.5748    209.0250      1.9295   6.0472087711e+01   3.2775779936e+01    0.1962981    0.1329095  48.05  0.001114957    1.727    0.421
        21  -9.7164    113.9331    230.7704   1.3103692090e+02   1.1440805452e+01    0.1708282    0.0946572  43.55 0.0005445795    1.612    0.380
        22 -12.3806    230.2009    250.0655   1.1187010870e+02  -1.1267398715e+01     0.718503    0.1482182  40.23   0.00252811    4.163    0.760
        23  -9.6587    192.0177    250.7529   1.1892449576e+02  -5.2663559298e+00    0.1585601   0.08871898  40.33 0.0003134325    1.483    0.326
        24 -12.1852    204.7048    225.6228   1.1247459472e+02  -3.6712637400e+00     0.315172    0.2323469  43.47 0.0004848317    1.295    0.228
        25 -10.5281    150.0882    226.4464   1.2331248046e+02   5.9682805431e+00    0.2537923    0.2041863  19.42 0.0007871702    1.502    0.334
        26 -10.0462    127.7483    226.4316   1.2775261301e+02   9.9186247113e+00    0.2514216     0.110343  46.30  0.001115919    1.978    0.494
        27 -10.0889     49.3948    226.1114   1.4268315560e+02   2.1932666632e+01    0.1714652    0.1402223  62.37 0.0004715089    1.231    0.188
        28 -10.1113    220.8951    225.3537   1.0937601352e+02  -6.3965173296e+00    0.1802405    0.1032149  29.74 0.0003404606    1.660    0.398
        29 -11.5455    179.8316    222.8490   1.1683549527e+02   1.2133674920e+00    0.6095465    0.1931633  38.18  0.002163351    3.106    0.678
        30 -10.9735     89.1276    220.2187   1.3459623249e+02   1.7518430603e+01    0.3238621    0.1529761 -54.61   0.00154536    2.351    0.575
        31 -10.1433    234.6275    220.4881   1.0597609474e+02  -7.9523213623e+00    0.2793208    0.1649092  24.95  0.001467414    1.693    0.409
        32 -11.5317     59.9860    215.4152   1.3972213235e+02   2.2733083797e+01    0.4034268    0.2846574  52.41  0.002541644    1.325    0.245
        33 -11.0418    124.2779    215.7149   1.2694254945e+02   1.2608738612e+01    0.2399805    0.1860826  67.77 0.0007604951    1.236    0.191
        34 -10.2956      2.6058    214.5809   1.4997678357e+02   2.9430434161e+01    0.2089505    0.1753415  15.91  0.001592831    2.098    0.523
        35 -10.8593    202.6594    212.0610   1.1046549910e+02  -1.1236814797e+00    0.3399099    0.2487352 -39.29  0.001389006    1.474    0.322
        36  -9.6818    187.9457    214.6824   1.1383081337e+02   1.1267672290e+00    0.2333281    0.0998445  26.93 0.0004831868    4.494    0.777
        37  -9.6658    221.1739    210.8040   1.0668338270e+02  -4.2200271700e+00    0.1783654    0.1389978   8.14 0.0003268104    1.283    0.221
        38  -9.5095     90.2876    211.3260   1.3328687507e+02   1.9177820447e+01    0.1164238    0.1036631 -33.96 0.0002455957    1.609    0.379
        39 -10.2104    165.1362    209.2215   1.1749367496e+02   6.3761190917e+00    0.2144296    0.1868025  18.08 0.0007075411    1.255    0.203
        40 -10.6886    157.5477    208.9843   1.1901936349e+02   7.8519202915e+00    0.2302364    0.1741582  44.19   0.00076714    1.202    0.168
        41  -8.9201    210.2982    204.3190   1.0754341543e+02  -1.2216283369e+00    0.1382193    0.1004826   4.61 0.0002508624    1.616    0.381
        42 -12.3291    191.1991    201.3392   1.1075778345e+02   2.8667998407e+00    0.6196075    0.3410335  56.70  0.001681216    2.321    0.569
        43 -12.2335    181.5696    200.8551   1.1262443527e+02   4.8003530771e+00    0.5206302    0.4276066  23.61  0.001881274    1.250    0.200
        44  -9.6504    114.5224    204.0895   1.2727332800e+02   1.6697646729e+01    0.1886114     0.131485 -63.51 0.0004689598    1.479    0.324
        45  -9.5950    142.4592    203.4491   1.2125368531e+02   1.1775369261e+01    0.1408003    0.1267051  60.49 7.536132e-05    1.017    0.017
        46 -11.1954     68.5976    201.6586   1.3653165238e+02   2.4478831275e+01    0.3382996    0.1949866  72.39 0.0009871724    1.840    0.457
        47  -9.6535    206.1829    202.2224   1.0794738461e+02  -1.0843332447e-01    0.1733431    0.1610103  65.69 0.0004318525    1.292    0.226
        48 -10.3498    157.1744    201.7591   1.1785913111e+02   9.3250549518e+00    0.2407349    0.1511471  77.82 0.0009541857    2.812    0.644
        49 -10.0085    224.6363    201.0087   1.0417237272e+02  -3.2609057813e+00    0.1818995    0.1568484 -15.65 0.0004078408    1.118    0.105
        50 -11.8720    128.0994    200.1365   1.2377250325e+02   1.5111273084e+01    0.2458308    0.2264733  61.29 0.0002813681    1.059    0.056
        51 -10.5271     37.0011    199.2589   1.4258138168e+02   2.9039334334e+01    0.1956739    0.1383695 -86.97 0.0003748005    1.137    0.120
        52 -10.5218    109.4061    199.4953   1.2768023072e+02   1.8558931010e+01    0.2941937    0.1289819  40.60  0.001224576    2.230    0.552
        53 -10.9988    214.6809    197.1071   1.0531112913e+02  -8.0826718939e-01    0.3679187    0.2758148  47.60  0.001185642    1.402    0.287
        54 -12.4895    142.7990    193.7796   1.1953647735e+02   1.3695030581e+01    0.7390544    0.4301887  80.11  0.002551391    3.709    0.730
        55 -12.8940    142.7804    188.2226   1.1855511531e+02   1.4865892130e+01    0.5189447    0.4071236 -68.23  0.002707237    1.378    0.274
        56 -11.2682    149.4568    195.6284   1.1842444247e+02   1.2036785993e+01    0.2668111    0.2520656 -36.83 0.0005935791    1.183    0.155
        57 -12.5849    155.2787    194.4400   1.1696371476e+02   1.1152292795e+01    0.5839334    0.3951241  60.69  0.002257796    1.628    0.386
        58 -12.5058    200.5203    192.9458   1.0727803611e+02   2.5930669998e+00    0.5578066    0.3771966 -19.38  0.002677504    1.826    0.452
        59 -11.5903    207.9115    191.3612   1.0550076990e+02   1.4601406011e+00       0.3623    0.2948776 -20.26 0.0004382291    1.269    0.212
        60 -10.9506    213.3255    188.9837   1.0396869834e+02   8.5021446978e-01    0.3640942    0.2021327  51.00  0.001623035    2.011    0.503
        61 -11.4117    216.1889    185.6962   1.0275163026e+02   8.8478593022e-01    0.3678428    0.3004411  33.32  0.001145791    1.188    0.158
        62  -9.8506    249.2101    194.8430   9.8492134906e+01  -6.5144429405e+00    0.1763399    0.1336742  -3.49 0.0005224511    1.290    0.225
        63 -11.9463    166.5949    194.0737   1.1448675570e+02   9.0133349637e+00    0.4846792    0.2962216  30.11  0.002162171    1.881    0.468
        64 -11.8640    107.0484    190.7038   1.2685609354e+02   2.0880941976e+01    0.4121649    0.2438817 -59.70  0.001986306    1.692    0.409
        65 -11.5518    185.1911    192.7998   1.1036026832e+02   5.6028731633e+00    0.5380447    0.1866515  49.13  0.001816064    3.099    0.677
        66 -11.2803    129.9698    192.1170   1.2204714655e+02   1.6465793888e+01    0.2493591    0.2099372 -76.84 0.0002786585    1.219    0.179
        67 -11.9782    128.4736    188.1062   1.2169292120e+02   1.7608787275e+01    0.4929413    0.3498406   6.95  0.002140355    2.541    0.607
        68 -12.1358    118.0132    190.4529   1.2439978800e+02   1.9010695328e+01    0.5285432    0.2792457 -63.06  0.001685742    2.051    0.512
        69 -11.3066     48.5051    192.2968   1.3958732771e+02   2.9189415740e+01    0.2628257    0.2155782 -84.14  0.001743376    1.106    0.096
        70 -10.8425     10.2916    192.1903   1.4707347372e+02   3.3327812454e+01    0.2207288    0.1442536  87.71 0.0007661249    1.165    0.141
        71 -12.8362    231.0880    188.8724   1.0057510891e+02  -2.4201080246e+00    0.5999659    0.3463483  30.19  0.001967324    1.853    0.460
        72 -11.8029     89.6319    190.6313   1.3066186898e+02   2.3772219718e+01    0.3143636    0.2349391  50.04  0.001765321    1.299    0.230
        73 -15.4481    189.8086    176.2599   1.0609875357e+02   7.8567800223e+00     2.282668     1.941863   2.81   0.01209923    1.316    0.240
        74 -16.9706    172.9855    156.8049   1.0552718826e+02   1.5357132744e+01     6.510617     3.301327  39.37   0.01813021    2.086    0.521
        75 -11.9157    113.9550    168.6569   1.2155641941e+02   2.4643947216e+01    0.3434586    0.2069106 -52.39 0.0006800902    1.651    0.394
        76 -11.7595     69.5015    167.2075   1.3178992460e+02   3.2157470089e+01    0.2700563    0.2135548  74.62    0.0010874    1.218    0.179
        77 -10.0532    205.0209    249.4989   1.1633604502e+02  -7.2265870719e+00    0.1888257    0.1024393  39.23 0.0005820256    1.545    0.353
        78  -9.5175    246.3360    187.2704   9.7492834863e+01  -4.8431568002e+00    0.1985395    0.1654544  -0.27 0.0004894148    1.115    0.103
        79 -11.5525     55.3946    164.4700   1.3467892153e+02   3.4667162448e+01    0.3321697    0.2088922  79.31  0.001713727    1.747    0.428
        80 -10.7630    165.1729    248.9649   1.2366825913e+02  -4.7296507982e-01    0.2201511    0.1833685  63.51 0.0006384749    1.282    0.220
        81 -11.0368     37.5239    163.3567   1.3862622075e+02   3.7005816963e+01    0.3166671    0.1550459  72.14  0.001393972    2.739    0.635
        82 -12.1247    242.6485    247.2035   1.0919862856e+02  -1.2769595380e+01    0.2666056    0.1794854  33.07  0.001514373    1.311    0.237
        83 -10.2330    243.5350    160.9841   9.2533372764e+01   3.3097961528e-02    0.2450661    0.2015859  77.05   0.00132638    1.708    0.415
        84  -9.4135    244.2165    184.5893   9.7327716466e+01  -4.0459315396e+00    0.1905952    0.1795565 -23.63  0.001200498    1.180    0.153
        85 -11.0147     42.0950    158.4809   1.3695976901e+02   3.7631962558e+01    0.2540075    0.1467549 -57.47  0.001367163    1.573    0.364
        86 -15.7266    186.1196    107.0719   9.0730239531e+01   2.2645129450e+01      1.33561     1.143498  41.22  0.005729537    1.233    0.189
        87 -11.1038     72.5054    163.9403   1.3058687745e+02   3.2498922619e+01    0.2093508    0.1211421 -62.90 0.0005511355    1.558    0.358
        88 -11.7179     77.9005    155.4693   1.2790873582e+02   3.3713396983e+01    0.3036564    0.2067702 -66.94 0.0006431903    1.345    0.257
        89 -10.1967     16.4151    155.7047   1.4248472544e+02   4.0794568087e+01    0.1858732    0.1433743 -30.24  0.001212871    1.855    0.461
        90 -10.1550    250.3493    153.3384   8.9730939432e+01   7.9608067098e-02    0.1720163    0.1527025 -61.85  0.001000612    1.328    0.247
        91 -10.6503     70.0677    152.8083   1.2939173707e+02   3.5469491706e+01    0.2109417    0.1689271  81.38 0.0005879891    1.247    0.198
        92  -9.6270    125.4755    249.5039   1.3114837220e+02   6.1349995087e+00    0.1248662    0.1020312  55.50 0.0008100328    1.026    0.025
        93 -10.8371     34.3132    150.5324   1.3774370403e+02   4.0299983333e+01    0.2614442    0.1738625 -53.63  0.001534279    1.468    0.319
        94  -9.1470      7.9850    152.7775   1.4404883656e+02   4.2143805240e+01    0.1162717   0.09593196  40.16 0.0008315987    1.517    0.341
        95 -11.4474     81.1264    148.7439   1.2592581311e+02   3.4824985685e+01    0.2628242    0.1762156 -71.07  0.001297384    1.459    0.315
        96 -16.2068    232.1269    136.3171   8.9099315190e+01   6.6825728900e+00      3.64703     1.808193 -37.73   0.01526657    1.893    0.472
        97 -11.0905     12.9157    149.0364   1.4254659292e+02   4.2589891921e+01    0.1911155     0.147816 -78.66 0.0007097241    1.019    0.019
        98 -10.0832     40.3128    144.6653   1.3548182530e+02   4.1039634739e+01    0.1324451   0.08691338  78.43 0.0004043135    1.685    0.406
        99 -11.3023    115.8212    142.9127   1.1597989371e+02   3.0282695705e+01     0.296784    0.2387461  32.34 0.0003278255    1.392    0.282
       100 -12.0721    112.8354    139.8450   1.1607219361e+02   3.1559192218e+01    0.3317712      0.30919 -75.50 0.0004777621    1.024    0.023
       101 -10.8718     85.9553    142.7179   1.2356701977e+02   3.5509955382e+01    0.2461514    0.1902323 -62.97 0.0005454724    1.187    0.157
       102 -12.4951     99.5080    139.8082   1.1948415089e+02   3.3963599807e+01    0.5718582    0.2962279  61.36  0.002082878    2.945    0.660
       103 -10.9340     32.4723    135.3107   1.3608134370e+02   4.4002871481e+01    0.3242619    0.1460391 -46.56  0.001512409    2.338    0.572
       104  -9.4417     46.2645    134.6598   1.3243449795e+02   4.2730972812e+01    0.1306404   0.09061322  85.58 0.0002481408    1.594    0.373
       105  -9.3651      1.6505    132.6962   1.4335637100e+02   4.7071884430e+01    0.1170276   0.06891305 -48.98 0.0007040731    1.699    0.411
       106 -10.7531     41.7013    130.9676   1.3302427681e+02   4.4083584834e+01    0.1925208    0.1521175 -86.35 0.0003875684    1.228    0.186
       107 -11.4815     42.9264    127.2245   1.3207652017e+02   4.4823706741e+01    0.2923015    0.1746705 -56.89 0.0008198968    1.399    0.285
       108 -12.3168     90.7472    116.3695   1.1664099287e+02   4.0905272848e+01    0.4330501    0.3277786  22.08  0.001302995    1.595    0.373
       109  -9.8769     53.6836    177.6949   1.3680002590e+02   3.1828527095e+01    0.1206409     0.094277 -44.85 0.0002948455    1.626    0.385
       110 -11.5968    103.4981    119.0272   1.1376735605e+02   3.8094316163e+01    0.3950347    0.2537835 -51.53 0.0008888054    1.472    0.320
       111 -13.7471    101.0017    114.8050   1.1342439468e+02   3.9501454170e+01    0.8635128    0.6164821  -3.36  0.003825604    2.171    0.539
       112 -11.8542    102.7064    123.6790   1.1508239111e+02   3.7169080327e+01    0.3348773     0.226671 -30.31  0.000881688    1.831    0.454
       113  -9.4476     20.4941    128.4648   1.3815313679e+02   4.6635947946e+01    0.1232054   0.09697973 -70.75  8.68022e-05    1.002    0.002
       114  -9.4634     23.9789    130.9686   1.3761584575e+02   4.5772852137e+01    0.1426086    0.1215689 -73.61 0.0003858923    1.079    0.073
       115 -11.9786    105.0039    126.3037   1.1507705326e+02   3.6149880333e+01    0.3143787    0.2751764  -4.20 0.0008117393    1.385    0.278
       116 -10.0557     12.2465    124.0217   1.3965658140e+02   4.8276011478e+01    0.1618932   0.07981214 -68.16 0.0004207992    1.554    0.356
       117 -10.5717     77.7017    118.9620   1.2087925253e+02   4.2351234526e+01    0.2082325    0.1671847 -55.12  0.001143195    1.121    0.108
       118 -11.3577     70.4760    116.3594   1.2234503422e+02   4.3988333919e+01    0.3397298    0.2135321 -72.91  0.001598919    1.858    0.462
       119 -11.5827     56.5894    115.1435   1.2603864243e+02   4.6070995539e+01    0.5570296    0.2127456 -65.76  0.001719163    3.007    0.667
       120 -10.1802     11.5171    113.9979   1.3843671454e+02   5.0565748337e+01    0.1828884    0.0906921 -65.08 0.0003454332    1.522    0.343
       121  -9.6578     69.4709    247.4700   1.4100214373e+02   1.5112273258e+01    0.1174847   0.09064095  70.01  0.000251289    1.037    0.036
       122 -10.7592     70.0237    110.7492   1.2122940600e+02   4.5334614847e+01    0.1884398    0.1724333 -51.93 0.0003929163    1.032    0.031
       123 -12.4725    113.2272    108.5696   1.0850766872e+02   3.8617254712e+01    0.4633254    0.3579066 -11.51  0.001319491    1.680    0.405
       124 -13.1903    100.6460    105.2647   1.1111688568e+02   4.1693998444e+01    0.6683232    0.4503624 -38.68  0.002279315    1.481    0.325
       125 -10.7260    247.5999    173.6516   9.4490550283e+01  -2.8493794072e+00    0.2131254    0.1891777  -5.16 0.0003218015    1.038    0.036
       126 -10.3190     86.0044    102.6711   1.1463780995e+02   4.4756305744e+01    0.1880608    0.1846848 -46.45 0.0004882397    1.073    0.068
       127 -10.2648     29.0473    106.3492   1.3226386714e+02   5.0912342219e+01    0.2530847    0.1699361  84.43  0.001408364    1.907    0.476
       128  -9.8119     71.3627     98.7771   1.1799142911e+02   4.7822008450e+01    0.1953827    0.1127743 -44.74 0.0004473627    1.568    0.362
       129  -9.5736     15.9849     95.5310   1.3414445966e+02   5.4309068251e+01    0.1439477    0.1191319  12.51 0.0004234332    1.518    0.341
       130  -9.6540     56.5210    172.4501   1.3549957977e+02   3.2673597143e+01    0.1315495    0.1092004 -87.74 9.232495e-05    1.007    0.007
       131  -9.3008    101.6925     94.2886   1.0787714372e+02   4.3864274773e+01    0.1403709    0.1160993  89.88 0.0002881731    1.574    0.365
       132 -10.6995     88.1802    173.1945   1.2836633562e+02   2.7976931597e+01    0.1983342    0.1505654  80.95 0.0005696343    1.329    0.248
       133 -11.2223    103.3164     90.0391   1.0622233374e+02   4.4446696164e+01    0.2100833    0.1829534 -44.19 0.0006239974    1.111    0.100
       134 -11.3248     87.2316     88.2173   1.1041399816e+02   4.7648072900e+01    0.3826928    0.2553583  -6.46  0.001708184    2.246    0.555
       135  -9.4688      3.4813     88.4994   1.3667538151e+02   5.6594376125e+01    0.1169411   0.08674807 -57.08 0.0001655738    1.020    0.020
       136 -12.2439    117.6379     84.8381   1.0073270658e+02   4.2688685585e+01    0.4406473    0.3058204  48.86 0.0007325026    1.499    0.333
       137 -10.2563     49.9425     84.9217   1.2118679352e+02   5.3512581228e+01    0.1900493    0.1685357 -45.78  0.000389303    1.073    0.068
       138 -11.1838    109.1886     81.0452   1.0194039834e+02   4.5120602353e+01    0.2710588    0.2032585 -59.58  0.001326617    1.576    0.365
       139 -11.0480    101.6625     83.1118   1.0469441586e+02   4.6151273505e+01    0.2083989    0.1789281 -30.30  0.001139416    1.117    0.105
       140 -10.8678     94.9904     77.7068   1.0503841127e+02   4.8422626888e+01    0.1988928    0.1849605  -4.46 0.0006643438    1.044    0.042
       141 -11.6218     80.0121    172.0196   1.3007414626e+02   2.9509560166e+01    0.2439092     0.190182 -56.33 0.0004365269    1.309    0.236
       142 -11.5073    101.1676     69.9421   1.0083362388e+02   4.8747508485e+01    0.3252653    0.1935353 -40.08  0.001030509    1.634    0.388
       143 -11.9079    119.2068     68.8564   9.5472083725e+01   4.5338576426e+01    0.4231395    0.3195052 -74.64  0.002009217    1.940    0.485
       144 -10.3280     76.1454     77.1786   1.1065804402e+02   5.1635484429e+01    0.1944263    0.1663481 -21.90 0.0003142358    1.098    0.089
       145 -10.7368     10.6684     65.8776   1.2976558706e+02   6.0801912393e+01     0.363066   0.09554882 -47.16  0.001630021    2.598    0.615
       146 -11.6732    100.4626     63.5521   9.9003582549e+01   5.0015585945e+01    0.5851717    0.3171314 -14.26  0.002093001    3.449    0.710
       147 -11.4122    101.8440     56.2034   9.6194317592e+01   5.0985850731e+01     0.372978    0.2497551 -61.55  0.001461884    2.336    0.572
       148 -10.6440    121.7622     63.9587   9.3262253007e+01   4.5639423098e+01    0.2054352    0.1805627 -29.96 0.0006328817    1.144    0.126
       149 -10.9465     75.9661    185.9570   1.3299558073e+02   2.6908767226e+01    0.2225032    0.1415218  72.34 0.0007880824    1.670    0.401
       150  -9.6102     60.4765     63.0185   1.1150142761e+02   5.6563876279e+01    0.1902608    0.1130406 -42.97 5.471478e-05    1.503    0.334
       151 -12.1391    151.4691    184.2655   1.1591682154e+02   1.4001344850e+01     0.509574    0.2677489  56.47  0.001020919    2.204    0.546
       152 -10.6419     31.0366    187.5144   1.4264096632e+02   3.2261945644e+01     0.183273    0.1298392 -83.10 0.0003222759    1.127    0.112
       153 -10.6576    108.9402     60.2149   9.5510711759e+01   4.8929046330e+01    0.1938359    0.1732808  23.32 0.0003108456    1.076    0.071
       154 -13.0227    132.0664     48.5881   8.5806058467e+01   4.5775438132e+01    0.5758065    0.3162856  52.47  0.002604818    1.720    0.419
       155 -11.4905    130.5140     53.5190   8.7749708350e+01   4.5392234187e+01    0.2656513    0.2221085 -34.96  0.001296302    1.243    0.196
       156 -11.0717     92.4765     55.1111   9.8583193241e+01   5.2916408303e+01    0.2141795    0.1760153   4.31  0.000799095    1.206    0.171
       157  -9.8627     49.0000     57.7727   1.1384389329e+02   5.8952755435e+01    0.1484706   0.09970888  25.23 0.0004033879    1.614    0.380
       158 -11.0236    110.8682    183.9035   1.2491798671e+02   2.1730623438e+01    0.2075414     0.200075 -22.96  0.001025295    1.289    0.224
       159  -9.6796    116.1452     55.8629   9.2138022398e+01   4.8155617622e+01    0.1926845    0.1581386   9.98  0.000384938    1.291    0.225
       160 -10.2306    110.5053     53.9733   9.3030646185e+01   4.9621631552e+01     0.198592    0.1804555  25.03 0.0003615192    1.045    0.043
       161 -10.3373     37.1344     51.6477   1.1621941322e+02   6.1345049267e+01    0.2442794    0.2211515 -44.62  0.001740857    1.312    0.238
       162 -10.5237    106.0393     51.5093   9.3437431060e+01   5.0906481046e+01    0.2100635    0.1790369 -20.96 0.0004083971    1.155    0.134
       163 -12.6359    127.2565     56.1279   8.9377586011e+01   4.5715754421e+01    0.6686755    0.3190643  57.94  0.002651657    2.344    0.573
       164  -9.9992     85.3535     45.3028   9.7378003147e+01   5.5726940421e+01    0.1385179   0.09392165   8.37 0.0007039535    1.706    0.414
       165 -11.8072    115.4259     44.6152   8.8596482040e+01   4.9997786678e+01    0.4908732    0.2811969 -10.26   0.00207287    2.535    0.606
       166 -11.8626    140.9209     44.4688   8.2500271968e+01   4.4318907996e+01    0.3994397     0.225376  62.01  0.001786466    1.824    0.452
       167 -11.0804    134.1443     38.8542   8.2205790388e+01   4.6645986903e+01    0.3903663    0.2340268   9.73  0.001614905    2.700    0.630
       168  -9.3445      6.2981     40.6255   1.2477984352e+02   6.5775025863e+01   0.09633426   0.08241414 -80.03 0.0007027175    1.748    0.428
       169 -10.3296     96.0961     37.4631   9.1372175709e+01   5.4886568304e+01    0.2314735    0.1712119  -3.61 0.0007321642    1.412    0.292
       170 -10.6116    148.6743     37.2768   7.8656424189e+01   4.3445017746e+01    0.2558058    0.1982416  57.72 0.0005641271    1.190    0.160
       171 -12.2732    144.1474     35.3927   7.8983377700e+01   4.4759918275e+01    0.5291314    0.4175646  74.11  0.002237586    1.344    0.256
       172 -10.6596     19.6842     45.9023   1.2106910676e+02   6.3921609511e+01    0.1796322    0.1290558 -18.19 0.0005893527    1.267    0.211
       173  -9.3326    105.7253     37.2990   8.8639315176e+01   5.3012922780e+01    0.1209408    0.1060839 -69.17 0.0001894509    1.532    0.347
       174 -10.9093    132.8539     31.9492   8.0256372660e+01   4.7813193213e+01    0.3287742    0.2292589 -27.17  0.001750416    1.547    0.353
       175 -10.6442    126.9548     30.7588   8.1167087955e+01   4.9293520486e+01    0.1879405    0.1648334  45.31 0.0002796217    1.043    0.042
       176  -9.8016    245.0398     29.4945   6.3031351084e+01   2.1294244620e+01    0.2287342    0.1393672 -48.17  0.001118859    1.473    0.321
       177  -9.8203    132.4397    246.5199   1.2948723108e+02   5.4886304499e+00    0.2253178   0.09445752  51.10 0.0007264139    2.136    0.532
       178 -10.1541    115.8081     30.3622   8.3641831332e+01   5.1787734964e+01    0.1884775    0.1084572  44.03 0.0002547293    1.577    0.366
       179 -11.1149     68.7571     29.1709   9.6780031612e+01   6.0768759394e+01    0.2162903    0.1854412 -25.18 0.0006337232    1.269    0.212
       180 -10.6333     65.1613     25.0238   9.6379067414e+01   6.1868347978e+01    0.3179638    0.1714142 -43.17  0.001368675    2.323    0.570
       181 -12.0667    225.3363     23.0640   6.3621314325e+01   2.6595790348e+01    0.5205814    0.3226149  84.89  0.001467885    1.531    0.347
       182 -10.8246    130.0436     24.3293   7.8368378174e+01   4.9337257440e+01    0.2248237    0.1818497   6.81  0.000868383    1.353    0.261
       183 -13.3255    128.5284    180.8258   1.2040140569e+02   1.9192967287e+01     0.594556    0.4235699  26.69  0.002760351    1.759    0.431
       184  -9.8000    250.7754     24.0154   6.1346957618e+01   2.0735794957e+01    0.1512627   0.09315339 -41.83 0.0003219877    1.543    0.352
       185 -10.0751    201.1212     21.6620   6.6044040201e+01   3.2529161313e+01    0.1884643    0.1462726  72.63  0.000448587    1.153    0.133
       186  -9.4821     43.3579     22.6953   1.0340522077e+02   6.5204129176e+01   0.09654786   0.09512516 -67.68 0.0007039771    1.722    0.419
       187 -10.8115    158.7463     20.2831   7.1721277856e+01   4.3019850025e+01    0.3313772    0.2572261  51.45  0.001659999    1.190    0.160
       188  -9.3023    211.3518     17.0045   6.3731717522e+01   3.0609632395e+01    0.4563097    0.1472024  57.16  0.001800062    2.840    0.648
       189 -12.2038    226.6961    238.7337   1.1062157468e+02  -9.2385553463e+00    0.4015236    0.2441378 -20.15 0.0007356803    1.866    0.464
       190  -9.4647    222.6978    239.3311   1.1144983243e+02  -8.6832956597e+00    0.1712101    0.1157129  47.30 0.0005737519    1.614    0.380
       191 -10.9201     92.4177    184.2213   1.2910788046e+02   2.4770579938e+01     0.265812    0.1213939 -56.37  0.001138682    2.125    0.530
       192 -11.7248    214.7121    243.4248   1.1358824286e+02  -7.9611190324e+00    0.3028163    0.2172001  50.51 0.0005062137    1.595    0.373
       193 -10.3598    232.6226     13.8922   6.0878457159e+01   2.6011651270e+01    0.1859384    0.1486146  77.28 0.0003765353    1.186    0.157
       194 -11.6962     33.3377    177.4420   1.4114567947e+02   3.4253506277e+01     0.365865    0.1743163 -68.11 0.0009353972    1.731    0.422
       195  -9.5513    100.2389     14.6552   8.1907498684e+01   5.6749531988e+01    0.1125545   0.09552776 -52.00 0.0001465677    1.561    0.360
       196 -12.2062    235.3317    241.1194   1.0947055478e+02  -1.0901278988e+01    0.2658356    0.2611289  54.40  0.001070769    1.507    0.337
       197 -10.5782     65.9355    242.2582   1.4115933381e+02   1.6579012579e+01    0.1925874     0.146916 -83.89 0.0002340591    1.255    0.203
       198 -11.7311    220.7813    177.5962   1.0020672967e+02   1.4401141353e+00    0.6636558    0.3155375  44.40  0.002804853    2.122    0.529
       199 -12.6791    123.7271    177.2566   1.2085123723e+02   2.0888748029e+01    0.5201058    0.3332814 -84.44  0.001641102    2.188    0.543
       200  -9.2486     14.3598    242.2963   1.4972295389e+02   2.2890812457e+01   0.08963438   0.07663625 -67.93 0.0007033032    1.706    0.414
       201  -9.5629     56.5986    241.5039   1.4271787967e+02   1.7987049690e+01    0.1157355   0.08814644  75.48 9.917527e-05    1.037    0.036
       202 -10.4221    126.9909    238.0044   1.2943857129e+02   7.9060104050e+00    0.1962097    0.1641698  54.77 0.0004721062    1.041    0.039
       203 -10.8452     38.2678    179.1573   1.4028982185e+02   3.3327465732e+01    0.1811261    0.1695166  57.72 0.0006967625    1.340    0.254
       204 -10.7394    235.6401    235.5019   1.0845493688e+02  -1.0206144407e+01     0.252231    0.1760254  13.87 0.0008166511    1.345    0.257
       205 -10.6438    216.9765    233.5001   1.1151680547e+02  -6.9332227369e+00    0.1923555    0.1094784  38.91 0.0005065355    1.554    0.357
       206 -10.2529    176.4030    231.7938   1.1895880321e+02   3.3093449639e-01    0.1866179    0.1528375  45.89   0.00101748    1.108    0.097
       207  -9.5167    122.6307    230.7743   1.2934354780e+02   9.9772469181e+00    0.1618816    0.1173764 -78.59 0.0002741013    1.544    0.352
       208 -16.3461    231.8388    102.2834   8.1273598307e+01   1.2926977950e+01     1.481889     1.004405 -56.63   0.00676429    1.521    0.343
       209 -10.5164     69.3899    230.2442   1.3942524533e+02   1.8421293153e+01    0.2447687    0.1577268  56.60 0.0009810202    1.307    0.235
