#   1 NUMBER                 Running object number                                     
#   2 MAG_AUTO               Kron-like elliptical aperture magnitude                    [mag]
#   3 X_IMAGE                Object position along x                                    [pixel]
#   4 Y_IMAGE                Object position along y                                    [pixel]
#   5 X_WORLD                Barycenter position along world x axis                     [deg]
#   6 Y_WORLD                Barycenter position along world y axis                     [deg]
#   7 A_WORLD                Profile RMS along major axis (world units)                 [deg]
#   8 B_WORLD                Profile RMS along minor axis (world units)                 [deg]
#   9 THETA_WORLD            Position angle (CCW/world-x)                               [deg]
#  10 FWHM_WORLD             FWHM assuming a gaussian core                              [deg]
#  11 ELONGATION             A_IMAGE/B_IMAGE                                           
#  12 ELLIPTICITY            1 - B_IMAGE/A_IMAGE                                       
         1 -15.5487    247.3706    102.5641   2.9327817106e+01   1.1601901731e+01     10.65858     1.811417  47.23   0.01764869    7.951    0.874
         2 -16.1496    247.6671     70.1442   2.2456431351e+01   1.6116865455e+01     7.334445     4.694695 -51.62   0.01666983    1.371    0.270
         3 -11.8335     67.5443    143.3356   7.8543658184e+01   3.8011024942e+01     3.977332     1.247619 -61.10   0.01329862    3.047    0.672
         4 -11.8923      2.5768    127.8876   9.7471489305e+01   4.8646871491e+01     1.799146    0.3462248 -81.33  0.004984884    5.494    0.818
         5 -15.7362    247.9238     89.3620   2.6492660971e+01   1.3401114156e+01     5.769109     2.942795  50.12   0.03026905    2.374    0.579
         6  -9.1257    239.6799      5.2650   9.3632263238e+00   2.5436395697e+01    0.3224333    0.1153108  61.63  0.001540171    3.171    0.685
         7  -8.2531    228.1770      6.5943   1.0276140843e+01   2.7628853925e+01     0.143306    0.1283453  70.38 0.0005173994    1.377    0.274
         8 -10.6102    232.3674      8.4584   1.0435537875e+01   2.6577776450e+01     0.748802    0.2273853  54.88  0.002891059    4.792    0.791
         9  -9.4866    233.1803      3.2844   9.2901994773e+00   2.6937019014e+01    0.3500732    0.1605504  53.95  0.001753926    2.985    0.665
        10  -8.9638    125.9714     14.5332   2.2798106221e+01   5.1259925251e+01     0.263171     0.179655 -49.16  0.001366312    1.577    0.366
        11 -11.1431    119.1378      9.8295   2.2238381193e+01   5.3449177851e+01    0.6656131    0.3944564  46.94  0.002722404    1.651    0.394
        12  -9.7747    220.9355      9.7468   1.1413703155e+01   2.8825770295e+01    0.3662675    0.1877918  55.19  0.001353823    2.397    0.583
        13  -8.8640    144.0000      7.0103   1.7581485393e+01   4.7365604096e+01     0.201391   0.07711297 -23.08 0.0008010195    2.933    0.659
        14  -9.5450     99.1312      3.9862   2.3683095959e+01   5.8974058162e+01    0.2330942    0.1742471  66.67 0.0003493905    1.189    0.159
        15  -8.2611    171.2673      3.0023   1.3481952957e+01   4.0905096047e+01    0.1833862    0.1564141 -74.71 0.0009028882    1.041    0.039
        16  -9.4517    105.9934      2.6474   2.1782105704e+01   5.7379715701e+01    0.3697475    0.1752672 -61.98  0.001412819    3.346    0.701
        17  -9.5362    231.9829    194.4899   4.9649961463e+01   4.8945360107e-01     0.297292     0.218941  36.47   0.00133922    1.575    0.365
        18  -9.9955    249.2633    249.6740   5.5762707024e+01  -8.2690262678e+00    0.2926721    0.1772026  -9.88  0.002124038    1.331    0.249
        19 -11.3742    237.0163    248.4600   5.7542875344e+01  -6.8491202570e+00    0.5057456    0.2785835  -8.34  0.003260212    1.717    0.418
        20 -10.0886     94.7384    249.5115   8.4924642583e+01   1.1223147808e+01    0.2022879    0.1813794  24.05 0.0002751765    1.206    0.171
        21  -8.8409    228.1975    192.0120   4.9840641835e+01   1.3498099942e+00    0.2533151    0.1777768 -40.97  0.001056661    1.625    0.385
        22  -8.3437    119.7017    200.9559   7.3591107189e+01   1.6631808448e+01    0.1761246    0.1696512  82.74 0.0005017801    1.170    0.146
        23 -10.3227    192.7911    194.4962   5.6681301170e+01   6.1358364634e+00    0.7903753    0.4386164 -61.52    0.0027888    5.203    0.808
        24  -8.1230    227.5865    198.8692   5.1154847999e+01   4.7111371017e-01    0.2087446    0.1473644  46.51  0.001181463    1.991    0.498
        25 -15.2000    243.3709    134.7892   3.6493307556e+01   7.5086420273e+00     2.635714     1.960546 -33.89   0.01659726    1.139    0.122
        26 -11.8107    224.9233    244.1152   5.8910982565e+01  -5.0059988107e+00    0.5979851    0.3942045 -17.30  0.004220657    1.360    0.264
        27  -7.6265    169.2713    191.7245   6.0942781156e+01   1.0329419110e+01    0.1189799    0.1056984  63.30 0.0001962273    1.485    0.327
        28  -8.0919    236.5019    187.9174   4.7738793263e+01   7.9496966130e-01    0.1725637    0.1015272 -32.41 0.0005258914    1.515    0.340
        29  -8.1532    181.0000    184.9971   5.7300834773e+01   9.5847229484e+00    0.2138212   0.07389956 -42.56 0.0008052856    2.962    0.662
        30 -10.3534    197.3423    176.7161   5.2528587382e+01   8.3182856697e+00    0.5214517    0.4723083 -67.17  0.003210756    1.554    0.357
        31  -8.4368     76.4528    174.9323   8.0795089116e+01   2.8973196841e+01    0.1959739     0.175229  45.69 0.0003192872    1.059    0.056
        32  -9.5260    180.0182    173.7170   5.5372501696e+01   1.1726766706e+01    0.2941589    0.2245085  41.00  0.001241118    1.356    0.263
        33  -9.7750    177.4958    169.9885   5.5165117536e+01   1.2833701799e+01    0.3339489    0.1330656 -44.58  0.001306113    2.590    0.614
        34  -9.2828    185.2666    169.5876   5.3503244887e+01   1.1557021921e+01    0.2849583    0.2063911 -66.47  0.001388045    2.214    0.548
        35  -8.6849    156.6032    169.0103   5.9493426714e+01   1.6734757563e+01    0.2733516    0.2142973 -68.48  0.001390963    1.705    0.413
        36  -9.0291    213.9150    168.6876   4.7944457265e+01   6.9609607534e+00    0.2300053    0.2173818 -29.34 0.0007385942    1.275    0.215
        37  -9.9264    198.5704    153.1070   4.7583782460e+01   1.2111521702e+01    0.5711068    0.3703644   7.77   0.00267441    2.118    0.528
        38 -11.2727    191.7692    143.5370   4.6833871399e+01   1.5026946221e+01     0.908304    0.5410227 -22.67  0.004088691    1.990    0.497
        39  -9.7440    206.8425    154.3903   4.6339201740e+01   1.0454263250e+01    0.3958519    0.3393651 -85.11  0.002056661    1.757    0.431
        40 -11.3081    203.6519    147.7205   4.5524910480e+01   1.2134546279e+01    0.8352162     0.602038  35.56  0.003664538    1.451    0.311
        41 -11.5209    197.2157    160.9633   4.9451647424e+01   1.0997129669e+01    0.8641763    0.7485286  42.24  0.001979369    1.298    0.230
        42 -12.2232    188.7354    156.3791   5.0144418913e+01   1.3290352868e+01    0.7553431    0.5704861  11.53  0.003301553    1.450    0.310
        43  -8.6289    203.5157    160.8264   4.8251886396e+01   9.9446795453e+00    0.2272365    0.2100586  85.99  0.001000673    1.509    0.337
        44 -10.0103    216.7420    155.9990   4.4938148688e+01   8.5298686025e+00    0.3787162    0.2652289 -62.29  0.001916395    2.299    0.565
        45  -7.6887     41.5531    158.4150   8.8522587102e+01   3.7530207740e+01     0.133318    0.1249351  86.43 4.466428e-05    1.074    0.069
        46  -8.3803    167.5658    155.0554   5.4237410728e+01   1.7433411208e+01    0.1977389    0.1404118 -51.76 0.0005671167    1.565    0.361
        47 -11.0181    187.5273    152.0244   4.9471017115e+01   1.4289208765e+01    0.4345984    0.3288446 -25.31  0.001189994    1.296    0.229
        48 -10.0820    171.6257    236.7695   6.7598112505e+01   2.7118754206e+00    0.4273075    0.2336897  51.71  0.002024638    2.966    0.663
        49  -9.3411    164.9304    231.7318   6.8212546600e+01   4.3945364425e+00    0.4466694    0.2313601  56.56   0.00160695    5.142    0.806
        50 -12.6549     52.8955    119.4747   7.9108638964e+01   4.6120018670e+01     1.182629    0.8433148 -10.59 0.0004871132    1.893    0.472
        51  -8.4249    125.3099    127.0745   5.8152989996e+01   3.1698467752e+01    0.2132688    0.1976932 -49.28  0.000346982    1.094    0.086
        52 -12.9592     14.4528    125.7485   9.3345493969e+01   4.8392808043e+01      1.02156    0.9421039 -64.09  0.004867004    1.119    0.107
        53  -9.9441    152.1475    115.6782   4.8631701664e+01   2.8439115599e+01    0.3553584    0.2674726  17.84  0.001389719    1.681    0.405
        54  -7.4136     94.4733    116.4870   6.4548806795e+01   4.0238646429e+01    0.1541748    0.1485578  77.67 0.0002039875    1.049    0.047
        55 -10.5175    182.2042    244.9948   6.6712982334e+01   1.4193546504e-01    0.3356793    0.2131929  47.94 0.0008818867    2.151    0.535
        56  -9.2482    142.7030    115.0279   5.0709058156e+01   3.0631206145e+01    0.2241493    0.1940473 -40.47 0.0005812467    1.156    0.135
        57 -10.1485    147.3133    110.9823   4.8562096897e+01   3.0454707030e+01    0.3710755    0.2900642 -49.11 0.0009937501    1.292    0.226
        58 -15.3854    235.9278    105.7795   3.1447713826e+01   1.3121165930e+01     1.707865     1.272471 -61.12  0.007042301    1.534    0.348
        59 -10.5806    126.5628    106.7810   5.2679778860e+01   3.5908435095e+01    0.5988407    0.3551661 -63.14  0.002278733    2.314    0.568
        60 -10.2751    121.8755    104.4040   5.3310986862e+01   3.7443614543e+01     0.490858    0.2836316 -36.53  0.001934982    1.907    0.476
        61 -12.4022     43.2055    122.4122   8.3008034148e+01   4.6546451956e+01    0.8200337    0.7099413  83.08  0.001724221    1.146    0.127
        62  -9.8206    140.1910    102.1201   4.7927753248e+01   3.3854416651e+01    0.3640231    0.2720398  61.38 0.0007721754    1.456    0.313
        63  -9.1641    132.7036    191.3198   6.9033602557e+01   1.6451880530e+01    0.3161026    0.2428983 -85.41 0.0009998917    1.860    0.462
        64  -9.4357    162.4114     95.2866   4.1066910638e+01   3.0107752586e+01    0.3223062    0.2702529 -25.05  0.000881248    1.275    0.216
        65  -8.9976    119.4554     94.2046   5.1126449328e+01   4.0159943062e+01     0.436618    0.1865125 -51.98  0.001463229    2.717    0.632
        66  -9.4922    167.0243     91.5046   3.9122034303e+01   2.9739969542e+01    0.3247968    0.2145398 -37.64   0.00050943    1.486    0.327
        67  -9.9663     31.7414    133.1123   8.8469191656e+01   4.5003224270e+01    0.2291779    0.2125871 -35.38  0.000233781    1.214    0.177
        68  -7.8574    124.8510     83.3678   4.6456386953e+01   4.1146801264e+01    0.1997416    0.1419136  40.36  0.000261527    1.454    0.312
        69  -8.4968    134.7188     77.4479   4.2164178046e+01   3.9952605255e+01    0.2684755    0.1365319 -37.89 0.0005639875    2.013    0.503
        70  -9.5489    133.0106    187.3405   6.8302120639e+01   1.7197325052e+01    0.2192228    0.2002305 -54.62 0.0002928374    1.226    0.185
        71 -10.1853    161.4610     75.8089   3.5891455946e+01   3.3809989631e+01    0.4419504    0.1822706 -34.86  0.001331856    2.482    0.597
        72  -8.3279     96.1075     70.0996   5.0607685221e+01   5.0255585245e+01    0.2126462    0.1940033   9.08 0.0002688632    1.158    0.137
        73 -10.0232    138.2728     47.6071   3.1901030954e+01   4.4046721063e+01    0.3523997    0.2311691 -17.21  0.001587898    1.946    0.486
        74 -10.6743    141.6651     42.4628   2.9557681875e+01   4.3921810959e+01    0.5435249    0.3854421  72.26  0.002674157    1.391    0.281
        75 -10.8532    153.1436     57.8799   3.2232275599e+01   3.8770408583e+01    0.6282501    0.3054064 -31.35  0.002067901    2.203    0.546
        76 -11.7776    149.0731     48.4066   3.0075529490e+01   4.1208845777e+01    0.9911338    0.5567744  71.28  0.004267287    1.897    0.473
        77  -9.7639    130.9933     35.0429   2.9128974922e+01   4.7627668331e+01    0.3771309    0.3073934 -71.07  0.001279703    1.312    0.238
        78 -10.4569    133.1040     42.9790   3.1415974967e+01   4.6016710261e+01    0.6266356    0.3235452 -16.77  0.002281017    2.929    0.659
        79  -9.9507    135.5208     36.4851   2.8741722932e+01   4.6288430379e+01    0.2802452    0.2493009  -4.50  0.000846541    1.313    0.238
        80  -9.0272    167.0805     36.4486   2.3551681369e+01   3.8316027883e+01    0.4363974    0.2004441 -16.04   0.00153646    3.672    0.728
        81  -9.7281    201.4041     35.8122   1.9234947699e+01   3.0188715250e+01    0.3133819    0.2520856  35.41  0.001193504    1.652    0.395
        82 -14.1319    240.6551     76.9557   2.4641061811e+01   1.6469284516e+01    0.7542887    0.6529142  13.11  0.001995269    1.507    0.336
        83  -8.2700    144.2950     32.3538   2.5796841922e+01   4.4580393748e+01    0.1440777    0.1052926  31.65 0.0006713649    1.688    0.408
        84  -8.7464    182.9709     27.5226   1.9052598936e+01   3.5512528339e+01    0.2413574    0.1586199 -53.68 0.0004952225    1.424    0.298
        85  -9.3337    147.8159     25.2642   2.2945222054e+01   4.4528118227e+01    0.2861972    0.2424174   3.18 0.0007948175    1.471    0.320
        86  -9.3776    191.8352    240.2556   6.4229412408e+01  -4.7165341282e-01    0.1840772    0.1288877  36.06  0.001193258    1.475    0.322
        87  -8.6630    119.6259    238.5377   7.8523541522e+01   9.7126434788e+00    0.1893013    0.1705352  13.05 0.0004993739    1.173    0.148
        88  -8.5206     45.6418    236.6484   9.4268929796e+01   1.9629241867e+01     0.185438    0.1280014  24.60  0.001151389    1.550    0.355
        89  -7.6885    105.1808    233.3915   8.1052044791e+01   1.2627609933e+01    0.1788652   0.09400365  41.82 0.0004540692    1.576    0.366
        90  -9.1778    158.0628    225.4059   6.8701586192e+01   6.3695266643e+00    0.2743735    0.1866046  57.32  0.001031548    2.153    0.536
        91  -7.9265     46.8282    212.6255   9.2290956130e+01   2.4333539071e+01    0.1752334   0.09451538  42.00 0.0004547802    1.524    0.344
        92  -8.8396    245.0916    206.2680   4.9566594967e+01  -2.7469695728e+00    0.1778513    0.1380368  -9.30 0.0005801098    1.076    0.071
        93 -10.4997    246.5485    200.7698   4.8400301844e+01  -2.2203132372e+00     0.781217    0.3747905  45.51  0.003983743    3.149    0.682
        94 -12.4487     59.6646    122.6290   7.7372029683e+01   4.4402408357e+01    0.9788053    0.7621713   0.55  0.001938578    1.601    0.375
        95 -11.0369    211.6973    178.9865   5.0310667476e+01   5.6857971343e+00    0.9476417    0.4656499 -25.38  0.004362832    2.247    0.555
        96 -10.0180    214.2858    185.2895   5.1022976769e+01   4.3238179696e+00    0.4585614    0.2685988 -16.36  0.002361968    1.891    0.471
        97 -10.4327    220.9354    186.3136   5.0047170862e+01   3.1967298502e+00    0.4660081    0.3685606  74.88  0.002273741    2.715    0.632
