#   1 NUMBER                 Running object number                                     
#   2 MAG_AUTO               Kron-like elliptical aperture magnitude                    [mag]
#   3 X_IMAGE                Object position along x                                    [pixel]
#   4 Y_IMAGE                Object position along y                                    [pixel]
#   5 X_WORLD                Barycenter position along world x axis                     [deg]
#   6 Y_WORLD                Barycenter position along world y axis                     [deg]
#   7 A_WORLD                Profile RMS along major axis (world units)                 [deg]
#   8 B_WORLD                Profile RMS along minor axis (world units)                 [deg]
#   9 THETA_WORLD            Position angle (CCW/world-x)                               [deg]
#  10 FWHM_WORLD             FWHM assuming a gaussian core                              [deg]
#  11 ELONGATION             A_IMAGE/B_IMAGE                                           
#  12 ELLIPTICITY            1 - B_IMAGE/A_IMAGE                                       
         1 -12.0902     76.4663     24.3340   9.0201263550e+01   6.0158315806e+01    0.4552218    0.2963582 -38.80  0.001121795    1.802    0.445
         2 -11.4559     90.3311     15.8904   8.2887221138e+01   5.8520241930e+01    0.3572779    0.2290357 -12.27 0.0004743697    1.650    0.394
         3 -10.8010     87.1488     12.1321   8.2309446594e+01   5.9495468333e+01     0.250978    0.2083742  21.48 0.0009823972    1.034    0.033
         4 -10.5964     12.4676     15.9657   1.1142461956e+02   6.9555249379e+01    0.3260109    0.1585086  24.56   0.00140487    2.134    0.531
         5 -11.0491     41.2793     18.4550   1.0020183456e+02   6.6179603082e+01    0.4134983    0.2737001  -4.60  0.002697272    1.356    0.262
         6 -10.6305    100.1726     18.6702   8.1344915536e+01   5.6288895554e+01    0.3888602    0.2326246 -50.24  0.001921232    2.516    0.603
         7 -11.0433     22.2493      9.2476   1.0414281669e+02   6.9513747555e+01    0.3013983    0.1748754   5.82  0.001569582    1.658    0.397
         8 -10.3997     38.6321      2.3454   9.4123913740e+01   6.8336740730e+01    0.3690854    0.3089319  13.39  0.002711976    1.281    0.219
         9 -11.4986     30.1730      7.2291   9.9813831698e+01   6.8874928273e+01    0.3140063    0.2340772   6.28  0.001268872    1.094    0.086
        10 -11.6115     34.8893     13.1333   1.0048316520e+02   6.7623078541e+01    0.3485392    0.2349493 -29.85  0.001309783    1.450    0.310
        11 -11.7322     39.5649     10.1223   9.7276399914e+01   6.7388203928e+01    0.5103242    0.2795981  -9.42  0.002788461    1.878    0.468
        12 -10.5407    156.2437     13.8812   6.8543722679e+01   4.4138016362e+01    0.3118775    0.2099418  37.64  0.001288762    1.621    0.383
        13 -10.7655    144.0780     14.4338   7.0695943893e+01   4.6974589597e+01    0.2074008     0.187298 -38.13 0.0004022684    1.258    0.205
        14 -10.2206     68.8818     12.7107   8.7934549990e+01   6.2727777102e+01    0.2202195    0.1302844 -33.83  0.001272394    1.900    0.474
        15 -10.0861    119.2624     12.0044   7.4603543155e+01   5.2871461866e+01    0.1734258     0.153355  36.69 0.0003349668    1.055    0.052
        16 -11.9954     55.7518      6.3818   8.9612428995e+01   6.5476819023e+01      0.45611    0.3387037  -3.44   0.00168248    1.178    0.151
        17  -9.7734     61.0150      3.0283   8.6381858516e+01   6.4952815298e+01    0.2083032     0.137483  37.46 0.0006776741    1.321    0.243
        18 -10.4641    148.4026      9.8138   6.8591400121e+01   4.6385496820e+01    0.2043334    0.1650464   3.93 0.0008396495    1.494    0.331
        19 -11.3108    151.4979      7.3911   6.7395906039e+01   4.5870620706e+01    0.3106151    0.2564405 -11.36  0.001946213    1.452    0.311
        20 -10.4100     10.0178      1.4556   1.0620335784e+02   7.1642242702e+01    0.2101671     0.123182 -31.63 0.0004354737    1.497    0.332
        21 -10.3870      2.0293      2.9780   1.1078809051e+02   7.2123263359e+01    0.2063919    0.1193863 -21.02  0.001082545    1.307    0.235
        22 -10.4139     12.3729      8.6852   1.0837195946e+02   7.0536820660e+01    0.2562738    0.1766458  29.20   0.00135099    1.789    0.441
        23 -11.0895      9.3982      5.2238   1.0822866053e+02   7.1237002700e+01    0.5101997    0.1825136  38.45  0.002425842    4.585    0.782
        24 -11.3127      4.2707      9.6494   1.1261371861e+02   7.1076542590e+01    0.3218334    0.1950581  16.95 0.0008297837    1.659    0.397
        25 -10.6854      2.7039      6.3552   1.1195389205e+02   7.1634652686e+01    0.1921088    0.1342156  16.77 0.0008064976    1.533    0.347
        26 -10.6483    210.1752      7.8303   6.0289188960e+01   3.1833676575e+01    0.1973283    0.1479406 -71.90  0.001055099    1.202    0.168
        27 -10.7317     70.4261      6.8592   8.5029719606e+01   6.3027106161e+01    0.3482649    0.2687857  31.53  0.002383936    1.118    0.105
        28 -10.8647     65.9787      6.5034   8.6268824079e+01   6.3817350484e+01    0.2957081    0.1671045  36.46  0.001363074    1.507    0.336
        29 -11.6736    130.7395      4.0266   6.9781618430e+01   5.0979225499e+01    0.3631499     0.246813 -59.48  0.002018937    1.927    0.481
        30 -11.1379     92.9705      8.1667   7.9257621530e+01   5.8723358185e+01    0.4439815    0.1911382 -22.15 0.0007755503    2.504    0.601
        31 -11.0232    194.7834      3.8529   6.0937172648e+01   3.5860971889e+01    0.2437408    0.1525435 -57.41  0.001355228    1.621    0.383
        32 -10.1764    120.9516      4.1372   7.1621576654e+01   5.3167293423e+01    0.1889118    0.1578903  48.06 0.0004709121    1.008    0.008
        33 -10.3834     16.5345      3.4530   1.0408113426e+02   7.0788151242e+01    0.1945427    0.1596661 -27.65  0.001335931    1.570    0.363
        34 -10.5466     20.0107      2.0091   1.0182577481e+02   7.0597914900e+01    0.1986986    0.1435524   8.59  0.001038699    1.168    0.143
        35 -10.2413    160.4944      3.0504   6.4861781170e+01   4.4113142529e+01    0.1756448    0.1296657 -21.04  0.001044577    1.632    0.387
        36 -11.6026     80.1694      1.7733   8.0126331149e+01   6.1712361833e+01    0.3445317    0.1434869  48.90  0.001605367    1.979    0.495
        37 -10.0712    176.5489      1.9817   6.2524516246e+01   4.0377932954e+01    0.1691247    0.1264753 -29.30  0.001021733    1.572    0.364
        38  -9.4922    113.0401      2.4864   7.2626166427e+01   5.5026673756e+01    0.1830121    0.1059975  59.05 0.0003185803    1.492    0.330
        39  -9.3773     29.0209      1.4646   9.7635433560e+01   6.9641879855e+01    0.1494742   0.09089068  30.30  0.001015597    1.563    0.360
        40  -9.5373     21.2015    126.1587   1.3637361417e+02   4.7424554004e+01    0.1770801    0.1314598 -68.67 0.0004114314    1.072    0.067
        41 -12.3937     17.9267    248.9005   1.4869760073e+02   2.1117128528e+01    0.6429955    0.3116426  28.45  0.003288569    3.868    0.741
        42 -12.1806      5.3066    240.6229   1.5021326388e+02   2.4021195959e+01    0.4466482     0.210487  60.49  0.002859297    1.663    0.399
        43 -10.9186      1.8310    248.7626   1.5117858417e+02   2.2851496854e+01    0.3607945    0.1591933 -82.86  0.002277511    1.828    0.453
        44 -11.2510      6.2633    247.2437   1.5042300391e+02   2.2677932282e+01    0.3280926    0.1623645 -83.33  0.002157716    1.631    0.387
        45 -12.2129     10.4665    245.0198   1.4964753620e+02   2.2653308591e+01    0.2961664    0.1880507  58.66  0.002043827    1.302    0.232
        46 -11.8393     23.6470    121.3839   1.3497531688e+02   4.8315746407e+01    0.5139018    0.2588445 -84.83 0.0008213607    2.516    0.603
        47 -10.5837      3.3959    118.9167   1.4008360795e+02   5.0361556638e+01    0.1842053    0.1632414 -45.66 0.0004211344    1.279    0.218
        48  -9.4232    131.8966    114.3767   1.0323597103e+02   3.3616220011e+01    0.2079363    0.1461944  33.09 0.0003255132    1.602    0.376
        49  -9.5572      2.3175    114.2905   1.3974014158e+02   5.1457716203e+01    0.1186323     0.068615 -46.94 0.0002465434    1.598    0.374
        50 -10.0445    249.1672    111.8231   7.9103596654e+01   7.6025448681e+00    0.1887245    0.1647366 -13.18  0.001074092    1.326    0.246
        51 -11.6932      5.1943    108.6299   1.3812580849e+02   5.2534133092e+01    0.3564117    0.2177695  14.33  0.002201803    2.187    0.543
        52 -10.9909     58.3392    107.8809   1.2234805958e+02   4.7804697612e+01    0.2869897    0.2102207 -15.51  0.001170409    1.729    0.421
        53  -9.5171     34.4659    107.5079   1.2942222053e+02   5.0510679309e+01    0.1283928    0.1061513 -59.57 3.934441e-05    1.029    0.029
        54  -9.1390     79.6426    106.7005   1.1571557658e+02   4.5086712824e+01    0.1457653    0.1069446 -18.20 0.0007036278    1.708    0.414
        55  -9.8303    113.4949    102.5312   1.0493740390e+02   3.9996400937e+01    0.1497411    0.1442657 -31.83 0.0003525619    1.015    0.015
        56  -9.9024     66.6207    101.8170   1.1841443548e+02   4.8077795832e+01    0.1987544    0.1219457 -61.85 0.0009480409    1.680    0.405
        57 -10.8834     57.6930    101.5958   1.2109290424e+02   4.9296962016e+01    0.2521226    0.2282277 -71.09  0.001124666    1.174    0.148
        58  -9.3229      5.2559    102.3438   1.3713119544e+02   5.3911378747e+01    0.1230648   0.06484152 -48.41 0.0003155913    1.586    0.370
        59  -9.4463     62.3066     98.9609   1.1903560311e+02   4.9288525589e+01    0.2182151    0.1096435 -73.11 0.0007042845    4.263    0.765
        60 -12.3536     17.7832     95.2490   1.3211385701e+02   5.4622466946e+01     0.511641    0.3413747 -42.82  0.003042873    1.330    0.248
        61  -9.2819    129.4880     97.5088   9.9284150637e+01   3.7719923673e+01    0.1511468    0.1489222 -35.20 -5.438289e-05    1.001    0.001
        62  -9.0212    101.3446     97.2660   1.0689072403e+02   4.3455282233e+01    0.1462943     0.114023  -1.51 0.0006982476    1.606    0.377
        63 -10.6899     78.9244     94.9556   1.1289276429e+02   4.7775108358e+01    0.2101239    0.1877006 -34.16 0.0003128184    1.035    0.034
        64  -9.6827      3.5067     95.4827   1.3652301520e+02   5.5502473635e+01    0.1176927   0.08992662 -60.97 2.255168e-05    1.023    0.023
        65  -9.5282     96.8290     94.2689   1.0735983960e+02   4.4913127560e+01    0.2255261     0.157195  88.37 0.0009261224    2.615    0.618
        66 -10.0427     84.3045     94.1505   1.1104266209e+02   4.7089581248e+01    0.2010135     0.180447   4.00   0.00114688    1.179    0.152
        67  -9.7710     43.6711     93.6709   1.2361329546e+02   5.2656968244e+01    0.1370447   0.08519259 -31.68 0.0003819253    1.710    0.415
        68 -10.5647     58.2753     91.4325   1.1840733139e+02   5.1442686315e+01    0.3155962    0.2021092 -25.33   0.00128108    1.827    0.453
        69 -11.6217     27.5728     90.9003   1.2813720311e+02   5.4790244716e+01    0.4752995    0.2992698  56.32  0.002476631    2.361    0.576
        70  -9.9089     25.4621     84.9804   1.2751778074e+02   5.6227123344e+01     0.247874    0.1584942 -57.45 0.0008215298    1.301    0.231
        71 -11.5467     11.2225     88.1271   1.3279853419e+02   5.6604529944e+01    0.5348957    0.2381646 -61.73  0.002181435    1.750    0.429
        72 -10.4140     16.0412     89.4586   1.3152551829e+02   5.5994661509e+01    0.2728245    0.1536462 -23.13  0.001297883    2.199    0.545
        73 -11.6731     76.3498     89.3034   1.1214190772e+02   4.9368442802e+01    0.2651277    0.2240176 -40.46 0.0003313727    1.075    0.070
        74 -10.5511      1.8158     89.7775   1.3606044703e+02   5.6816007406e+01    0.2047323    0.1248857 -63.38 0.0002511737    1.260    0.206
        75 -11.1424     98.7504     89.3682   1.0540684249e+02   4.5578292361e+01    0.2639456     0.191532  28.69   0.00128871    1.505    0.336
        76  -9.6833     44.0019     89.5095   1.2251426806e+02   5.3518040397e+01    0.1753612     0.127132  28.11  0.001028699    1.594    0.373
        77  -9.5719    124.1175     86.8543   9.7629944442e+01   4.1012660554e+01    0.2088671    0.1793317   4.01 0.0005710407    1.308    0.236
        78 -10.6367     54.5637     84.7388   1.1785609343e+02   5.3317569767e+01    0.3336434    0.1969825 -46.50  0.001435496    1.453    0.312
        79  -9.0672    113.5960     86.4314   1.0033900556e+02   4.3292939709e+01    0.1473643    0.1369851  -9.78 0.0001372958    1.078    0.072
        80 -10.6685      3.8987     82.9673   1.3415392110e+02   5.8133072026e+01    0.2495875    0.1245823 -55.66  0.001023402    1.454    0.312
        81  -9.3633     78.2474     83.3671   1.0986723730e+02   5.0295573353e+01    0.1791029    0.1288325  45.84 0.0003117695    1.592    0.372
        82  -9.6414    100.4665     81.9956   1.0273785363e+02   4.6731810819e+01    0.2281693    0.1364844 -41.87 0.0005874913    1.612    0.380
        83 -11.3728     55.6520     75.5691   1.1495826545e+02   5.5048505763e+01    0.3397878     0.254361  13.16   0.00199165    1.474    0.322
        84 -11.5275     63.7655     80.7230   1.1374100495e+02   5.2953767804e+01    0.5782037    0.4082249 -51.87  0.003187888    1.370    0.270
        85  -9.8286     65.9640     75.2974   1.1144393931e+02   5.3729533887e+01     0.182557    0.1753063 -37.92            0    1.175    0.149
        86  -9.8802    250.3629     80.8257   7.2075060430e+01   1.2612707877e+01    0.1896599    0.1213913 -31.83 0.0007017812    1.661    0.398
        87 -10.0746     89.2907     80.3313   1.0556184007e+02   4.9076619301e+01    0.2747375    0.1845756 -52.87 0.0008262272    1.604    0.376
        88 -10.1048    176.4285     77.3984   8.2952805979e+01   3.0499776907e+01    0.3217326    0.2581289  31.55  0.001585493    1.463    0.316
        89 -10.8952     14.4911     77.0548   1.2941274411e+02   5.8699193992e+01    0.4486771    0.1837103 -39.47  0.002081912    2.210    0.547
        90  -9.6180     74.9841     75.5305   1.0858163721e+02   5.2354391321e+01    0.1960289    0.1654578 -32.69 -6.938908e-06    1.074    0.069
        91  -9.3520     70.2984     75.3298   1.1003490430e+02   5.3099110841e+01    0.1393466    0.0963972 -17.08 0.0003747004    1.640    0.390
        92 -12.1523     33.2903     72.8776   1.2189742106e+02   5.8030267038e+01     0.447059    0.2826167  15.75  0.002615717    1.846    0.458
        93  -9.7035    223.9999     74.2733   7.4157564168e+01   1.9544765310e+01     0.191907    0.1689752  86.87 0.0003063258    1.106    0.095
        94  -9.7542    136.5037     74.1770   9.0722330831e+01   4.0624216147e+01    0.2128928     0.146895 -36.38  0.000793169    1.477    0.323
        95 -11.1568      3.6927     73.7751   1.3237866434e+02   6.0034260109e+01    0.2978045    0.1950899  17.14  0.000944702    1.890    0.471
        96  -9.3379     96.1407     73.3808   1.0137166869e+02   4.9176218790e+01    0.1870753      0.13237  52.70  0.000463258    1.637    0.389
        97 -10.3096    105.8571     71.5480   9.7974193333e+01   4.7654642089e+01    0.2388596    0.1937423 -31.50 0.0004662246    1.207    0.172
        98  -9.8811     81.1957     72.5186   1.0568052723e+02   5.1942171416e+01    0.2443142    0.1819113 -80.42  0.001165507    2.341    0.573
        99  -9.1580     90.6739     69.3316   1.0173739941e+02   5.0909531186e+01    0.1340507    0.1127775 -82.71 0.0003295467    1.709    0.415
       100  -9.9330     45.9875     68.8399   1.1632652738e+02   5.7516345657e+01    0.2532607    0.2148947  78.76  0.001560459    1.794    0.442
       101  -9.9210     10.1829     69.2034   1.2911288124e+02   6.0568318150e+01    0.1882283    0.1242546 -39.43   0.00123663    1.237    0.192
       102  -9.7126    114.1348     66.4791   9.4074531726e+01   4.6864079303e+01    0.2041005    0.1386671  48.37 0.0003978617    1.477    0.323
       103 -12.0533     34.1288     65.1501   1.1947497241e+02   5.9464480570e+01     0.269801    0.2055286 -28.90 0.0004036196    1.130    0.115
       104 -11.0531     38.9825     62.9543   1.1708217603e+02   5.9396464426e+01    0.3875095    0.2206175 -27.40  0.001626184    1.783    0.439
       105 -10.7335     41.3039     59.3248   1.1513624405e+02   5.9824446798e+01    0.2982448    0.1777643 -31.33  0.001426574    1.518    0.341
       106 -10.3797     16.6200     63.8938   1.2549424834e+02   6.1176838372e+01    0.3677649    0.2482275   1.19  0.001847452    1.685    0.407
       107 -11.7485     10.3722     48.4876   1.2364123522e+02   6.4489281543e+01      1.00667     0.439059 -16.56  0.004732292    3.301    0.697
       108  -9.4789     23.8446     61.8989   1.2230897770e+02   6.1003323158e+01    0.2934989    0.1949194 -25.58  0.001457418    1.405    0.288
       109 -11.0346     17.0161     45.0419   1.1995507248e+02   6.4622367050e+01    0.3601063    0.2476067  16.63  0.002471129    1.610    0.379
       110 -12.6083     20.6385     56.7549   1.2205674325e+02   6.2230154259e+01    0.3535826    0.2969473  12.68 0.0008867825    1.377    0.274
       111 -10.8865     20.2647     51.2426   1.2058229855e+02   6.3269041280e+01     0.399031    0.1644837 -45.15  0.001171301    1.860    0.462
       112 -10.4405    131.5412     64.6821   8.9032427852e+01   4.3376477391e+01    0.3830242    0.2621075  56.93  0.001837842    1.498    0.332
       113  -9.2757     72.6932     63.3701   1.0550943447e+02   5.4971937075e+01    0.1263948    0.1068473 -76.92 0.0007034275    1.759    0.431
       114 -10.5114     62.7369     62.3336   1.0851235308e+02   5.6620869118e+01      0.26384    0.1796634 -26.37  0.001048758    1.393    0.282
       115 -11.5117      9.2132     60.5724   1.2736463916e+02   6.2316190928e+01    0.4281041    0.2007392 -35.56 0.0008309982    1.871    0.466
       116 -10.7822      2.6652     60.1968   1.2968938220e+02   6.2772186477e+01     0.285007    0.2015643  72.78  0.001716252    2.453    0.592
       117 -11.1363     54.6984     57.6682   1.0978993986e+02   5.8533689918e+01    0.4374923    0.3692434 -50.25  0.002799507    1.381    0.276
       118 -11.9365     83.4725     56.9596   9.9902850404e+01   5.4318059129e+01    0.3146591    0.2420471 -33.20 0.0002902683    1.252    0.201
       119 -11.8733     87.9899     53.8632   9.7442722476e+01   5.4029313657e+01    0.4040231    0.2934603  36.98  0.001268967    1.359    0.264
       120  -9.8276    118.8765     59.0545   9.0438469925e+01   4.7086921155e+01    0.2087082     0.190763 -69.52 0.0004469102    1.295    0.228
       121  -9.6671     71.4195     57.7269   1.0406473337e+02   5.6154638229e+01    0.1721618    0.1130791 -28.27 0.0002813356    1.447    0.309
       122 -10.5474     60.5704     57.7207   1.0774983791e+02   5.7740588678e+01    0.2259305     0.218368 -77.24 0.0007884323    1.421    0.296
       123  -9.5991     99.6465     56.1820   9.4758595824e+01   5.1484379880e+01    0.1881443    0.1234527 -23.98 0.0004131336    1.604    0.376
       124  -9.4997    100.8862     61.8214   9.6272743585e+01   5.0320225157e+01    0.1827422    0.1699079 -79.39  0.000664274    1.352    0.260
       125  -9.1204    225.5486     54.9564   6.9402756250e+01   2.2210466047e+01    0.1775293    0.1253418  -3.02  0.000535363    2.507    0.601
       126 -10.8512    114.8045     53.9499   8.9837202572e+01   4.8754127434e+01    0.3272642    0.2643189  36.18  0.001126012    1.181    0.154
       127  -9.7638    164.5778     54.3582   7.8785898304e+01   3.7139035391e+01    0.3826853    0.1363817  61.23  0.001306635    2.848    0.649
       128 -10.2384    106.4315     53.2332   9.1852668702e+01   5.0600885610e+01    0.2685314     0.235966  84.19 0.0009999248    1.493    0.330
       129  -9.9045     34.5957     53.1758   1.1569271815e+02   6.1633881474e+01    0.2404427    0.1365211 -28.00 0.0007883143    1.661    0.398
       130 -11.9631     66.6315     52.4202   1.0386847555e+02   5.7772169468e+01    0.5985031    0.2194505  35.88  0.001752191    2.863    0.651
       131  -9.1374    176.0549     52.2317   7.6103154620e+01   3.4621591256e+01    0.1867887    0.1129293  60.18 0.0003346557    1.551    0.355
       132  -8.8969    169.7052     52.6923   7.7360179130e+01   3.6122713073e+01    0.1429092    0.1097342  28.61 0.0002367331    1.586    0.370
       133  -9.3687     66.9934     60.5065   1.0647203388e+02   5.6337473800e+01    0.1807578    0.1245713  30.31 0.0004477107    1.506    0.336
       134  -9.4530    147.6243     49.7843   8.0807668170e+01   4.1918810166e+01    0.1935663    0.1289701 -44.81 8.493656e-05    1.619    0.382
       135  -9.2472    212.0138     48.9723   6.9755255819e+01   2.6284395715e+01     0.165719    0.1426961  87.37 0.0003136153    1.062    0.058
       136 -10.7672     77.7834     46.3542   9.8027484246e+01   5.6968090099e+01    0.4205405    0.2749186  -1.59  0.002164888    1.838    0.456
       137 -10.0350     38.1501     49.0289   1.1299482375e+02   6.1989983318e+01    0.1864823    0.1293823 -21.81  0.000671292    1.275    0.216
       138  -9.8314     52.8647     48.5686   1.0737243947e+02   6.0325883940e+01    0.2250801    0.1142583  26.99  0.001133598    2.125    0.529
       139  -9.8448    104.7423     47.0112   9.0207479688e+01   5.1871064850e+01    0.1851515    0.1690062   4.73 0.0003393768    1.039    0.038
       140  -9.3453     47.3097     47.2972   1.0896605834e+02   6.1234052803e+01    0.1255234    0.0815554 -12.77 0.0002950998    1.595    0.373
       141  -9.5595     30.6119     46.1928   1.1494904002e+02   6.3242988740e+01    0.2585691    0.1669617 -41.27  0.001626636    1.319    0.242
       142  -9.2805     35.4834     41.7233   1.1151596048e+02   6.3494501516e+01    0.4502829    0.2278333 -12.83  0.002082659    2.899    0.655
       143  -9.6132     68.5391     46.5981   1.0117259514e+02   5.8417166439e+01    0.1279774    0.1080696  -2.58 5.432222e-05    1.030    0.029
       144  -9.4311     64.9650     46.2518   1.0227021613e+02   5.9012582039e+01    0.1728728    0.1434695  15.13  0.000373698    1.148    0.129
       145  -9.6342     91.2025     44.7739   9.3300989082e+01   5.4826995448e+01     0.182334    0.1412875   7.55 0.0004698511    1.301    0.231
       146 -10.9216     25.4296     43.5673   1.1611631013e+02   6.4173121366e+01    0.2760574    0.2279188 -57.22  0.001650908    1.584    0.369
       147 -10.6580     23.0299     38.5444   1.1537880697e+02   6.5224299652e+01    0.2312447    0.1869278   8.33   0.00090628    1.309    0.236
       148 -11.1455     26.5057     35.4975   1.1288435356e+02   6.5396421701e+01    0.3034627    0.1758469 -31.41  0.001650358    1.410    0.291
       149 -10.6600     70.2923     41.1776   9.8615035021e+01   5.8962503581e+01    0.3400474    0.2276931 -27.24  0.001016214    1.401    0.286
       150 -10.0265     69.5550     36.0887   9.6966737998e+01   5.9806680409e+01    0.3039251    0.1653087  -9.79  0.001379454    2.565    0.610
       151  -9.8705      2.3131     42.4269   1.2511259838e+02   6.6066830854e+01    0.1642434   0.09753971   3.35 0.0006034674    1.862    0.463
       152  -9.9624    181.6466     40.9126   7.2098289016e+01   3.4818063731e+01    0.3123858    0.1959548  77.44 0.0008111137    1.653    0.395
       153 -10.8937    139.5724     40.3780   7.9595116577e+01   4.5111629783e+01    0.2864004    0.2248149 -45.80  0.001565317    1.406    0.289
       154  -9.6005    134.2501     39.8116   8.0555920413e+01   4.6424522564e+01    0.2019877    0.1665656  53.71 0.0006461795    1.126    0.112
       155  -9.9058    131.0735     37.6524   8.0559881552e+01   4.7431900524e+01    0.2057996    0.1905994  82.16 0.0008669876    1.190    0.160
       156 -10.1994     12.7877     38.7526   1.1966179134e+02   6.6017391031e+01    0.3356848    0.0601365 -49.44  0.001285683    3.917    0.745
       157 -12.0931    121.4531     36.7717   8.2465337417e+01   4.9708831487e+01    0.4697863    0.4222733  83.04  0.002355711    1.306    0.234
       158  -8.8604     51.3057     39.6925   1.0475894119e+02   6.1938836159e+01    0.1040757    0.0985337 -63.23 0.0003896776    1.608    0.378
       159  -9.2682    229.4952     36.9931   6.4834323227e+01   2.3840510206e+01    0.1844453    0.1208844 -42.26 0.0004562827    1.482    0.325
       160 -10.5784      2.1836     35.7897   1.2315624365e+02   6.7219021806e+01    0.2053772    0.1593163 -24.26  0.001596975    1.118    0.105
       161 -11.1405    134.1763     33.9745   7.8707626909e+01   4.7174396967e+01    0.2202772    0.1735921  45.68 0.0002905125    1.160    0.138
       162 -10.9504     50.7943     33.7927   1.0272771075e+02   6.2881327225e+01    0.3265631    0.1988581  41.12  0.001833993    1.923    0.480
       163  -9.8242    166.6761     31.7161   7.1963424744e+01   3.9668088125e+01    0.3573132     0.131685 -40.83  0.001387372    2.817    0.645
       164 -11.1670    145.1076     32.9774   7.6181226952e+01   4.4730854423e+01    0.2217395     0.178801  53.83  0.001255039    1.121    0.108
       165 -10.9567     19.5816     31.8063   1.1442300790e+02   6.6606265408e+01    0.3833512    0.2020962  -3.42  0.001985315    2.297    0.565
       166 -11.5813     43.9791     29.2538   1.0354763798e+02   6.4406513220e+01    0.4578237    0.2963405 -16.22  0.001801201    1.398    0.285
       167  -9.6965    205.3424     30.6773   6.6183040680e+01   3.0351669302e+01    0.1457551   0.09055464 -70.63 0.0007050543    1.728    0.421
       168  -9.4944    187.3875     29.8012   6.8316863369e+01   3.4821025500e+01    0.1762377    0.1341423 -12.52 0.0009471957    1.729    0.422
       169  -9.2674    101.5256     39.4930   8.8479260519e+01   5.3565219116e+01    0.1360315    0.1169567  18.35 0.0001258119    1.067    0.062
       170  -9.0615     30.4991     30.5579   1.0941983844e+02   6.5760104543e+01    0.1162737   0.08846946 -15.15 7.907901e-05    1.022    0.021
       171 -10.2858    149.7448     29.3717   7.4211550855e+01   4.4049699810e+01    0.3492471    0.1698425  75.03   0.00137672    2.655    0.623
       172 -10.1612    140.6249     27.2967   7.5291938378e+01   4.6450550563e+01     0.289805    0.2605736 -75.41  0.001417522    1.245    0.197
       173 -10.5952     69.0230     27.6420   9.3896766702e+01   6.1009945641e+01    0.2778868    0.2344383 -51.84   0.00177727    1.737    0.424
       174 -10.0131      7.4671     28.1059   1.1830840106e+02   6.8135125188e+01    0.1833971    0.1393454  14.25 0.0008435175    1.487    0.328
       175 -10.7261     34.1154    247.1148   1.4596844704e+02   1.9581049974e+01    0.1590967    0.1267972  77.45 0.0004332561    1.184    0.155
       176  -9.8589    218.8288     25.7986   6.3475637809e+01   2.7756926164e+01     0.188006    0.1300666 -69.46 0.0004172827    1.357    0.263
       177  -9.9949    153.9625     25.8381   7.2407487954e+01   4.3438468745e+01    0.2885378    0.1673151  79.75  0.001315677    2.029    0.507
       178 -10.5056    113.9581     25.1285   8.0275378870e+01   5.2718664704e+01    0.2479729    0.1986327  38.12 0.0007532694    1.109    0.098
       179  -9.1540     18.3368     26.3235   1.1291743605e+02   6.7555472518e+01    0.1187792   0.06589653 -17.82 0.0007050957    1.716    0.417
       180 -10.1062     59.0849     24.3797   9.6005130136e+01   6.2972430082e+01    0.2287793    0.1432548 -11.82 0.0008558305    1.579    0.367
       181  -9.6042     52.4629     24.9637   9.8630195980e+01   6.3859306661e+01    0.1491219   0.09811347 -50.92 0.0008089282    2.495    0.599
       182  -9.5630    192.9908     24.0001   6.6088636200e+01   3.4145548185e+01    0.1607359    0.1388007  85.79 0.0003124844    1.002    0.002
       183  -9.5379    248.2896     23.2917   6.0060117126e+01   2.1421958803e+01    0.1078572   0.09484608  50.55  0.000171201    1.545    0.353
       184  -9.6439     89.3997     22.7794   8.5758813340e+01   5.7976020530e+01    0.2354291    0.1485185 -14.64  0.001275082    1.673    0.402
       185  -9.6797    217.5000    245.0000   1.1173787296e+02  -8.9488933353e+00    0.2750745   0.06093804  40.58 0.0009367394    3.951    0.747
       186  -9.4382     74.2718    243.9148   1.3874293743e+02   1.4865102538e+01    0.1617325    0.1268952  74.83 0.0002967218    1.046    0.044
       187 -10.6944    125.0360     21.2882   7.6506773983e+01   5.0685670025e+01    0.2072907    0.1887716 -27.94  0.000326362    1.232    0.188
       188 -10.7485     19.8510     16.8049   1.0846310581e+02   6.8777451212e+01     0.214237     0.140786  13.25 0.0004198849    1.431    0.301
       189 -11.2843     13.1625     20.4184   1.1290327704e+02   6.8865468551e+01    0.2702112     0.218384 -23.08 0.0008560126    1.225    0.184
       190 -10.7758     37.8204    241.9482   1.4497940110e+02   2.0119990111e+01    0.3299481    0.1084265  63.48  0.001354687    3.573    0.720
       191  -9.6436     84.9581     21.2014   8.6427715434e+01   5.8984979105e+01    0.2085181    0.1132711  29.43 0.0007674934    1.861    0.463
       192  -9.5702    202.5036    240.4774   1.1379094047e+02  -5.8602339906e+00    0.1941783    0.1166684 -25.93 0.0009691296    2.007    0.502
       193 -10.4310     31.0412     20.5407   1.0521998821e+02   6.7124281648e+01    0.2049548    0.1308385 -27.41 0.0005478065    1.319    0.242
       194  -9.8615    175.2592     20.5747   6.7585037403e+01   3.8848441850e+01    0.1932265    0.1071786  57.09 0.0009422926    1.608    0.378
       195  -9.3109    131.9974     20.5000   7.4827590549e+01   4.9184893512e+01    0.1999575   0.08263873  42.05 0.0008096281    2.460    0.593
       196  -9.3611     60.5426    241.0000   1.4094428248e+02   1.7360417006e+01    0.2462216   0.05875186  39.72  0.000929171    3.890    0.743
       197  -9.7736    148.5766     18.8383   7.1253139711e+01   4.5474861555e+01    0.2090392    0.1444112  70.25 0.0002788832    1.358    0.264
       198 -10.1172    199.8049     17.1466   6.3573913552e+01   3.3281970586e+01    0.2004647    0.1548479 -75.23  0.000496751    1.206    0.171
       199  -9.8953     26.5666     16.4234   1.0538482886e+02   6.8153087734e+01     0.201288    0.1475734  -7.24 0.0007949758    1.049    0.047
       200  -9.1133    108.2819     16.6669   7.8644223663e+01   5.4806901329e+01    0.1176751   0.09851754 -66.35 0.0002334619    1.613    0.380
       201 -12.6820     25.6336    235.9036   1.4661017971e+02   2.2738458138e+01    0.3964498    0.3262182  52.86  0.002475593    1.442    0.307
       202 -11.9677      4.2417    232.5882   1.4993210549e+02   2.5673002105e+01    0.3261888    0.1831779  70.86 0.0004372652    1.357    0.263
       203 -13.1889      9.7210    229.3819   1.4884504668e+02   2.5746624429e+01    0.6491378    0.3493327  89.36  0.002964741    1.457    0.314
       204  -9.0496    210.6749    235.7070   1.1145090023e+02  -6.5100870669e+00     0.129881    0.0889075  10.77 0.0003144165    1.619    0.382
       205  -9.7634    249.1676    234.1304   1.0415701972e+02  -1.2316564833e+01    0.1826771    0.1349493   7.76 0.0005116893    1.178    0.151
       206  -9.7269    140.0865    227.0767   1.2395581818e+02   7.3678592198e+00    0.2206511     0.149532  68.86  0.001123616    1.733    0.423
       207 -11.2526      2.3552    220.0631   1.4950393060e+02   2.8334584929e+01    0.2948478    0.1133457 -89.17  0.001527704    2.303    0.566
       208 -10.3585    190.4995     13.9696   6.3888634617e+01   3.5861395127e+01    0.2073553     0.156598  76.45 0.0006800195    1.142    0.124
       209 -10.2051     32.6946    225.2407   1.4460147057e+02   2.4055484441e+01    0.2594896     0.129583  48.50  0.001507667    1.786    0.440
       210 -10.2222     25.6821    225.0146   1.4582527058e+02   2.4906667259e+01     0.166259    0.1166273 -89.95 0.0007112434    1.129    0.114
       211 -11.6918      7.9796    217.6365   1.4839246224e+02   2.8278466125e+01    0.3117566    0.2164783  79.51  0.001744542    1.049    0.046
       212 -10.7994      4.3328    212.6421   1.4869777198e+02   2.9653803607e+01    0.2734317    0.1193422  54.91  0.001587079    2.003    0.501
       213  -9.4559    246.4627    216.5244   1.0143102755e+02  -9.4670741169e+00    0.1281446    0.1046193   1.57 0.0001141599    1.047    0.045
       214 -11.0276     16.1942    211.9787   1.4655033296e+02   2.8615924053e+01    0.1923066    0.1447678  62.39  0.001209977    1.251    0.200
       215  -9.5188    209.5245    211.5388   1.0736573025e+02  -2.5056077607e+00    0.1345943    0.1207069  15.69 0.0004078581    1.009    0.009
       216  -9.8447     20.7742    209.8249   1.4555296209e+02   2.8589176791e+01    0.1659406    0.1016379  75.63 0.0004158985    1.351    0.260
       217  -9.6604    246.8682    207.1559   9.9586003000e+01  -8.1455101564e+00    0.1842113    0.1640703 -23.14 0.0007491374    1.209    0.173
       218  -9.7501    197.2369    204.0122   1.0837251161e+02   1.0372958654e+00    0.1755149    0.1159213 -40.01  0.000502465    1.587    0.370
       219 -11.4952      9.1847    203.4340   1.4719585815e+02   3.1109034072e+01    0.2330842    0.1770399  66.98 0.0009049361    1.216    0.178
       220  -9.0689    181.4936    199.4775   1.1072175232e+02   4.8699539428e+00    0.1415047    0.1330793  36.80  0.000810057    1.029    0.028
       221  -9.5722     23.0627    197.4911   1.4410341448e+02   3.0993341737e+01    0.1589715    0.1093794  44.69 0.0006093479    1.575    0.365
       222 -10.2093      1.8859     21.9323   1.1858082276e+02   6.9470528961e+01    0.2189534    0.1217879 -46.99   0.00108737    1.609    0.378
       223 -10.0335      6.6788    191.5542   1.4677079094e+02   3.3881097959e+01    0.1914723    0.1026232  81.84 0.0005180455    1.614    0.380
       224  -9.6654     15.3789    185.1864   1.4454161324e+02   3.4464358248e+01    0.1732969   0.08823586 -86.51 0.0009413633    1.684    0.406
       225  -9.4214      1.3073    183.1942   1.4715679694e+02   3.6160573109e+01    0.1624014    0.0795081 -84.89 0.0005184456    1.624    0.384
       226 -11.1086      4.7263    167.2992   1.4512734378e+02   3.9380698328e+01    0.3021251    0.2000694  73.53  0.001545649    1.391    0.281
       227  -9.0678    247.4661    155.5346   8.8957395772e+01   2.2416441637e-01    0.1387563    0.1233105 -25.17 0.0001007338    1.009    0.009
       228  -9.2075     41.6250    157.8741   1.3574285382e+02   3.8024119856e+01    0.1889722    0.1056624 -79.32 0.0009383045    1.696    0.411
       229  -9.8366     14.8084    150.7679   1.4119886376e+02   4.2294037249e+01     0.167355    0.1191427  80.23   0.00105816    1.335    0.251
       230 -10.2183     21.9172    143.3327   1.3858620874e+02   4.3397011482e+01    0.2249682    0.1429444 -80.17  0.001306583    1.357    0.263
       231  -8.8920    236.3256    139.3341   8.7303470891e+01   5.2700115091e+00    0.1463547    0.1107669  -0.47 0.0005703015    1.714    0.417
       232 -10.3477      2.7042    138.3947   1.4265725603e+02   4.6031633525e+01    0.2335438    0.1176619  45.66  0.001317985    2.289    0.563
       233 -10.9819     12.7308    130.6000   1.3921509778e+02   4.7077544590e+01    0.3699281    0.1950855  65.32  0.001218673    2.515    0.602
       234  -9.8020      8.5568    135.4984   1.4089126701e+02   4.6272113597e+01    0.1214171   0.09227569 -73.89 0.0002335502    1.007    0.007
