#   1 NUMBER                 Running object number                                     
#   2 MAG_AUTO               Kron-like elliptical aperture magnitude                    [mag]
#   3 X_IMAGE                Object position along x                                    [pixel]
#   4 Y_IMAGE                Object position along y                                    [pixel]
#   5 X_WORLD                Barycenter position along world x axis                     [deg]
#   6 Y_WORLD                Barycenter position along world y axis                     [deg]
#   7 A_WORLD                Profile RMS along major axis (world units)                 [deg]
#   8 B_WORLD                Profile RMS along minor axis (world units)                 [deg]
#   9 THETA_WORLD            Position angle (CCW/world-x)                               [deg]
#  10 FWHM_WORLD             FWHM assuming a gaussian core                              [deg]
#  11 ELONGATION             A_IMAGE/B_IMAGE                                           
#  12 ELLIPTICITY            1 - B_IMAGE/A_IMAGE                                       
         1 -11.2388    200.7807      3.3941   6.4664653134e+01   3.3617048626e+01    0.7837754    0.4307906  72.92  0.003192915    1.706    0.414
         2 -11.6583    181.0500     26.7913   7.4009277719e+01   3.6263251201e+01    0.6362445    0.5080825  28.54  0.002567287    1.374    0.272
         3 -12.2265    189.3725     18.7128   7.0403985219e+01   3.5012138643e+01     1.144286    0.8329653  -9.86  0.005887043    1.569    0.363
         4 -10.7464    195.0372     10.9038   6.7419638609e+01   3.4360177398e+01    0.4278784     0.336566  27.21  0.001158765    1.469    0.319
         5 -10.6415     40.9348     16.8629   1.0660512108e+02   6.7116591550e+01    0.2789914    0.1478596 -39.05  0.001542263    1.696    0.410
         6  -9.4273     58.4819      7.9896   9.5443495175e+01   6.5799034717e+01    0.1926449    0.1062388 -26.17 0.0002210065    1.629    0.386
         7 -10.0587     83.1037    234.9958   1.3986037249e+02   1.7900018109e+01    0.2083214    0.1342276 -52.34     0.001369    2.120    0.528
         8  -9.8362    162.9228    248.7835   1.2777885591e+02   3.9569959503e+00    0.2591465    0.1836142  62.12  0.001734639    1.585    0.369
         9  -9.9797    109.8500    248.1362   1.3658846959e+02   1.2093816496e+01    0.2161936     0.186885 -34.97   0.00134565    1.781    0.438
        10 -10.6216    105.3779    245.6991   1.3709982058e+02   1.3101302182e+01    0.3092835     0.237366  75.14  0.001650735    1.248    0.199
        11 -11.6881    100.9745    245.2739   1.3779136479e+02   1.3793601906e+01    0.4979549    0.4805814  68.78   0.00327194    1.395    0.283
        12 -19.2778      6.9764    127.7951   1.4485853916e+02   4.7480983749e+01     16.52359     1.492275 -72.96   0.03864226    9.923    0.899
        13  -7.6268     83.2922    194.6352   1.3577624864e+02   2.5053003209e+01    0.1280595   0.07930435  74.13 0.0007027814    1.708    0.415
        14 -10.4599     78.6075    191.1820   1.3630131435e+02   2.6380970947e+01    0.3832566    0.2475832 -44.08  0.002156297    2.199    0.545
        15 -10.2209     82.5105    184.9156   1.3477615938e+02   2.7064581417e+01    0.2920409    0.2375303 -49.93 0.0008382554    1.517    0.341
        16  -9.4087    115.0038    173.4790   1.2638140923e+02   2.4274138465e+01    0.2559873    0.1814914 -79.05  0.001373996    1.622    0.383
        17  -9.6988     89.6935    173.5393   1.3178984384e+02   2.8309180142e+01    0.2243833    0.2080748 -77.44 0.0002669171    1.168    0.144
        18 -11.7167     78.5255    169.8783   1.3367879990e+02   3.0693512872e+01    0.6001028    0.3590725 -36.13  0.002190138    2.900    0.655
        19 -10.5723     95.1855    165.9247   1.2949051761e+02   2.9041428337e+01    0.5339235    0.3758362 -50.43  0.001616782    1.544    0.352
        20 -11.2918     49.9957    154.5706   1.3796684939e+02   3.7627006071e+01    0.5235763    0.1490512 -62.98  0.002155096    2.917    0.657
        21 -11.9264     67.7554    143.9229   1.3239011723e+02   3.7753100360e+01     0.710097    0.4632796  71.09   0.00338324    1.720    0.419
        22 -10.9193     72.5100    153.0128   1.3264584930e+02   3.5121934767e+01    0.5837802    0.3049817 -87.83  0.002471049    2.833    0.647
        23 -10.5319     95.0683    148.2783   1.2664184850e+02   3.2807992889e+01    0.2562256    0.2507986  27.30 0.0005202456    1.210    0.173
        24  -9.1535    106.3972    147.4817   1.2384740008e+02   3.1113609382e+01    0.3511346    0.2371934 -31.14  0.001677219    2.081    0.519
        25  -9.3146    150.4172    229.2377   1.2748865477e+02   8.6407957701e+00     0.149196    0.1132894 -71.73 0.0009612436    1.730    0.422
        26 -12.2009     58.5291    132.5934   1.3286722614e+02   4.1451208584e+01    0.7546757    0.3773426 -78.22  0.003384855    2.360    0.576
        27 -12.1343     44.6404    131.9083   1.3621406469e+02   4.3208542777e+01    0.4953761    0.3419527 -47.03  0.002957451    1.593    0.372
        28  -9.9869     73.5092    227.0160   1.4080178837e+02   2.0517096507e+01    0.2210542    0.1000169 -68.34  0.001019717    2.331    0.571
        29  -9.2102    102.3565    132.0113   1.2181943643e+02   3.5150277861e+01    0.2586732    0.2222554 -29.38  0.000606433    1.366    0.268
        30  -8.7912    228.0169    204.2766   1.0984436198e+02  -1.0701062788e+00    0.1781615    0.1743194 -63.20  0.000573142    1.509    0.337
        31  -8.3897    114.3334    135.4795   1.1961296397e+02   3.2294842589e+01    0.2448417    0.1677117 -32.87  0.001159995    1.813    0.448
        32  -8.1722    110.1052    122.3387   1.1781425015e+02   3.5897734867e+01    0.1893669    0.1802887  71.02 0.0004133807    1.065    0.061
        33 -10.6902     52.8157    116.5511   1.3165884348e+02   4.5739421270e+01    0.2631504    0.1837255 -43.58  0.001504574    1.529    0.346
        34  -8.4642    168.6638    113.2470   1.0177392003e+02   2.5596616215e+01    0.2853793    0.2267582 -67.32  0.001077973    1.548    0.354
        35  -9.5190    115.3880    248.5364   1.3570953902e+02   1.1230110593e+01    0.1885761    0.1336464  64.00  0.001137468    1.262    0.207
        36 -10.3581    126.8479    243.7449   1.3329736170e+02   1.0222817864e+01    0.2294946    0.1746174  13.93  0.001498645    2.035    0.509
        37  -9.9003    140.4122    249.8564   1.3167649124e+02   7.2966503555e+00    0.2656284     0.108424  42.16  0.001408972    1.923    0.480
        38  -8.5554    120.3078    248.6295   1.3490146311e+02   1.0493178187e+01    0.1145323   0.07024699  67.59 0.0007034268    1.763    0.433
        39  -9.4824    142.8560    240.9509   1.3025223238e+02   8.1577228248e+00    0.2266237    0.1203463  58.98  0.001020372    2.065    0.516
