#   1 NUMBER                 Running object number                                     
#   2 MAG_AUTO               Kron-like elliptical aperture magnitude                    [mag]
#   3 X_IMAGE                Object position along x                                    [pixel]
#   4 Y_IMAGE                Object position along y                                    [pixel]
#   5 X_WORLD                Barycenter position along world x axis                     [deg]
#   6 Y_WORLD                Barycenter position along world y axis                     [deg]
#   7 A_WORLD                Profile RMS along major axis (world units)                 [deg]
#   8 B_WORLD                Profile RMS along minor axis (world units)                 [deg]
#   9 THETA_WORLD            Position angle (CCW/world-x)                               [deg]
#  10 FWHM_WORLD             FWHM assuming a gaussian core                              [deg]
#  11 ELONGATION             A_IMAGE/B_IMAGE                                           
#  12 ELLIPTICITY            1 - B_IMAGE/A_IMAGE                                       
         1  -8.2493     97.1525     14.7168   4.1432910769e+01   5.8398494672e+01    0.2232036    0.1682067 -30.20 0.0007154029    1.387    0.279
         2  -8.5349     55.8561      9.8390   5.3256756946e+01   6.6219535825e+01    0.1990321    0.1575001 -30.33 0.0005405676    1.323    0.244
         3  -7.9585     47.6411      9.8356   5.6578193865e+01   6.7347881450e+01    0.1638208   0.09625916 -40.28 0.0007459137    1.747    0.427
         4  -7.8568     28.3159      9.6846   6.5005304545e+01   6.9579402550e+01   0.09658241     0.087758 -52.14 0.0006897682    1.647    0.393
         5  -7.7913    101.2726      7.9519   3.7397751617e+01   5.8299575165e+01    0.1597257     0.110941 -19.50 0.0006291402    1.438    0.305
         6  -8.3195     90.7041      8.3820   4.0579379453e+01   6.0415826292e+01    0.1833852    0.1559074 -61.65 0.0009277945    1.718    0.418
         7  -8.1854     12.8545      8.6208   7.1915711015e+01   7.1068198259e+01    0.1261479   0.09531893  25.20 0.0004493795    1.684    0.406
         8  -8.4970     33.5831      4.9729   6.0395450367e+01   6.9723574401e+01    0.2778662    0.1549996 -51.28  0.001455922    2.794    0.642
         9  -8.4390     79.4663      4.0541   4.2085587448e+01   6.3031575871e+01    0.2527809     0.106156 -31.32  0.001160013    2.340    0.573
        10  -7.9972     62.7041      1.5068   4.6633622510e+01   6.6204180768e+01    0.1436422    0.1149869  46.54 0.0009252045    1.560    0.359
        11  -8.5959     63.3281    248.4124   9.7458294064e+01   1.8270893321e+01     0.192028   0.08479313  40.98  0.001134147    2.172    0.540
        12  -9.4320    233.0303    246.8721   6.9114533805e+01  -7.9065735594e+00    0.3891499    0.2527562 -20.71  0.002211812    1.821    0.451
        13  -9.8704    190.4575    249.2998   7.6549376580e+01  -1.3246044636e+00    0.2378596    0.1562473  45.01  0.000164893    1.185    0.156
        14  -7.4921     86.2811    250.6109   9.4011595868e+01   1.4853520126e+01    0.1138739   0.06090349  69.36 0.0007002348    1.741    0.426
        15  -7.5263     72.3164    250.6636   9.6215354794e+01   1.6746393772e+01    0.1133965    0.0570701  66.66 0.0007048027    1.697    0.411
        16  -9.3292    243.3136    245.7384   6.7267961718e+01  -9.3767685021e+00    0.3681349    0.1970614  -5.41  0.002064455    2.539    0.606
        17 -10.2345    248.6119    241.6697   6.5786269728e+01  -9.7904927288e+00     0.357308    0.2316738 -28.89  0.001647145    1.873    0.466
        18  -8.9260    247.8521    233.9247   6.4690426008e+01  -8.9145166418e+00    0.2230113    0.1518594  -8.74  0.001078435    1.530    0.346
        19  -9.6122    246.5782    228.6998   6.4055841904e+01  -8.1823472400e+00    0.3475969    0.1949889 -26.04   0.00130367    1.998    0.500
        20  -9.4728    224.3375    245.3449   7.0324316540e+01  -6.3842403485e+00    0.2372523     0.178068  -1.28  0.001102577    1.457    0.314
        21  -9.6905    223.6743    242.3527   6.9995207264e+01  -5.9636853480e+00    0.2139102    0.2073454 -84.33  0.001095579    1.623    0.384
        22  -9.2271    120.0312    244.9120   8.7976189713e+01   1.0726752117e+01     0.288022    0.1712156  87.74  0.001500962    2.321    0.569
        23  -8.7765    139.5386    244.2878   8.4604261075e+01   7.7159864690e+00    0.1755683    0.1131998 -66.50 0.0008908635    2.042    0.510
        24  -8.4807     67.5731    244.3416   9.6515849200e+01   1.8367186824e+01    0.1722124   0.08954284 -81.40   0.00108105    1.994    0.498
        25  -8.6033    202.0059    243.2046   7.3770044027e+01  -2.5201816813e+00    0.1940696     0.160376 -51.57 0.0007199887    1.751    0.429
        26  -8.4414    158.4808    243.5448   8.1273093367e+01   4.7062891088e+00    0.1802078     0.144882  35.72 0.0007296118    1.236    0.191
        27  -9.4925    159.9876    239.6916   8.0542532014e+01   4.9795508859e+00    0.3268652    0.2276853 -73.27  0.001293732    2.116    0.527
        28  -9.2892     78.1538    243.1896   9.4740443558e+01   1.7135827837e+01    0.3441552    0.1303973  65.32  0.001606967    3.166    0.684
        29  -8.4950      9.6322    243.4322   1.0516823859e+02   2.5177643955e+01    0.1825584   0.05689095  84.26 0.0009481133    3.325    0.699
        30  -9.0061    168.9715    242.9211   7.9391231055e+01   3.0379502597e+00    0.1767506     0.162285  54.72 0.0006630541    1.232    0.188
        31  -9.2308    194.5645    240.2843   7.4634659043e+01  -9.3369849862e-01    0.2813673    0.2131687 -57.65  0.001392273    1.979    0.495
        32  -9.3185    183.1436    240.0286   7.6568685925e+01   1.0236710055e+00    0.3812604    0.2267601  65.07  0.001966649    2.539    0.606
        33  -7.8381    153.5105    242.0165   8.1946234192e+01   5.7413287603e+00    0.1438696   0.09500507  86.46 0.0008084654    2.399    0.583
        34  -8.1138     88.0667    242.0317   9.3033719319e+01   1.5938881086e+01    0.1751818   0.09813792  68.69 0.0006224792    1.623    0.384
        35  -7.6313    214.3122    241.6444   7.1463337860e+01  -4.3693567348e+00    0.1068318   0.08536097  62.59 0.0007044196    1.735    0.424
        36  -8.8019    240.5048    240.0093   6.6852149866e+01  -8.3837845363e+00    0.1841624    0.1058266 -20.61 0.0006194544    2.024    0.506
        37  -8.1371    146.2044    239.2260   8.2881804618e+01   7.3469627650e+00    0.1632442     0.113192  62.24 0.0006050187    1.369    0.270
        38  -8.9732    135.9254    238.7770   8.4613782795e+01   9.1029174419e+00    0.2450161    0.1353976  66.72  0.001310898    2.179    0.541
        39  -9.1345    230.8590    236.8153   6.7959147289e+01  -6.5298779250e+00    0.2451122     0.208007  82.37  0.001341856    2.205    0.546
        40  -8.2141    209.1812    238.2279   7.1837069437e+01  -3.1365944644e+00     0.151088    0.1216803  50.04 0.0004948556    1.350    0.259
        41  -7.9731    128.9867    238.2367   8.5755440437e+01   1.0308206077e+01    0.1630922    0.1108606  74.95 0.0007301577    1.609    0.378
        42  -9.3168    147.5324    246.0458   8.3438222592e+01   6.1687171586e+00     0.324164    0.1854547  69.84  0.001689109    2.452    0.592
        43  -8.1473     25.6315    236.4894   1.0252034608e+02   2.4655714289e+01    0.2042785   0.07654977  73.09  0.001144605    2.513    0.602
        44  -9.2152    217.3015    235.6675   7.0072769042e+01  -4.1923043127e+00    0.2336246    0.1756841  51.34  0.001153886    1.478    0.323
        45  -9.4393    213.6631    231.6456   7.0087203693e+01  -3.1218800170e+00    0.2920389    0.2216323  65.14  0.001134223    1.923    0.480
        46  -8.9851    203.2590    234.5315   7.2314632022e+01  -1.7065748184e+00    0.2678019    0.1977275 -60.59  0.001091347    2.220    0.550
        47  -9.8569    175.7258    233.1826   7.6939382238e+01   3.1839383324e+00    0.4182648    0.2182058 -57.15  0.002136339    3.027    0.670
        48  -9.5692    109.1498    234.2490   8.8769942156e+01   1.4057187181e+01    0.4269949    0.1857987  61.73  0.001661019    2.527    0.604
        49  -8.3652    170.3862    235.2872   7.8161650990e+01   3.8166006551e+00    0.1351242    0.1149246 -73.42 0.0005919271    1.565    0.361
        50  -8.5793     99.7160    234.5349   9.0418527928e+01   1.5443116641e+01    0.2514138     0.127134  73.56  0.001297217    2.505    0.601
        51  -9.1217     78.5959    234.3126   9.3965431358e+01   1.8517987733e+01    0.2445999    0.1335308  87.55  0.001482644    1.984    0.496
        52  -8.2517    122.9828    233.9827   8.6339049230e+01   1.1924338228e+01    0.1947198    0.1153879  67.93 0.0007484292    1.789    0.441
        53  -9.4142     68.9470    232.5280   9.5425727724e+01   2.0122586189e+01     0.428205     0.172319  69.50  0.002031814    3.082    0.676
        54  -8.5210    194.5658    232.5700   7.3541555254e+01   1.8164251750e-02    0.2063552    0.1540159  69.82 0.0007652919    1.908    0.476
        55  -8.0995    144.9778    233.1425   8.2374026142e+01   8.4388961363e+00    0.2484961    0.1290839  62.09 0.0009750422    2.240    0.554
        56  -8.4565    140.1159    230.0054   8.2859647113e+01   9.7266807098e+00    0.2350489    0.1221099  60.47  0.000912282    2.042    0.510
        57  -8.5182    132.8388    233.0445   8.4505644993e+01   1.0470143971e+01    0.1897665    0.1333128  65.76  0.001221239    1.345    0.257
        58  -8.5054     92.4778    231.7679   9.1400464168e+01   1.6965684419e+01    0.3041559     0.150116  81.94  0.001286565    2.922    0.658
        59  -9.6656    235.8127    230.0076   6.6061292593e+01  -6.6004123761e+00     0.373587    0.2437445 -12.23  0.001497596    1.728    0.421
        60  -9.5761    186.3083    230.4049   7.4682720789e+01   1.7225105568e+00    0.3124415    0.2323817 -85.61    0.0015988    2.336    0.572
        61  -8.0958    157.6073    231.7538   7.9961143120e+01   6.4995550036e+00    0.1405646    0.1131752 -78.89   0.00034679    1.603    0.376
        62  -8.9429      1.5565    230.6155   1.0581590704e+02   2.8049457683e+01    0.1682674   0.08102817  82.02  0.001220454    1.544    0.352
        63  -9.1134    151.5025    229.0100   8.0700496247e+01   7.9462186847e+00     0.280033    0.1818442  77.61  0.001175203    2.211    0.548
        64  -9.5709    148.7995    224.4793   8.0607805457e+01   9.0939416551e+00    0.3609839    0.2268071  74.16  0.001917005    2.212    0.548
        65  -8.1571    229.5353    228.0600   6.6810566227e+01  -5.3606897956e+00    0.1529515     0.113846 -24.47 0.0009752368    1.567    0.362
        66  -9.0590    162.3986    227.7430   7.8579453684e+01   6.2518555120e+00    0.2909329    0.1747885  63.15  0.001481834    1.963    0.490
        67  -8.9806    127.7137    227.1064   8.4735240594e+01   1.2239566782e+01    0.2750155    0.1707064  70.17   0.00132746    1.782    0.439
        68  -9.4033    225.5724    221.6413   6.6453378050e+01  -3.9618877983e+00    0.2353066    0.2144545  41.08  0.001165388    1.346    0.257
        69  -8.8072    206.0994    225.7504   7.0500420140e+01  -1.1173447282e+00    0.2205152    0.1718301 -57.20  0.000906891    1.935    0.483
        70  -8.0645    120.0091    227.0338   8.6104472510e+01   1.3505569297e+01    0.1892396    0.1182295  69.75 0.0005298196    1.665    0.399
        71  -8.1122     49.5171    226.5411   9.8187923029e+01   2.3612561788e+01      0.22539   0.09191146  75.18  0.001132847    2.821    0.646
        72  -8.0742    199.8636    225.8261   7.1611027740e+01  -4.3375497192e-02    0.1553988    0.1294482  51.52  0.000356497    1.283    0.220
        73  -8.8118    180.3695    223.9540   7.4814343377e+01   3.6342743853e+00    0.2265385    0.1690389  52.82 0.0006630966    1.250    0.200
        74  -8.7582     94.4250    224.2256   9.0352529373e+01   1.7944295194e+01     0.366679    0.1707961  66.18  0.001818642    2.433    0.589
        75  -7.6950     72.3018    225.3301   9.4289719664e+01   2.0898828371e+01   0.09020249    0.0886787 -74.94 0.0007033462    1.648    0.393
        76  -7.7835     38.3796    224.5939   9.9869435392e+01   2.5261413871e+01    0.1928288   0.07186227  87.80 0.0007060243    3.171    0.685
        77  -8.9533    216.5119    223.1987   6.8277254368e+01  -2.6005669618e+00     0.231763    0.1963641 -77.58 0.0009367246    2.004    0.501
        78  -8.8263    173.1336    222.9258   7.5974896689e+01   5.0603668350e+00    0.2472847    0.1819054 -88.81 0.0008708951    2.123    0.529
        79  -8.1030    113.9303    223.9347   8.6851283343e+01   1.4987471545e+01     0.191943     0.116299  68.81 0.0007223386    1.685    0.406
        80  -9.1936    104.8154    223.2733   8.8413118519e+01   1.6529259336e+01    0.3110259    0.1727292  86.52  0.001561606    2.440    0.590
        81  -8.1910     59.8432    223.6830   9.6270320605e+01   2.2824072923e+01    0.2133008    0.1037898  76.18  0.001140136    2.089    0.521
        82  -8.6442    163.1865    222.4070   7.7711528976e+01   6.8949764785e+00    0.3001168    0.1735538  57.49  0.001603721    1.747    0.427
        83  -8.6577    158.9028    220.1696   7.8186796908e+01   7.9865813050e+00    0.2366534    0.1433434  56.57 0.0009099746    1.568    0.362
        84  -7.9919     77.9645    223.0413   9.3121526213e+01   2.0518238306e+01    0.1386985    0.1033455  67.80  0.000355033    1.010    0.010
        85  -9.4714    239.1766    221.3637   6.4082860162e+01  -6.2026469204e+00    0.3017274     0.250476  15.87  0.001439202    1.119    0.107
        86  -9.3182    192.5054    221.1979   7.2218897145e+01   1.8581828578e+00    0.2882622    0.2219774  71.42  0.001099473    1.794    0.443
        87  -7.9125    140.4876    222.4944   8.1868092780e+01   1.0829628014e+01    0.1255489   0.09813671  55.28 0.0008102063    1.040    0.039
        88  -8.6249     83.0202    220.3395   9.1995055359e+01   2.0277529276e+01    0.2593704    0.1460008  76.61  0.001329374    1.836    0.455
        89  -8.3119     73.2410    220.5022   9.3721781134e+01   2.1612979266e+01    0.2718799    0.1199109  74.14  0.001265652    3.014    0.668
        90  -7.8458     27.6303    221.1430   1.0138862195e+02   2.7054625999e+01    0.1340838    0.0765516 -72.71 0.0009437117    1.727    0.421
        91  -8.3082    202.8521    220.1012   7.0196075176e+01   1.6932533943e-01    0.1810561    0.1510503  50.56 0.0005252577    1.276    0.216
        92  -9.2743    120.4457    218.9428   8.5104736288e+01   1.4767811334e+01    0.4294924    0.2108701  67.17  0.001933511    2.810    0.644
        93  -8.5095    210.0555    218.9118   6.8726241685e+01  -9.4737590945e-01    0.1882574    0.1718125   1.72 0.0005335935    1.234    0.189
        94  -8.6071    150.3645    218.3494   7.9512539495e+01   9.7714413858e+00    0.2464662    0.1650814  40.46 0.0008132138    1.314    0.239
        95  -8.5627    249.4846    218.1588   6.1811937630e+01  -7.5278962413e+00    0.2226725    0.1453217  52.21  0.001296167    1.978    0.494
        96  -9.3361    132.9946    215.9349   8.2419908457e+01   1.3170347021e+01    0.4575064    0.2556316  77.06  0.002048277    3.041    0.671
        97  -8.6577     62.1902    217.0400   9.5351306569e+01   2.3696972691e+01    0.2772465    0.1179723  68.15 0.0009132624    2.552    0.608
        98  -8.9706     51.6566    217.1905   9.7170164299e+01   2.4996635952e+01    0.2175136    0.1091113  89.17 0.0009142958    1.940    0.484
        99  -8.7407    169.3692    215.9952   7.5663013077e+01   6.7473093351e+00    0.2780385     0.198663 -88.72  0.001235759    2.221    0.550
       100  -8.4934    142.9990    216.3480   8.0611705228e+01   1.1377991585e+01    0.2505877    0.1637799  72.99  0.001180912    1.887    0.470
       101  -7.9184    111.9958    216.9982   8.6431481810e+01   1.6467366397e+01    0.2035139    0.1143161  87.73 0.0009123373    2.589    0.614
       102  -7.9399     19.0000    216.0310   1.0248395790e+02   2.8856051467e+01     0.159347   0.04626117 -77.24 0.0008102279    2.997    0.666
       103  -8.9851    232.4559    214.0783   6.4002139643e+01  -4.2402836397e+00    0.2964298    0.2148219 -24.63  0.001373829    1.542    0.352
       104  -8.3331    185.6820    214.3228   7.2401270129e+01   4.0365232154e+00    0.1926798    0.1595958 -66.86 0.0009983308    1.653    0.395
       105  -8.1464    154.1372    214.5315   7.8286974819e+01   9.7051942747e+00    0.1963087    0.1556678  71.52 0.0005482705    1.360    0.265
       106  -7.9229     41.4791    214.9840   9.8734400801e+01   2.6604863828e+01    0.1590112    0.0667736  79.00 0.0008102898    2.599    0.615
       107  -9.3578    214.1978    212.0664   6.6866982282e+01  -8.0389528810e-01    0.3681197    0.2650883  65.60  0.001483978    2.073    0.518
       108  -9.0519     93.0395    213.5307   8.9531035083e+01   2.0016767008e+01    0.3375582    0.1669713  69.87  0.001570662    2.428    0.588
       109  -9.5198     73.1904    211.6996   9.2952761120e+01   2.3196584829e+01    0.5605815    0.2060924  64.94  0.002208215    3.920    0.745
       110  -8.7416    161.8016    212.1860   7.6516444476e+01   8.6968930263e+00    0.2392345    0.1773661 -78.17  0.001032339    1.868    0.465
       111  -7.9425    224.8407    212.3283   6.5028884088e+01  -2.7141606630e+00    0.1576202    0.1418172  15.07 0.0006470684    1.183    0.154
       112  -9.0942    204.3340    210.9249   6.8450742140e+01   1.1195005216e+00    0.2472611    0.2172626  87.88 0.0008007818    1.646    0.392
       113  -9.4285    175.6893    210.0561   7.3593291058e+01   6.4890244079e+00    0.4186527    0.2631911  73.65  0.001560151    2.807    0.644
       114  -7.7528    106.4790    212.5246   8.6945010790e+01   1.8124461716e+01    0.1255763   0.09508344  64.95 0.0008083991    1.084    0.078
       115  -9.0382      5.5264    208.0371   1.0422679074e+02   3.1583791121e+01    0.3155473   0.09145433  86.43  0.001401676    3.938    0.746
       116  -8.2625    192.4920    210.5008   7.0544379809e+01   3.3369711831e+00    0.2016307    0.1636991  74.96 0.0007321237    1.669    0.401
       117  -8.6465    148.0732    210.3927   7.8848490328e+01   1.1452007320e+01    0.2649349    0.1740928  75.11  0.001293435    2.016    0.504
       118  -8.8162    116.1408    209.9512   8.4835735247e+01   1.7018867056e+01    0.2724174    0.1759489  74.86 0.0009272395    1.695    0.410
       119  -8.6919     85.7628    209.4285   9.0447174317e+01   2.1833214015e+01    0.2706193    0.1392154  87.53  0.001341545    2.533    0.605
       120  -8.4734     46.5721    209.4329   9.7469523594e+01   2.7017986596e+01    0.2147122    0.0965723  77.16  0.001136167    2.345    0.574
       121  -7.9139     32.4803    210.4652   9.9947470711e+01   2.8435921868e+01    0.1107892   0.07386178  72.55 0.0001048803    1.092    0.084
       122  -9.2152    236.5875    207.9317   6.2223775389e+01  -4.2140031124e+00    0.2592468    0.2276452 -64.35  0.001169388    1.872    0.466
       123  -9.4053    246.5086    207.0842   6.0377860011e+01  -5.7980397077e+00    0.2401215    0.1993176 -14.75 0.0006927077    1.302    0.232
       124  -8.0055    156.5812    207.8052   7.6861731254e+01   1.0340354992e+01    0.1625907    0.1217429 -72.75 0.0009401872    1.724    0.420
       125  -8.4160    139.1776    207.7705   8.0177151473e+01   1.3466155833e+01    0.2070323    0.1606104 -85.52 0.0007959359    1.502    0.334
       126  -8.0581    126.4177    208.2295   8.2672690560e+01   1.5599458468e+01    0.1575119    0.1135077 -82.69  0.000418752    1.605    0.377
       127  -9.1640     99.4917    205.9202   8.7508577118e+01   2.0407010340e+01    0.3628025    0.1929466  75.51  0.001383824    2.471    0.595
       128  -8.4908     56.4690    205.0361   9.5375650588e+01   2.6625151858e+01    0.2558682    0.1317224  75.83  0.001288134    1.912    0.477
       129  -8.1866    109.2116    205.1669   8.5573309892e+01   1.9002826458e+01    0.1752153    0.1228122  72.25 0.0006450463    1.364    0.267
       130  -8.1633     35.1873    204.9899   9.9122106968e+01   2.9145199695e+01    0.1878338   0.08804218  75.01  0.001079508    1.978    0.494
       131  -9.4251    194.7913    203.2628   6.8926884211e+01   3.9493225142e+00    0.2866902    0.2655922  12.03  0.001070848    1.160    0.138
       132  -9.3466    192.5135    197.0444   6.8294262927e+01   5.2983900157e+00     0.447493    0.3274173  80.35  0.001211827    2.242    0.554
       133  -8.8824    183.7169    203.6541   7.1067332550e+01   5.9646367522e+00    0.2817941     0.194368  63.89  0.001317254    1.775    0.436
       134  -9.6110    163.9926    202.9412   7.4709996846e+01   9.7636991452e+00     0.463996    0.2278267  57.87  0.001449895    2.388    0.581
       135  -8.5017    131.1223    203.6701   8.1166255212e+01   1.5585122388e+01    0.2778998    0.1755391  79.16   0.00140998    2.116    0.527
       136  -9.2160    250.1859    201.7649   5.8797268773e+01  -5.7955007054e+00    0.3653014    0.1677794 -30.33  0.001386374    2.315    0.568
       137  -9.7188    245.9820    193.5258   5.7985724624e+01  -4.0836774145e+00     0.459112    0.2941787 -49.76  0.002160184    2.528    0.604
       138  -9.1028    243.1228    200.7103   5.9805353688e+01  -4.4675783604e+00    0.2782568    0.1869702 -32.77 0.0009700645    1.690    0.408
       139  -8.1700    222.1710    201.4700   6.3612800490e+01  -8.5578220275e-01    0.2028265    0.1460312 -56.44 0.0007354604    2.226    0.551
       140  -8.4292    210.8777    201.6135   6.5677783189e+01   1.1911294862e+00    0.2140398    0.1717067 -58.76 0.0007157493    1.809    0.447
       141  -8.9277    140.8296    201.2149   7.8937689067e+01   1.4295947721e+01    0.3369808    0.2057077  70.55  0.001622923    2.122    0.529
       142  -7.8835     72.7597    201.9817   9.2118043275e+01   2.5059288573e+01    0.1403004   0.08822789 -74.63 0.0003490467    1.545    0.353
       143  -8.1386     48.4769    201.9783   9.6560422952e+01   2.8179943252e+01    0.1633143   0.07300846  80.30 0.0008099161    2.528    0.604
       144  -8.8039     79.4288    200.4874   9.0716723150e+01   2.4409659486e+01    0.3507898    0.1471271  64.81  0.001514296    2.988    0.665
       145  -9.3685    149.7146    198.5586   7.6808963499e+01   1.3138226375e+01    0.4236656     0.274555  84.33   0.00149538    2.448    0.591
       146  -8.8135    123.8902    199.0292   8.1946498978e+01   1.7665848245e+01    0.2542187    0.1664324  89.02  0.001022367    1.949    0.487
       147  -9.2186    112.8627    198.2443   8.4006098022e+01   1.9673321208e+01    0.3937098    0.2087933  69.78  0.001792657    2.499    0.600
       148  -9.3313    237.1529    198.1592   6.0370004487e+01  -3.1116738953e+00    0.2851402    0.1670752 -34.56  0.001191421    1.917    0.478
       149  -9.1301    176.9732    198.5853   7.1517797645e+01   8.0195888246e+00    0.2225241    0.1829247 -75.37 0.0006070628    1.609    0.379
       150  -8.9520     88.9288    198.2433   8.8662577938e+01   2.3449964295e+01    0.3306448    0.1848894  81.88  0.001422465    2.151    0.535
       151  -8.4021    202.2787    197.5763   6.6554618602e+01   3.3668049884e+00    0.2071527    0.1608668 -52.16 0.0006885059    1.688    0.408
       152  -9.1580     61.3781    196.6960   9.3743136525e+01   2.7584519647e+01    0.4116682    0.1926415  79.50  0.001821205    2.630    0.620
       153  -8.6177     12.7708    197.1939   1.0246708171e+02   3.2894012040e+01    0.2409348   0.09892619  80.58  0.001359573    2.214    0.548
       154  -8.7755    215.9590    195.3507   6.3635332600e+01   1.1121255569e+00    0.2598398    0.2050022 -64.49  0.001034344    1.999    0.500
       155  -8.2087    133.0701    195.5826   7.9652864255e+01   1.6681700243e+01    0.2116123    0.1660496 -83.60  0.000657737    1.421    0.296
       156  -7.7977     53.3909    196.1739   9.5182982829e+01   2.8691176673e+01    0.1607689   0.08826484 -89.41 0.0009396931    1.712    0.416
       157  -8.8403    224.6864    193.5239   6.1720973346e+01  -2.5760237105e-01    0.3322107    0.1606714 -38.18  0.001289685    2.358    0.576
       158  -7.6513    209.2725    195.5659   6.4901032603e+01   2.3357056936e+00    0.1230213    0.1033384 -86.81 0.0003319964    1.839    0.456
       159  -8.9273    185.2666    194.5359   6.9241888131e+01   7.0705037027e+00     0.242302    0.2123112  80.96 0.0006877123    1.421    0.296
       160  -9.0888    161.0537    194.1789   7.3894903533e+01   1.1764976409e+01    0.3114341    0.2261893  84.55  0.001054629    1.918    0.479
       161  -8.2045    230.8700    194.0091   6.0707789801e+01  -1.4538912203e+00    0.2333405    0.1461171 -29.38  0.001028097    1.734    0.423
       162  -8.9391     77.1072    193.7531   9.0456541631e+01   2.6031100717e+01    0.2434065    0.1595456  71.86  0.000625781    1.372    0.271
       163  -8.8307     43.7468    193.0837   9.6704162795e+01   3.0438245305e+01    0.3590565    0.1469231  67.21  0.001748829    2.646    0.622
       164  -8.2222    199.0805    191.8247   6.6132663791e+01   4.8248218898e+00    0.1943115    0.1704746  62.58 0.0006753534    1.331    0.248
       165  -8.4485    172.2795    191.5771   7.1256467911e+01   1.0050829321e+01    0.2209421    0.1627425 -60.47 0.0006000822    1.715    0.417
       166  -8.4580     34.2193    191.9705   9.8359732109e+01   3.1719173155e+01    0.1504351    0.1090334  81.56  0.001097166    1.040    0.038
       167  -7.8460    205.0119    191.3282   6.4927305201e+01   3.7583773832e+00    0.1897255    0.1539801  39.34 0.0006498666    1.088    0.081
       168  -7.9017    179.0240    191.2404   6.9880241202e+01   8.8002612900e+00     0.178123    0.1442587 -74.24 0.0007381404    1.650    0.394
       169  -9.0490    139.5344    190.4874   7.7602862934e+01   1.6435824178e+01    0.3265609    0.2192312  75.87  0.001525438    1.872    0.466
       170 -10.4448     92.7219    188.8316   8.6818601759e+01   2.4692291792e+01    0.9162631    0.2438194  51.15  0.003241263    3.781    0.736
       171  -7.9479     23.0271    192.0000   1.0036967456e+02   3.2879426683e+01    0.1561054   0.05434096  36.59 0.0008088546    2.987    0.665
       172  -8.8578      6.6060    190.2258   1.0312601019e+02   3.4766407402e+01    0.1403499   0.07396585 -74.93 0.0009507726    1.614    0.380
       173  -9.1003    216.6257    187.8150   6.2122190240e+01   2.0459184993e+00    0.2848648    0.2457915 -75.82  0.001051408    1.738    0.425
       174  -8.2947    148.6059    189.1090   7.5559807823e+01   1.4999152494e+01    0.1992993    0.1597851 -86.84  0.001139952    1.465    0.317
       175  -8.8902    129.2955    188.4623   7.9369064818e+01   1.8664278422e+01    0.2716339    0.1940986  76.04 0.0007250992    1.549    0.354
       176  -9.6248    120.6876    186.2115   8.0794514627e+01   2.0610220995e+01    0.4596221     0.252621 -75.54  0.002068275    2.574    0.611
       177  -8.3536    237.1148    188.1563   5.8505031504e+01  -1.8203490093e+00     0.194345    0.1532469  13.47 0.0005266353    1.135    0.119
       178  -8.8347    191.3806    187.0791   6.6746061282e+01   7.0523840746e+00    0.3057645    0.2234556 -73.76  0.001126731    2.224    0.550
       179  -9.2888    155.9127    187.1703   7.3772305821e+01   1.3956614512e+01    0.3318687     0.226054 -66.51 0.0008181681    1.886    0.470
       180  -9.1299     54.8084    186.7869   9.4067992429e+01   3.0353667194e+01    0.3790389    0.1706504  74.70  0.001534272    2.755    0.637
       181  -8.7024     34.1609    187.6477   9.8041875108e+01   3.2566560161e+01    0.2503855     0.125404  75.72   0.00144966    1.854    0.461
       182  -8.8777     13.1755    187.1760   1.0180357099e+02   3.4752866456e+01    0.3878589    0.1298343  82.88  0.001712346    3.585    0.721
       183  -8.3258    230.4902    187.0398   5.9463694930e+01  -4.5499372771e-01    0.1794438    0.1258789 -31.83 0.0008729806    1.557    0.358
       184  -8.9239    164.8376    186.4907   7.1865401594e+01   1.2352175362e+01    0.2757153    0.1995854 -63.15 0.0009023313    1.729    0.422
       185  -9.1073    109.6548    185.9671   8.3017672832e+01   2.2539321121e+01    0.3579839    0.2061866  73.53   0.00117182    2.227    0.551
       186  -8.9837    249.5435    185.0520   5.5759521068e+01  -3.6483006854e+00    0.2793797    0.2075285 -37.52  0.001145712    1.617    0.382
       187  -8.5320    202.9087    184.4386   6.4051642978e+01   5.1985330117e+00    0.2272005    0.1941668 -65.29 0.0007937095    1.579    0.367
       188  -8.6605    182.9391    184.6776   6.7954682649e+01   9.1018949785e+00    0.2378377    0.2006874 -57.42 0.0006722766    1.435    0.303
       189  -9.1252     66.9463    184.2454   9.1440141685e+01   2.9304024551e+01    0.3827932    0.1933636  68.58  0.001210783    2.133    0.531
       190  -8.8426    210.1393    183.8203   6.2571494622e+01   3.8778161521e+00    0.2333013     0.191576 -17.30 0.0006577913    1.312    0.238
       191  -8.9883    174.2695    183.3526   6.9432526598e+01   1.1038331520e+01    0.2757174    0.2258053 -81.25 0.0007386173    1.587    0.370
       192  -8.2675    224.0743    183.3023   5.9901299586e+01   1.2673624553e+00    0.1834931    0.1571106  30.88  0.000463742    1.078    0.072
       193  -8.1225    197.1548    183.2434   6.4927285832e+01   6.5169467140e+00    0.1816808     0.158061  70.06 0.0005585588    1.398    0.285
       194  -9.0630     44.4060    182.1756   9.5652953858e+01   3.2512788252e+01      0.29673    0.1555052  72.77 0.0009534245    1.834    0.455
       195  -8.3153      1.7938    183.5727   1.0359077122e+02   3.6445148978e+01    0.1398443   0.07050651  54.15 0.0009457396    1.692    0.409
       196  -9.2002    147.6049    180.5852   7.4368725074e+01   1.6738211300e+01    0.3308595    0.2458655  88.91  0.001290439    1.707    0.414
       197  -8.1691    235.3048    181.0709   5.7453188721e+01  -5.3994225197e-01    0.1849556    0.1578855  -1.11 0.0006064279    1.120    0.107
       198  -8.9009     26.4219    180.2390   9.8917353039e+01   3.4832012078e+01    0.3106025    0.1279258  71.83 0.0009685594    2.598    0.615
       199  -8.8239     24.3052    175.9762   9.8994017466e+01   3.5891453134e+01    0.2697641    0.1218671  85.16  0.001462484    2.123    0.529
       200  -8.4293    240.4008    180.2055   5.6387285078e+01  -1.3676958883e+00    0.1731278    0.1191844 -39.07 0.0009471633    1.698    0.411
       201  -8.8103    137.6493    179.1698   7.6200598077e+01   1.8888518417e+01    0.2984772    0.2103239  82.49  0.001274158    1.786    0.440
       202  -9.2983    191.6420    178.1936   6.5045759700e+01   8.4237616330e+00    0.3096716     0.250117  74.23 0.0006667146    1.599    0.375
       203  -8.5745    250.5285    172.5396   5.3109347344e+01  -2.2042065856e+00    0.2233868     0.147676 -29.62 0.0004782689    1.533    0.348
       204  -9.1278    249.0271    177.1799   5.4298115679e+01  -2.5425787064e+00    0.2395781    0.2341941 -51.27 0.0005149173    1.439    0.305
       205  -8.2885    247.4490    173.5172   5.3832388751e+01  -1.7704696513e+00    0.2130647    0.1579805  -7.47  0.000482892    1.313    0.238
       206  -8.7180    205.1836    177.6146   6.2316771095e+01   5.7983378521e+00    0.2588435    0.2138053 -72.52  0.001277004    1.744    0.427
       207  -8.0694    169.3716    178.2057   6.9492115331e+01   1.2899876756e+01    0.1821608    0.1318066 -59.74 0.0006907547    1.691    0.409
       208  -8.6808    129.3255    177.0596   7.7604634171e+01   2.0834664534e+01    0.3254476    0.2087252 -87.68  0.001107409    2.219    0.549
       209  -9.1730     35.8813    176.4337   9.6804028677e+01   3.4613919277e+01    0.4339215    0.1686494  79.28  0.001772988    3.760    0.734
       210  -8.5589    231.1115    176.7428   5.7345030049e+01   8.5025392114e-01    0.2192121    0.1762541 -36.64 0.0008141435    1.429    0.300
       211  -8.4763    217.6919    176.8896   5.9821780116e+01   3.4294424990e+00    0.2199197    0.1859552 -53.14 0.0007914936    1.535    0.349
       212  -7.8122     97.5619    177.2219   8.4325753798e+01   2.6251182559e+01    0.1642005    0.1165925 -53.40 0.0006639729    1.604    0.377
       213  -9.0385     89.1015    176.6276   8.6020762615e+01   2.7689655469e+01    0.2492938    0.1659048  77.55 0.0006156131    1.531    0.347
       214  -9.1994     58.7653    175.3540   9.2143292080e+01   3.2171660495e+01    0.4471774    0.1914843  67.85  0.001910386    3.105    0.678
       215  -9.3438     55.8083    170.4272   9.2224549988e+01   3.3558887495e+01    0.3796497    0.1852222  77.29  0.001794195    2.521    0.603
       216  -8.7592     13.0517    176.7229   1.0115620781e+02   3.6798192129e+01     0.220467    0.1082062  66.09   0.00136523    1.764    0.433
       217  -8.1077    211.6198    176.1784   6.0816326780e+01   4.7364651270e+00     0.181288    0.1273678 -19.34 0.0005476612    1.613    0.380
       218  -9.0113    183.0665    175.7072   6.6270013966e+01   1.0570489384e+01    0.2786741    0.2294279 -60.68 0.0009154225    1.486    0.327
       219  -9.0589    158.8307    174.7594   7.1032013991e+01   1.5619365271e+01    0.3574081    0.2474299 -88.98 0.0009916807    2.229    0.551
       220  -9.2195    104.3901    174.6149   8.2516234199e+01   2.5672599902e+01      0.51454    0.2450245  65.54  0.001865627    3.087    0.676
       221  -9.3536     81.5391    154.3762   8.4591752914e+01   3.3514391780e+01     0.455303    0.2599372  77.61  0.001493792    2.288    0.563
       222 -10.7092     75.8430    169.9312   8.7961470938e+01   3.1019480664e+01     1.134491    0.4037769 -75.47   0.00384173    4.531    0.779
       223  -8.5748     79.5150    157.6815   8.5526072709e+01   3.3095505519e+01    0.2780984    0.1934986  17.27  0.001425275    2.386    0.581
       224  -8.3461    224.3235    174.0242   5.8030612262e+01   2.5514407842e+00    0.1860557    0.1645467 -13.44 0.0005680369    1.168    0.144
       225  -7.5423    241.6391    173.7047   5.4874272838e+01  -7.1855860227e-01    0.1419314   0.09069682  16.59 0.0007031874    1.706    0.414
       226  -9.3274    175.9227    171.9767   6.7001707126e+01   1.2668745687e+01    0.3444599    0.2486058 -46.05  0.001216899    1.555    0.357
       227  -8.4354    143.0110    172.3430   7.3922446766e+01   1.9174180813e+01    0.2431951    0.1850254  89.72  0.000710119    1.589    0.371
       228  -8.1255    194.3346    172.2783   6.3375067448e+01   8.8457581745e+00    0.1432438    0.1023991  19.54 0.0007000974    1.609    0.378
       229  -8.7374    134.9536    171.5598   7.5503283982e+01   2.0863066150e+01    0.2502454    0.1864721 -83.69 0.0007179667    1.589    0.371
       230  -9.0926     45.1889    171.0954   9.4467694523e+01   3.4677538467e+01     0.334276    0.1642262  84.01  0.001576227    2.210    0.547
       231  -8.6702    198.4865    169.9820   6.2106801425e+01   8.3711027336e+00    0.2880335    0.2247354 -75.96  0.001026068    1.930    0.482
       232  -9.4938    121.3960    170.2500   7.8199667497e+01   2.3621539182e+01    0.3469376    0.2367446  83.86 0.0008956682    1.803    0.445
       233  -8.4774    237.2255    169.4685   5.4786955416e+01   7.0553874119e-01    0.2307651    0.1769958 -26.39  0.000676385    1.336    0.251
       234  -9.2997    230.3475    169.0481   5.5927900269e+01   2.0979848553e+00     0.369078    0.1922285 -37.60  0.001714235    2.058    0.514
       235  -8.4642    205.7358    169.9551   6.0696912868e+01   6.8907077736e+00    0.2352803    0.1922311 -56.56  0.000696351    1.561    0.359
       236  -9.2359    167.3675    168.5640   6.8111136256e+01   1.5029158183e+01    0.3733189    0.2479822  70.56  0.001137691    2.057    0.514
       237  -8.7017    149.8036    169.4081   7.1960377013e+01   1.8409313759e+01    0.2648088    0.2065797  84.10 0.0008828693    1.531    0.347
       238  -7.9326    244.5822    169.2717   5.3461361642e+01  -6.6322182511e-01    0.1807586    0.1615332 -69.60 0.0006895769    1.674    0.403
       239  -8.3858     88.7459    168.5965   8.5019248273e+01   2.9404127184e+01    0.2188194    0.1412599  87.07 0.0007923921    1.696    0.410
       240  -8.3880    218.8478    168.1053   5.7840861388e+01   4.5201674503e+00     0.193222    0.1881549  73.02   0.00050832    1.276    0.216
       241  -7.9212    211.5658    167.8143   5.9149766783e+01   6.0396720483e+00    0.2459534    0.1345194 -35.37  0.001123463    1.967    0.492
       242  -8.6642    212.9361    163.4409   5.7988117038e+01   6.4474506771e+00    0.2553896    0.2008041 -42.04 0.0006606551    1.435    0.303
       243  -8.9204    191.9489    166.6629   6.2730825659e+01   1.0274989182e+01    0.2472611    0.2084455 -49.79 0.0005768632    1.367    0.269
       244  -8.6099    185.0181    166.4794   6.4084200220e+01   1.1749916944e+01    0.2486677    0.1984094 -63.72 0.0006731147    1.580    0.367
       245  -8.6158    111.3247    167.1185   7.9887193788e+01   2.6035001692e+01     0.259562    0.1523478  67.12 0.0008377389    2.028    0.507
       246  -9.1712     20.9002    166.1615   9.8890233611e+01   3.8200356224e+01    0.3274066    0.1345155  64.11  0.001607405    2.484    0.597
       247  -8.0915     13.2889    167.6465   1.0048386691e+02   3.8585927949e+01    0.1160829   0.06057614  73.03 0.0007025722    1.673    0.402
       248  -9.6976    137.1335    164.4078   7.3785484438e+01   2.1859541856e+01    0.6529108     0.282216  59.15  0.002231893    3.345    0.701
       249  -9.9803     94.9969    162.5608   8.2782335443e+01   2.9699265239e+01    0.7631018    0.3715355  75.16  0.002483591    4.676    0.786
       250  -8.9168    233.9488    164.7889   5.4401595678e+01   2.0109803314e+00    0.2313464    0.1877889 -24.55 0.0007106362    1.258    0.205
       251  -8.8448    159.6375    164.4077   6.8940288554e+01   1.7380509412e+01    0.2909444    0.2316851 -88.18 0.0009491719    1.562    0.360
       252  -9.7753     33.5956    163.1990   9.6080901799e+01   3.7570906354e+01     0.470697    0.1787129  60.49   0.00217016    2.949    0.661
       253  -8.2848    240.2794    163.8055   5.3077630926e+01   9.1970487798e-01    0.1960454     0.164424 -42.13 0.0004139078    1.436    0.303
       254  -8.3347     57.1927    163.7713   9.1195788353e+01   3.4785018883e+01    0.3196931    0.1947931  11.00  0.001398902    4.165    0.760
       255  -8.8925    246.1556    162.7161   5.1831081462e+01  -5.3716209116e-02     0.215143    0.1718129 -30.29 0.0003825825    1.317    0.241
       256  -8.3978    204.9671    162.4911   5.9318306206e+01   8.2528989583e+00    0.2558023    0.1930764 -53.86 0.0006973129    1.659    0.397
       257  -9.6127      3.6728    162.0970   1.0194883086e+02   4.0502570489e+01    0.3853764    0.1695903  57.64  0.001924207    2.068    0.517
       258  -8.6790    151.8734    161.0100   6.9952662067e+01   1.9611211136e+01    0.2820098    0.2006449 -77.68 0.0009742482    1.892    0.471
       259  -9.0036    177.5138    160.4254   6.4400929305e+01   1.4396269979e+01    0.2791805    0.2418858  85.15 0.0007168481    1.377    0.274
       260  -8.7023    227.4890    158.9809   5.4342629666e+01   4.1612808710e+00     0.279588    0.1866934 -50.65   0.00128525    1.972    0.493
       261  -8.6358     60.7011    159.8452   8.9975975829e+01   3.5181396781e+01     0.300359    0.1609396  69.50  0.001230647    2.093    0.522
       262 -10.1896    249.6819    157.2047   5.0065526076e+01   4.4137843145e-02    0.3837483    0.3278947 -66.11  0.001408354    1.744    0.427
       263  -8.9337    242.9706    154.9581   5.0732587255e+01   1.6638937715e+00    0.1939006    0.1881956 -16.26 0.0004618517    1.231    0.188
       264  -9.1973    240.2063    152.9839   5.0786280405e+01   2.4984541751e+00    0.2000228    0.1763567 -71.18 0.0005150044    1.604    0.376
       265  -7.6232    242.2728    159.6907   5.1863974819e+01   1.1199760278e+00    0.1213486    0.1088498 -63.40 0.0003403976    1.548    0.354
       266  -8.6922    196.5841    157.9022   6.0003170018e+01   1.0787227051e+01     0.288591    0.2345289 -81.13 0.0008405361    1.726    0.421
       267  -8.3035    128.2870    158.9516   7.4756547292e+01   2.4650617910e+01    0.2890168    0.1583973  66.08  0.001145829    2.564    0.610
       268  -9.6086    105.8745    157.8505   7.9605551305e+01   2.8907265114e+01    0.4400041    0.2651786  71.65  0.001317639    2.105    0.525
       269  -8.3086    237.1541    158.1663   5.2436168524e+01   2.3448400460e+00    0.1775738    0.1629785 -43.97 0.0006173989    1.332    0.249
       270  -8.3992    188.1405    157.6440   6.1646172120e+01   1.2633525486e+01    0.2444112    0.1939746 -51.23 0.0006573163    1.440    0.305
       271  -9.2756    167.5906    157.1901   6.5825549106e+01   1.7087902390e+01    0.3535219     0.272318  85.80   0.00106759    1.723    0.420
       272  -8.4899    218.0009    156.4645   5.5557585224e+01   6.5019067160e+00    0.2584851    0.1905486 -49.47 0.0007092909    1.651    0.394
       273  -9.0843    157.7872    155.9537   6.7680532637e+01   1.9377621431e+01     0.260728    0.2023708 -75.39 0.0009845174    1.590    0.371
       274  -9.3346    119.4685    154.7047   7.5981292311e+01   2.7171893997e+01     0.418907    0.2551721 -78.69  0.001400651    2.275    0.560
       275  -9.0577     49.8400    155.0798   9.1786942534e+01   3.7518626334e+01    0.3914891    0.1771096  64.71  0.001789033    2.697    0.629
       276  -8.0850    204.6341    154.8994   5.7777889562e+01   9.5774240487e+00    0.1961582    0.1325749 -48.60 0.0006321841    1.739    0.425
       277  -9.5947     68.2464    153.6771   8.7509699931e+01   3.5529621381e+01     0.409176    0.2267265  73.95  0.001533848    2.196    0.545
       278  -8.3983    144.3803    154.2968   7.0295836757e+01   2.2452945524e+01    0.2416853    0.1921254  54.22 0.0006122713    1.180    0.152
       279  -9.6315    132.6082    152.5471   7.2598998831e+01   2.5141791228e+01    0.4447907    0.3248129  78.99  0.001171609    1.645    0.392
       280  -9.3338    133.3368    148.3428   7.1619557230e+01   2.5870589088e+01    0.3689554    0.2454228 -39.27  0.001750027    1.765    0.434
       281  -8.3196    151.8022    152.7798   6.8351703014e+01   2.1239992566e+01    0.2023141    0.1668355  79.04 0.0005520575    1.356    0.263
       282  -9.3223     20.3212    152.8253   9.7893742390e+01   4.1010677501e+01    0.1861594    0.1253897  62.96 0.0007237743    1.370    0.270
       283  -7.8261     60.2674    152.6495   8.9173664400e+01   3.6786043059e+01    0.1292943   0.08166116  79.17 0.0002961965    1.621    0.383
       284  -9.8024     29.5471    150.5974   9.5724461310e+01   4.0626564477e+01    0.4465159    0.1976937  73.27  0.002102561    2.777    0.640
       285  -8.8748      8.2389    152.8502   1.0038751080e+02   4.2022014041e+01    0.2207186   0.08188686  25.57  0.001108368    3.818    0.738
       286  -9.1745      2.7120    150.5107   1.0133434131e+02   4.2927734819e+01    0.3263397    0.1092835 -76.97  0.001690324    2.276    0.561
       287 -10.0055    242.8710    149.4850   4.9562308033e+01   2.4809070332e+00    0.2993181    0.2875975 -82.28  0.001749228    1.363    0.267
       288  -8.8259    189.4551    149.9367   5.9733997449e+01   1.3714099023e+01    0.3244571    0.2405508 -69.66 0.0009312751    1.910    0.476
       289  -7.8809    182.4303    151.1446   6.1441376222e+01   1.5026453090e+01    0.1994829    0.1397082 -56.02 0.0007076075    1.722    0.419
       290  -8.7336     98.3280    150.6538   8.0142861519e+01   3.1711660974e+01     0.288014    0.1962082  77.18 0.0008726768    1.669    0.401
       291  -9.4489    248.7980    149.1434   4.8477087653e+01   1.3587163020e+00     0.313642    0.2064337 -24.78 0.0008130169    1.476    0.322
       292  -8.6035    162.6328    150.1967   6.5449028180e+01   1.9472381726e+01    0.2238862    0.1847031 -71.97 0.0005928189    1.418    0.295
       293  -8.3194    213.0196    149.3170   5.4944065042e+01   8.7074677417e+00    0.2009007    0.1811945  30.93 0.0005541594    1.040    0.039
       294  -8.4969    198.9048    148.8834   5.7598535108e+01   1.1836294033e+01    0.2198444    0.1810255 -89.90 0.0006625233    1.655    0.396
       295 -10.0630     89.3629    146.2241   8.1508440967e+01   3.4110608235e+01    0.6240575    0.3334602  89.65  0.002377961    3.290    0.696
       296  -9.9473     39.9171    147.6274   9.3133447353e+01   4.0219654961e+01    0.4981301    0.2351099  71.19   0.00201004    2.645    0.622
       297  -9.6011    233.6033    147.6023   5.0770969632e+01   4.6428805898e+00    0.2613009    0.1635359 -32.47 0.0006688056    1.602    0.376
       298  -8.4723    223.3613    146.5093   5.2382693410e+01   6.9551111829e+00    0.2584714    0.1716713 -28.80 0.0005854402    1.542    0.351
       299 -10.3137    148.9989    144.8448   6.7346420602e+01   2.3411093153e+01    0.5988519    0.3954796  84.26  0.001755091    2.474    0.596
       300  -9.9391    139.0292    144.4655   6.9536368510e+01   2.5539621791e+01    0.5369174    0.3133352 -69.01  0.001746007    2.479    0.597
       301  -8.9109    140.0069    136.8477   6.7708706127e+01   2.6922628667e+01    0.2942676     0.207668 -19.25  0.001285805    2.155    0.536
       302  -9.2701    112.5510    133.0974   7.3501127076e+01   3.3081027260e+01    0.3717255    0.3644514 -58.59  0.001697579    1.131    0.116
       303 -10.1115    106.8111    144.4749   7.7073975470e+01   3.1619969166e+01    0.6684292     0.375677  76.26  0.002423536    3.140    0.681
       304  -8.8407    105.7268    138.4175   7.6208452153e+01   3.3130990042e+01    0.3909343    0.2022652  23.82  0.001324856    4.058    0.754
       305  -9.2196     78.0527    146.7142   8.4248832115e+01   3.5693649475e+01    0.2922167    0.1765583  83.97    0.0011536    2.034    0.508
       306  -9.5478     13.4706    146.1174   9.8754674345e+01   4.3000501691e+01     0.315919     0.156736  65.01  0.001351999    1.999    0.500
       307 -10.8273    241.9353    143.3641   4.8371334703e+01   3.5762013873e+00    0.7128485    0.3971715 -13.01  0.002997849    2.369    0.578
       308  -8.1687    175.7580    145.9819   6.1724396867e+01   1.7437255682e+01    0.2322029    0.1706677 -76.21 0.0007919472    1.951    0.488
       309  -8.9641    247.0929    143.6478   4.7555552143e+01   2.4937426255e+00    0.2548713    0.1863796 -18.36 0.0005019484    1.330    0.248
       310  -8.3435    250.4573    140.5097   4.6294158980e+01   2.2808067963e+00    0.2244463    0.1700855 -13.38 0.0002773349    1.277    0.217
       311  -8.7218    165.5885    143.7510   6.3427935658e+01   2.0085671799e+01    0.2735311    0.2355638 -84.62 0.0007870384    1.350    0.260
       312  -9.7718    124.9126    142.3883   7.2397751674e+01   2.8759522475e+01    0.4840322    0.3171559 -85.05  0.001360117    2.205    0.546
       313  -7.7613    194.2974    143.6674   5.7363785138e+01   1.3763718265e+01    0.1457358    0.1193276 -83.35 0.0003560842    1.645    0.392
       314 -10.6342     69.6098    140.8173   8.5351591838e+01   3.8169991545e+01    0.4917545     0.305612  88.93  0.002013599    1.808    0.447
       315  -9.8079     69.5153    134.2424   8.4350354292e+01   3.9646590433e+01    0.3669261    0.2627968 -10.15   0.00183505    2.596    0.615
       316  -9.2480      2.9228    142.0104   1.0065157568e+02   4.4665758825e+01    0.3033857    0.1279713  68.04  0.001107262    2.507    0.601
       317 -10.7060     54.9451    142.9748   8.9127930228e+01   3.9551462644e+01    0.9940573    0.4704302 -75.66  0.003680073    2.084    0.520
       318  -8.2240    182.0802    141.3421   5.9359305245e+01   1.6904992796e+01    0.2129721    0.1860289  51.59 0.0006497857    1.114    0.103
       319  -7.8729    206.9541    146.3030   5.5443230022e+01   1.0521276288e+01    0.2049738    0.1805667  44.52 0.0007717829    1.115    0.103
       320  -8.2381    134.0000    140.0212   6.9784368509e+01   2.7479384893e+01    0.2400745   0.08317729 -49.22 0.0008076403    2.979    0.664
       321  -9.9159     23.5668    137.9725   9.5767050143e+01   4.3878157234e+01    0.4410001    0.1901077  69.10  0.001995516    2.985    0.665
       322  -7.8321    218.8445    138.5179   5.1413418836e+01   9.2196741427e+00    0.2875903    0.1815573 -49.48  0.001034783    1.911    0.477
       323  -8.4926    207.2631    137.3666   5.3353981337e+01   1.1974407813e+01    0.2895682    0.1952707 -47.40 0.0009438454    1.667    0.400
       324  -8.5949    197.5728    137.3587   5.5266374807e+01   1.4150643085e+01    0.2735678    0.2148775 -65.29 0.0008950733    1.639    0.390
       325  -8.8671    150.2382    136.1891   6.5198921211e+01   2.4908251937e+01    0.4479932    0.3023664   0.08  0.001706652    2.925    0.658
       326 -10.3913     83.5607    132.8795   8.0640547752e+01   3.7955658919e+01    0.5236929    0.2860795 -72.69  0.001406436    2.048    0.512
       327  -8.9044    250.7450    129.5981   4.3779603075e+01   3.8296213109e+00    0.5023712    0.1226514 -31.35  0.001498367    4.156    0.759
       328  -9.2308    248.4279    134.8671   4.5361787955e+01   3.5201619758e+00    0.3352121    0.2030106 -41.04 0.0007905434    1.737    0.424
       329  -8.7056    246.9254    130.1054   4.4523784317e+01   4.5408809756e+00    0.2407688    0.1917668 -29.68 0.0005309228    1.213    0.176
       330  -8.5507    172.1955    137.7529   6.0655711065e+01   1.9788425388e+01    0.2938328    0.2252256 -73.56 0.0007312463    1.705    0.414
       331  -8.3869    162.7771    136.1142   6.2351395975e+01   2.2197927779e+01    0.2285288    0.2019695 -85.27 0.0005798432    1.271    0.213
       332  -9.6773     38.9863    135.6597   9.1935512472e+01   4.2922165403e+01    0.2773965    0.1752296  78.68 0.0007529476    1.586    0.370
       333  -7.8806    188.0060    135.2332   5.6724859148e+01   1.6698659217e+01    0.2152797    0.1616258 -59.81 0.0005978866    1.627    0.385
       334  -8.5448    237.6879    133.4986   4.6869100706e+01   5.9588301084e+00    0.2383767    0.1638165 -50.56 0.0007261144    1.785    0.440
       335  -8.6796    179.6272    133.7098   5.8129532761e+01   1.8885210009e+01    0.2916789    0.2280603 -60.67 0.0007621915    1.505    0.336
       336 -10.2227    132.1625    130.5040   6.8184594417e+01   2.9863431818e+01    0.6821499    0.3693061 -62.49  0.001837416    2.353    0.575
       337  -7.7069    231.4932    133.5598   4.7968036003e+01   7.2718288970e+00    0.1451793    0.1316121  10.53 4.592045e-05    1.032    0.031
       338  -9.2058    143.1144    131.3725   6.5776134172e+01   2.7414805019e+01    0.3450072    0.2526512 -66.46 0.0008169098    1.581    0.367
       339 -10.1593     98.0319    129.8419   7.6455611967e+01   3.6338467548e+01    0.6512556    0.2895747 -56.33  0.001954674    2.168    0.539
       340  -8.8838     99.1055    120.2865   7.4240108267e+01   3.8285331594e+01    0.3995022    0.2515262 -16.44  0.001391004    3.751    0.733
       341  -7.9561    204.5530    130.0737   5.2173494576e+01   1.3848652741e+01    0.2194369     0.146912 -36.68 0.0005609695    1.529    0.346
       342  -8.1393    192.9242    129.9994   5.4481569591e+01   1.6529660553e+01    0.2336668    0.1871503 -78.87 0.0005627237    1.669    0.401
       343  -9.2391    168.4154    129.4190   5.9553643202e+01   2.2254444826e+01    0.3041077      0.25438  86.22 0.0005581829    1.430    0.301
       344  -9.5979    152.9783    128.3870   6.2796941897e+01   2.5906202947e+01    0.5826235    0.3186869 -44.49   0.00203598    1.892    0.472
       345  -9.7329     73.1141    128.7132   8.2535139642e+01   4.0395599607e+01    0.4466373    0.2214114 -73.23  0.001454133    2.297    0.565
       346 -10.1793     12.8342    128.1728   9.7227891203e+01   4.6858252611e+01    0.5398121    0.2300915 -87.57  0.002542341    2.303    0.566
       347  -8.3174      1.9381    129.9887   9.9880354672e+01   4.7247132032e+01    0.1774338   0.09950153  71.28  0.001122915    1.706    0.414
       348  -7.4853    220.4899    129.5719   4.9024739946e+01   1.0330522656e+01    0.1469202    0.1374453  15.91 0.0001214426    1.010    0.010
       349  -8.0306    211.5285    129.0106   5.0572191817e+01   1.2443161938e+01    0.2188323    0.1449292 -37.47 0.0005979877    1.536    0.349
       350 -10.7876     44.9094    123.1435   8.8801097535e+01   4.5078724140e+01     1.039784    0.4830179  80.34  0.003813542    4.247    0.765
       351 -10.4526     60.1542    124.7989   8.5175039619e+01   4.2967059026e+01    0.6892957    0.3663261  81.93  0.002569649    3.010    0.668
       352  -9.7840    117.9566    125.0738   7.0471756911e+01   3.3827281680e+01    0.5140887    0.3351112  80.49  0.001431095    2.343    0.573
       353  -8.2605    228.5035    125.4743   4.6603130868e+01   9.2172631134e+00    0.1457583    0.1370836   4.91 0.0008101029    1.009    0.009
       354  -8.6690    179.1130    124.4306   5.6029341664e+01   2.0761259492e+01    0.2736968    0.2305221 -80.50 0.0004882012    1.448    0.309
       355 -10.2740     28.1255    121.6825   9.2817213482e+01   4.7022946488e+01    0.7175356    0.3114842  81.01  0.002830333    3.902    0.744
       356  -8.8655     26.6703    113.6771   9.2141735842e+01   4.8908508193e+01    0.1814656    0.1145334 -46.68 0.0009038491    1.705    0.414
       357  -7.9797    188.5333    124.0213   5.3943863296e+01   1.8642401941e+01    0.2145541    0.1300512 -61.09 0.0008014371    2.447    0.591
       358  -9.0405     85.3085    122.3219   7.8237128863e+01   4.0058109641e+01    0.4001195    0.2446465  14.47  0.001652813    3.140    0.682
       359  -7.8203    194.8606    121.8054   5.2104201168e+01   1.7565619205e+01    0.2048756    0.1816522 -73.01 0.0004298999    1.319    0.242
       360  -9.5477    170.7041    120.9211   5.6998209397e+01   2.3389219490e+01    0.4852062    0.3280011  66.30  0.001770153    1.795    0.443
       361  -9.2591    158.5159    121.3267   5.9840240809e+01   2.6102840811e+01    0.3307543    0.2623977 -69.36 0.0008351912    1.490    0.329
       362  -9.5986     71.1414    119.3494   8.1380263135e+01   4.2773308105e+01    0.4271037     0.213923 -74.83  0.001282654    2.486    0.598
       363  -9.9553    141.6879    118.3153   6.3067599202e+01   3.0445220511e+01    0.4803566     0.325565 -72.69  0.001231463    2.050    0.512
       364  -9.7894      2.9675    117.1202   9.8457686800e+01   4.9903812855e+01     0.437839    0.1884279  77.15  0.002154892    2.825    0.646
       365  -7.8838    231.4985    117.0643   4.4060967144e+01   9.9042117945e+00    0.2185406    0.1399166 -32.85  0.001008756    1.521    0.343
       366  -8.0919    185.9140    115.9253   5.2479697904e+01   2.0761507910e+01    0.2376874    0.1902283 -80.00 0.0005435741    1.620    0.383
       367  -9.9199    109.4693    114.0458   7.0161900377e+01   3.7833601113e+01     0.497773    0.3028161 -72.21  0.001305026    2.254    0.556
       368  -8.8375    109.4053    107.2132   6.8564809011e+01   3.9343259009e+01    0.3368473    0.2246379   0.83  0.001177515    3.045    0.672
       369  -8.2626    193.0397    115.0135   5.0780372810e+01   1.9230176972e+01     0.236101    0.1880182 -74.03 0.0005036621    1.615    0.381
       370 -10.3637    131.1863    118.1830   6.5603914495e+01   3.2690309895e+01    0.6282686     0.421708 -78.42  0.001932284    2.190    0.543
       371 -10.2865     92.6821    112.0141   7.4155213818e+01   4.1201994953e+01    0.6364015    0.3319141 -68.50  0.001512453    2.471    0.595
       372  -8.9213     59.5771    114.8420   8.3636724234e+01   4.5277092798e+01    0.2794696    0.1867575   6.89  0.001411966    2.499    0.600
       373  -8.2615    250.0875    114.5174   4.0373371498e+01   6.2310757615e+00    0.2059309    0.1391863  50.66  0.001021549    1.558    0.358
       374  -8.4015    167.3160    114.0372   5.6027794674e+01   2.5524318518e+01    0.2173736     0.202522 -51.02 0.0004977093    1.109    0.098
       375  -9.9042     78.8889    112.2509   7.7931546097e+01   4.3281845406e+01     0.546927     0.332776 -85.25  0.002430863    2.345    0.574
       376  -8.9859     78.5480    105.1678   7.6533305742e+01   4.4920308246e+01    0.4167013    0.2759067   1.11  0.001841394    2.815    0.645
       377  -9.8737    133.6722    108.9570   6.2719749948e+01   3.4126793288e+01    0.6106938    0.2939351 -50.18  0.001941613    2.153    0.536
       378  -9.9192    121.8469    112.2284   6.6528460867e+01   3.5860729702e+01    0.3587996    0.2879708 -83.52 0.0004899002    1.459    0.315
       379  -8.5674    174.7941    111.5443   5.3736723968e+01   2.4239781926e+01    0.2942384     0.195575 -55.17  0.000645673    1.754    0.430
       380  -8.6923    159.1923    111.6244   5.7257972417e+01   2.7894051433e+01    0.2673154     0.206518 -54.37 0.0006381669    1.386    0.279
       381 -10.2625     66.4779    109.6612   8.0803171684e+01   4.5575661359e+01     0.525879    0.2575011 -65.77  0.001975136    1.989    0.497
       382  -9.9143     14.0006    110.7727   9.5029967198e+01   5.0527296594e+01    0.3641955    0.1812374  82.98  0.001711658    2.310    0.567
       383 -10.4659    248.5296    107.5951   3.8968925166e+01   7.6178782829e+00    0.4695111    0.3286746 -29.24  0.001677233    1.347    0.257
       384  -9.9647    249.4155    102.3194   3.7561168305e+01   8.2271911609e+00    0.4726457    0.2123383 -25.94  0.001830176    2.372    0.578
       385  -7.7154    150.0000    109.9512   5.8983014146e+01   3.0335604958e+01    0.2457779   0.08822168 -42.74 0.0004805134    2.830    0.647
       386  -7.7136    183.2413    109.6141   5.1426775903e+01   2.2578697493e+01    0.1578538    0.1195983 -65.74 0.0006930553    1.648    0.393
       387  -8.8770     43.0356    109.0235   8.7105213019e+01   4.8424906058e+01    0.2475658    0.1618536   5.33  0.001336025    2.468    0.595
       388  -8.1072    189.4474    107.9258   4.9697915298e+01   2.1389125107e+01    0.2309724    0.1523643 -38.85 0.0004933755    1.537    0.349
       389 -10.8024    109.6437     98.9832   6.6446599379e+01   4.1084856542e+01    0.9691353    0.5496499  70.82  0.003265977    3.746    0.733
       390  -9.0363    107.6212     92.6141   6.5330952003e+01   4.2829193062e+01    0.6716312    0.3131641  30.37  0.002353232    3.201    0.688
       391 -10.5384     45.6935    102.1015   8.5179946017e+01   4.9697070028e+01    0.7293242    0.3970264  73.88  0.003226584    3.030    0.670
       392  -9.4199     45.3414     92.7901   8.3532729707e+01   5.1800714619e+01    0.4444131    0.2561903 -15.45  0.001984047    3.374    0.704
       393 -10.6621     22.8865    102.4267   9.1577166047e+01   5.1686845776e+01    0.6487769    0.3263199  78.31  0.002604952    2.857    0.650
       394  -9.5322    150.5469    102.8207   5.6984126600e+01   3.1655509717e+01     0.462175    0.2887285 -65.04  0.001159287    2.297    0.565
       395  -9.3911    139.8941    104.2816   5.9963635869e+01   3.3756346955e+01    0.3753859    0.2735742 -74.83 0.0008337787    1.833    0.454
       396  -8.5534    166.7288    103.9279   5.3526673554e+01   2.7635267610e+01     0.286865    0.2090453 -58.14 0.0007357815    1.582    0.368
       397 -10.2815    128.7082    101.2106   6.1979016561e+01   3.6805405403e+01    0.5241045    0.3316561 -44.04  0.001468988    1.570    0.363
       398  -9.2702      6.4525    102.4573   9.5989933058e+01   5.2823330252e+01    0.2624322     0.151114  88.63 0.0009035197    1.646    0.393
       399  -7.7628    175.5841    101.8325   5.1011711143e+01   2.5897308754e+01     0.218615    0.1458068 -50.20 0.0006479702    1.630    0.387
       400  -8.1070    159.8011    100.7702   5.4257450277e+01   2.9901385445e+01    0.2105425    0.1815027 -72.13 0.0004237109    1.314    0.239
       401  -9.2390     82.0388     99.7713   7.4340704523e+01   4.5604001648e+01    0.3390114    0.2114041 -69.37 0.0009533164    1.814    0.449
       402 -10.1589     63.9510     95.9016   7.8693319178e+01   4.8978835319e+01    0.5846868    0.3457379 -79.75  0.001606192    2.283    0.562
       403  -9.3533     95.0649     96.9497   6.9970147292e+01   4.4136360412e+01    0.3081059    0.2396098 -75.70 0.0006906659    1.467    0.318
       404  -8.9480    151.5170     95.1415   5.4660557081e+01   3.2961657508e+01     0.331029    0.2414666  12.28  0.001413046    1.917    0.478
       405  -8.2633    164.9741     94.0260   5.1224385476e+01   2.9963205039e+01    0.2426053     0.189935 -74.13 0.0004297042    1.612    0.380
       406  -9.8263    247.8538     92.7225   3.5460293712e+01   1.0031529097e+01     0.390379    0.1985395  34.09  0.001497456    2.730    0.634
       407  -7.4869    188.6519     93.3302   4.5968195588e+01   2.4230964305e+01    0.1647402    0.1240941 -75.83 0.0007049154    1.763    0.433
       408  -8.4251    176.6170     93.0584   4.8396542109e+01   2.7281537941e+01    0.2518459    0.1880383 -53.34 0.0006754044    1.470    0.320
       409  -9.6558    139.1267     91.5904   5.6700926348e+01   3.6514697101e+01     0.539794    0.2775077 -47.28   0.00134057    2.005    0.501
       410 -10.6308    124.0877     90.3496   6.0235143706e+01   4.0034247262e+01     0.770788    0.5781342 -16.57  0.002550299    1.688    0.407
       411  -9.4874      5.4911     91.8961   9.4923941587e+01   5.5145089338e+01    0.2634223    0.1549817  68.69   0.00113468    2.018    0.505
       412  -7.9940    157.9735     91.9227   5.2238469793e+01   3.2058232663e+01    0.2479069    0.1916499 -75.91 0.0007679206    1.673    0.402
       413  -9.6439     34.8417     88.9277   8.5921374810e+01   5.3655439314e+01    0.5998009    0.2349977 -71.11  0.002560422    2.706    0.630
       414  -9.3821     22.9097     89.7837   8.9614814833e+01   5.4447440166e+01    0.2789143     0.206435 -38.27  0.001242614    1.475    0.322
       415  -7.4642    170.3011     90.6553   4.9094830320e+01   2.9291985380e+01    0.1624533    0.1244897 -73.63 0.0004767778    1.681    0.405
       416  -7.7910    150.7994     88.9319   5.3081740717e+01   3.4345787182e+01    0.2072165    0.1237646 -37.96 0.0005039953    1.700    0.412
       417 -10.1887     86.3664     85.9210   6.9652834032e+01   4.7957292340e+01    0.5590267    0.3526952 -60.68  0.001215918    1.672    0.402
       418  -8.8695     64.8511     87.5126   7.6526346767e+01   5.0713629878e+01    0.3318447    0.2083302  -6.80  0.001470922    2.925    0.658
       419  -9.7051     48.6281     83.7819   8.0659547051e+01   5.3435338003e+01    0.5493128    0.3273269 -79.99  0.002674106    2.179    0.541
       420  -7.6280    179.4430     85.4723   4.5672322736e+01   2.7953714356e+01    0.1572491    0.1514156 -79.30 0.0001127559    1.085    0.078
       421  -9.9723    104.9371     83.0616   6.3447599367e+01   4.5340217810e+01     0.444517    0.3148204 -79.83  0.000859076    2.144    0.534
       422  -7.8219    164.1968     86.9442   4.9398850904e+01   3.1489882809e+01    0.2093276    0.1234939 -38.40 0.0004506278    1.713    0.416
       423  -8.1003    157.9697     83.7040   4.9882259021e+01   3.3621111915e+01    0.2136309    0.2023624  59.24 0.0003756652    1.062    0.059
       424  -9.0887    140.8613     82.3855   5.3607956547e+01   3.7935103110e+01    0.3780578    0.2138562 -46.34  0.001089878    1.825    0.452
       425  -8.0102     64.0033     82.5000   7.5578553469e+01   5.1912766414e+01    0.1736641    0.1304208  37.84  0.000586853    1.513    0.339
       426  -9.8413     24.7051     80.2966   8.7404658087e+01   5.6366271233e+01    0.4409799    0.2427148 -88.84  0.001611224    2.461    0.594
       427  -9.3494      9.5707     80.4318   9.2079849253e+01   5.7355800527e+01    0.3018832    0.1705712  71.07  0.001416216    2.415    0.586
       428  -8.4139    150.3235     80.5795   5.0759238554e+01   3.6055634685e+01    0.2841806    0.1814152 -48.78 0.0007503701    1.677    0.404
       429  -8.6922    119.4096     79.8501   5.8463710824e+01   4.3139714946e+01    0.3492215    0.2185633 -49.38  0.001275289    1.636    0.389
       430  -9.0635     74.5220     79.5071   7.1543776353e+01   5.1126100666e+01    0.4824719    0.2321132 -60.17  0.002031977    2.308    0.567
       431  -8.1703    166.9383     79.4776   4.6620275822e+01   3.2180110706e+01    0.2341857    0.2073271 -35.37 0.0003125162    1.147    0.128
       432  -8.0482    184.2090     78.0037   4.2564444395e+01   2.8052937690e+01    0.2112353    0.1265503 -34.04  0.000603525    1.695    0.410
       433  -9.3330    106.3339     76.2346   6.1051214161e+01   4.6471802469e+01     0.378391    0.2198424  18.77  0.001397118    3.061    0.673
       434  -9.3295    106.0886     71.6098   5.9714390422e+01   4.7440166939e+01    0.4128112    0.2786736 -68.54   0.00151587    2.193    0.544
       435  -7.6827    157.2024     76.3688   4.7885993743e+01   3.5163216371e+01    0.2125324    0.1485007  63.48  0.000386083    1.571    0.363
       436  -9.5069    127.8787     74.5843   5.4590440156e+01   4.2362791856e+01    0.5041562    0.2747065 -49.08  0.001260145    1.983    0.496
       437  -8.6218    140.3301     74.9201   5.1492129627e+01   3.9479745511e+01    0.2888813    0.2262379 -62.85 0.0008378506    1.515    0.340
       438 -10.0255     63.2083     73.4082   7.3498063236e+01   5.3956195373e+01    0.4352366    0.2598818 -66.26  0.001264897    1.952    0.488
       439  -9.6024     82.4287     72.4109   6.7098371524e+01   5.1421166817e+01    0.3607469    0.2696779 -80.23 0.0009698129    1.904    0.475
       440  -8.1253    163.4918     73.0736   4.5473284921e+01   3.4187975199e+01    0.2386831    0.1537358 -37.82  0.001019409    1.568    0.362
       441  -7.7541    151.5627     72.8331   4.8125250596e+01   3.7185875225e+01    0.2216718     0.144006 -48.01 0.0008077529    1.652    0.395
       442  -8.7271    115.7436     72.7141   5.7309405796e+01   4.5303573256e+01     0.293216    0.1947068 -50.27 0.0006683536    1.577    0.366
       443  -8.1610     42.7157     72.5341   7.9976888946e+01   5.6463646204e+01    0.2099925    0.1401811 -78.48 0.0008175154    1.800    0.444
       444  -7.6842    175.5244     72.4739   4.2717569063e+01   3.1232503223e+01    0.1567677    0.1515848  33.46 0.0008093997    1.032    0.031
       445  -9.5045     51.5089     69.3569   7.6269994803e+01   5.6210051559e+01    0.4302021    0.2466619 -75.66  0.001397755    2.692    0.628
       446  -9.1901     16.6810     69.5776   8.7929892598e+01   5.9215902799e+01    0.2782362    0.1807428 -88.51  0.001011245    1.802    0.445
       447  -9.2263     95.1893     71.0667   6.2774444315e+01   4.9561328489e+01    0.3679943    0.2293691 -59.52  0.001021995    1.952    0.488
       448  -9.4985     30.4687     69.3999   8.3319286072e+01   5.8236832758e+01    0.3956263    0.1995156  -7.35  0.001715128    3.981    0.749
       449  -7.6835    157.2660     69.6612   4.5829302709e+01   3.6346463016e+01    0.1566559    0.1211442 -66.97 0.0003261978    1.594    0.373
       450  -8.7627    147.0643     68.1111   4.7728640496e+01   3.9124602954e+01    0.3175559    0.2152182 -43.15 0.0006684769    1.515    0.340
       451  -8.6502    138.8200     66.0461   4.9090885227e+01   4.1457903834e+01    0.3175199    0.2041662 -55.07 0.0007309415    1.903    0.475
       452  -8.8163    121.6448     65.8457   5.3508016802e+01   4.5366928286e+01    0.3110491    0.2406684 -61.85 0.0007981114    1.573    0.364
       453  -7.5099    203.2587     66.6328   3.5763157062e+01   2.5000384698e+01    0.1603919    0.1134458 -60.15 0.0004213036    1.640    0.390
       454  -8.3305     83.1559     65.5137   6.4795470874e+01   5.2700191694e+01    0.3181902    0.1847927  -5.07  0.001085259    4.195    0.762
       455  -8.7942     37.2447     63.8484   7.9703461630e+01   5.8809778275e+01    0.2628896    0.1751541 -79.18  0.001075539    1.911    0.477
       456  -9.1456    110.2380     63.3757   5.5895605478e+01   4.8204225228e+01    0.3094174    0.2319192 -53.74 0.0006999241    1.485    0.327
       457  -9.5518     97.3721     60.9794   5.8915301081e+01   5.1132346197e+01    0.4552922    0.3046761 -25.05  0.001746323    1.626    0.385
       458  -8.6943     65.5973     62.2620   6.9549197578e+01   5.5939095654e+01    0.3969488    0.2290407   5.74   0.00166795    3.166    0.684
       459  -8.1552    158.2984     61.8053   4.3146565284e+01   3.7434641582e+01    0.2410919    0.1846619 -53.97 0.0004694372    1.460    0.315
       460  -9.6512     73.4424     59.2672   6.5996795123e+01   5.5427913270e+01    0.4067782     0.239825 -56.41  0.000906058    1.886    0.470
       461  -8.4471    146.9700     58.9819   4.4833462782e+01   4.0726424129e+01    0.2390283    0.1874224 -71.78 0.0006033638    1.638    0.389
       462  -8.5054     89.0328     59.0677   6.0871247200e+01   5.2976871743e+01    0.2090954    0.1709259 -76.11 0.0006431068    1.680    0.405
       463  -7.8382    215.5319     57.9466   3.1335449245e+01   2.3151786782e+01    0.1957095    0.1313484   7.74 0.0004529805    2.214    0.548
       464  -8.6244    130.7219     57.4024   4.8319670684e+01   4.4853788627e+01    0.2670025    0.1761313 -45.89  0.000851899    1.619    0.382
       465  -7.9755     38.6687     58.6737   7.7862905043e+01   5.9741555296e+01    0.1292389   0.07761776 -32.26 0.0007051094    1.709    0.415
       466  -9.9905     23.3414     56.0453   8.2679327408e+01   6.1562843440e+01    0.4200191    0.2594457  86.76  0.001842987    2.783    0.641
       467  -9.4962      7.6647     56.9954   8.8486671774e+01   6.2362739229e+01     0.274139    0.1833914  82.33  0.001394757    1.982    0.495
       468  -8.4078    140.0161     55.9909   4.5517343677e+01   4.2911628292e+01    0.2314758    0.1835138 -67.44 0.0004657496    1.591    0.371
       469  -9.3519    119.1471     55.1128   5.0624004220e+01   4.7830165359e+01    0.4305746    0.2293001 -47.86  0.001480351    2.134    0.531
       470  -8.7509     44.1778     55.3406   7.4965295147e+01   5.9870051574e+01     0.254701    0.1783543 -64.16  0.001141598    1.532    0.347
       471  -9.2391     62.8120     53.7625   6.7862306694e+01   5.7986295064e+01    0.4809176    0.1729306 -52.92  0.001259654    2.933    0.659
       472  -8.9150     54.0771     53.7678   7.0947081844e+01   5.9082917681e+01    0.3366705    0.1709287 -60.99   0.00126805    2.445    0.591
       473  -8.5072    105.7733     52.8656   5.3648000791e+01   5.1002496553e+01    0.2613201    0.1886943 -54.01 0.0008006937    1.646    0.392
       474  -9.5041     92.4725     50.2978   5.6794466758e+01   5.3982354163e+01    0.3916599    0.2302721 -49.87 0.0009991837    1.911    0.477
       475  -7.9120    144.8468     48.8240   4.1966898909e+01   4.2892892581e+01    0.2011915    0.1780528 -63.62 0.0004058287    1.289    0.224
       476  -8.0272    129.9979     48.9933   4.5640411458e+01   4.6419477158e+01    0.2278644    0.1809744 -66.82  0.000575087    1.632    0.387
       477  -8.3362    120.8591     47.1708   4.7393991264e+01   4.8784929078e+01    0.2101565    0.1983349 -48.57 0.0005199987    1.177    0.150
       478  -8.3973    112.2108     46.7482   4.9627368216e+01   5.0722892167e+01    0.2433496    0.1830788 -42.90 0.0006037219    1.397    0.284
       479  -8.9699     82.2371     46.2982   5.8673976788e+01   5.6466128989e+01    0.2791392    0.2099296 -51.84 0.0006039143    1.512    0.338
       480  -8.9701     44.9949     44.4336   7.1313249845e+01   6.1908772340e+01    0.2211632    0.1557917 -58.90 0.0006294627    1.545    0.353
       481  -9.0049     16.8572     44.6562   8.2204979694e+01   6.4292905961e+01    0.2173154    0.1397578 -63.13 0.0007293583    1.416    0.294
       482  -8.1778    132.8334     42.8414   4.2777416420e+01   4.6715612985e+01    0.1982627    0.1743852 -57.03 0.0003678953    1.310    0.237
       483  -9.4497     69.5184     41.2805   6.1202496489e+01   5.9350146902e+01    0.3806171    0.2253703 -54.39   0.00120444    2.127    0.530
       484  -9.0290     58.2940     42.2536   6.5602801777e+01   6.0736471308e+01    0.2999643    0.1991149 -63.65 0.0008733926    2.200    0.546
       485  -9.5527      5.2842     41.5111   8.5907430723e+01   6.5584792544e+01    0.3309693    0.1764248 -79.82  0.001788056    2.550    0.608
       486  -8.5424     93.0576     41.9764   5.3595117614e+01   5.5303066602e+01    0.2215638    0.1580978   3.76 0.0006874664    1.645    0.392
       487  -8.4658    105.9403     41.1260   4.9376349681e+01   5.2931527408e+01    0.2053519    0.1904148 -54.23 0.0005053691    1.278    0.217
       488  -8.5261     36.9202     40.4899   7.3133393235e+01   6.3475324265e+01    0.2093307    0.1519504 -61.02  0.000671711    1.538    0.350
       489  -8.7340     95.5686     37.8473   5.1256338530e+01   5.5499478853e+01    0.2455472     0.194697 -53.37 0.0007186696    1.570    0.363
       490  -8.0579     80.4825     36.2478   5.5515459042e+01   5.8465674086e+01    0.1839137    0.1185749 -45.53 0.0009416838    1.674    0.403
       491  -9.3048     26.2814     35.2025   7.5672190364e+01   6.5410216155e+01    0.2621899    0.1758242 -61.50 0.0008796435    1.610    0.379
       492  -7.5724    133.6934     35.7102   4.0029147397e+01   4.7551496556e+01    0.1515346    0.1068882  24.20 0.0002787743    1.574    0.365
       493  -8.1212    125.9909     35.3604   4.1791553996e+01   4.9417325984e+01    0.2037811    0.1757039  39.85 0.0004234219    1.105    0.095
       494  -8.2176    112.0836     34.6138   4.5185267236e+01   5.2635231144e+01    0.2331392    0.1859674 -39.46  0.000606411    1.345    0.257
       495  -7.5390     88.7140     34.3326   5.2060449052e+01   5.7328730479e+01    0.1266405    0.1068561 -61.56 0.0003885235    1.620    0.383
       496  -8.9675     48.5498     33.0459   6.5956679949e+01   6.3580532989e+01    0.2144371    0.1814031 -53.93 0.0006574865    1.435    0.303
       497  -8.1882    119.0494     32.9688   4.2687386795e+01   5.1339671633e+01    0.2152026    0.1737194 -65.20 0.0005268034    1.659    0.397
       498  -8.7331     60.7249     32.3643   6.1029008669e+01   6.2136577879e+01    0.2012064     0.176327 -38.46 0.0005783617    1.258    0.205
       499  -9.0906     72.2958     30.9740   5.6268678543e+01   6.0649047873e+01    0.2480314    0.1805799 -48.61 0.0006861442    1.631    0.387
       500  -9.0391     12.9910     29.9379   7.9555159239e+01   6.7351764975e+01    0.2873596    0.1445992 -64.35  0.001338638    2.161    0.537
       501  -8.0070     42.2387     29.9449   6.7307248349e+01   6.4835974995e+01    0.1585165   0.08588283 -44.35 0.0004698054    1.578    0.366
       502  -8.1282    101.6570     29.1045   4.6019451274e+01   5.5609531258e+01    0.2079678    0.1627863 -42.07 0.0005536227    1.437    0.304
       503  -8.8344     81.6234     27.3330   5.1583481094e+01   5.9656733517e+01    0.2504393    0.2086756 -62.42  0.001014168    1.759    0.431
       504  -8.8648      3.8468     27.3868   8.2718529297e+01   6.8348885501e+01    0.1828033    0.1225814 -60.99 0.0006635137    1.363    0.266
       505  -8.6890     91.7832     25.9431   4.7732410028e+01   5.8001013813e+01    0.2326329    0.1724286 -43.36 0.0005676609    1.558    0.358
       506  -8.0811    104.5043     22.5776   4.2589262318e+01   5.5904500729e+01    0.1353985     0.124167  14.66 0.0001677838    1.060    0.057
       507  -8.8723     63.7623     20.9454   5.5211215905e+01   6.3497924487e+01    0.2657919    0.1752021 -45.66 0.0008006619    1.791    0.442
       508  -8.9618     48.3927     21.4802   6.1432880317e+01   6.5521124943e+01    0.2222612      0.18108 -43.62 0.0006428638    1.418    0.295
       509  -7.8585     34.3344     22.6764   6.7794328020e+01   6.6901283461e+01     0.102289   0.09219215 -73.41 0.0007050789    1.710    0.415
       510  -8.1262    120.8650     20.8169   3.7581504559e+01   5.2516726232e+01    0.1840194    0.1695884 -70.17 0.0009347442    1.337    0.252
       511  -8.0381     19.6823     21.3037   7.3696026309e+01   6.8432189095e+01   0.09561709   0.08628071 -74.76 0.0003400469    1.625    0.385
       512  -8.9348     74.2130     19.2188   5.0691610124e+01   6.2086433592e+01    0.2901833    0.1941786 -44.04 0.0007929076    1.786    0.440
       513  -8.0969     38.6512     17.8287   6.3956848920e+01   6.7238181709e+01     0.160276   0.09504215 -45.51 0.0005581546    1.666    0.400
       514  -8.0564     88.0190     17.3344   4.5304599503e+01   5.9871191543e+01    0.1786877    0.1559582  22.85 0.0004563667    1.105    0.095
       515  -7.7399    112.8346     16.6107   3.7939640920e+01   5.4833494676e+01    0.1776796    0.1300517  64.07 0.0003776045    1.552    0.356
       516  -7.8555     30.0480     15.9433   6.6930899808e+01   6.8429091304e+01    0.1409399     0.106611 -26.56 0.0004196013    1.020    0.020
       517  -7.7082      2.3072     16.6776   8.0039847050e+01   7.0363354887e+01   0.09167582   0.07902442 -79.18 0.0003436374    1.643    0.391
       518  -8.5888    248.7657    249.5678   6.6965693326e+01  -1.0553973262e+01    0.2162957   0.07833584  37.97   0.00112267    2.055    0.513
       519  -8.8823      7.6563     15.3261   7.7042083708e+01   7.0295585457e+01    0.1431388    0.1261562 -83.24  0.001104653    1.740    0.425
       520  -8.0274     17.1627     14.1390   7.2102954333e+01   6.9842226769e+01    0.1396443    0.1166476 -43.97 0.0005042412    1.327    0.247
       521  -9.2787    210.9575    246.4090   7.2708949303e+01  -4.3479032844e+00    0.2657794    0.1928696 -60.64  0.001310971    2.514    0.602
       522  -9.4837    175.7457    247.2982   7.8782981748e+01   1.3478487095e+00    0.3051274    0.2309466 -78.50  0.001263075    2.071    0.517
       523  -8.7550    156.5430    248.1088   8.2143864095e+01   4.4141537589e+00    0.2737656    0.1667617  68.46  0.001086795    2.149    0.535
       524  -8.3300    113.1436    248.5845   8.9478296795e+01   1.1240422694e+01    0.1817292    0.1292906  83.73  0.001283501    1.489    0.328
       525  -9.2215    103.8673    246.8090   9.0846253261e+01   1.2900086242e+01    0.3547801     0.181105 -88.76  0.001875865    2.977    0.664
       526  -8.1999     93.9693    249.0629   9.2654668959e+01   1.4001934665e+01    0.1839465   0.09605754  66.08  0.001064548    1.774    0.436
       527  -8.6893    218.6237    247.3338   7.1560487024e+01  -5.6818281902e+00    0.2476603    0.1373132 -38.16  0.001514122    2.392    0.582
       528  -8.8259    132.2487    247.6257   8.6197001561e+01   8.4096973876e+00     0.262161    0.1464034  64.09  0.001024049    1.871    0.466
