#   1 NUMBER                 Running object number                                     
#   2 MAG_AUTO               Kron-like elliptical aperture magnitude                    [mag]
#   3 X_IMAGE                Object position along x                                    [pixel]
#   4 Y_IMAGE                Object position along y                                    [pixel]
#   5 X_WORLD                Barycenter position along world x axis                     [deg]
#   6 Y_WORLD                Barycenter position along world y axis                     [deg]
#   7 A_WORLD                Profile RMS along major axis (world units)                 [deg]
#   8 B_WORLD                Profile RMS along minor axis (world units)                 [deg]
#   9 THETA_WORLD            Position angle (CCW/world-x)                               [deg]
#  10 FWHM_WORLD             FWHM assuming a gaussian core                              [deg]
#  11 ELONGATION             A_IMAGE/B_IMAGE                                           
#  12 ELLIPTICITY            1 - B_IMAGE/A_IMAGE                                       
         1 -12.3751    180.4770     58.4683   4.4611804712e+00   3.2487216707e+01     1.382841    0.9531467  29.30  0.005011792    2.234    0.552
         2 -13.1612    196.1100     45.8249   3.5933827234e+02   3.0824064697e+01    0.9459521    0.8747445 -65.52  0.004018159    1.136    0.119
         3 -13.7528    221.9325     18.2622   3.5073151469e+02   2.8804128494e+01     1.276523     1.154262  -6.86   0.00616174    1.533    0.348
         4 -10.7662    119.3873      9.5182   3.5761630649e+02   5.3644452910e+01    0.5840301    0.3656489  48.77  0.002804308    1.684    0.406
         5 -10.8247      8.3353      8.8849   4.5032394651e+01   7.7951275172e+01     0.218553    0.1604326  27.65  0.001335022    1.377    0.274
         6 -10.4461      2.3152      6.4635   4.9800852038e+01   7.8980637522e+01    0.2672031    0.1569847 -50.42  0.001244293    1.642    0.391
         7 -10.0828    171.7527      2.3765   3.4996946065e+02   4.1262257279e+01    0.2234152    0.1461372  74.22   0.00124598    1.473    0.321
         8 -10.4801     58.9564    217.0287   6.5828061632e+01   2.1109696728e+01    0.2050218    0.1743437  79.61 0.0003134506    1.259    0.206
         9 -12.0686    246.5290    246.7371   3.1428647313e+01  -5.0873523717e+00    0.7524397    0.5103862   5.64  0.006218693    1.181    0.153
        10 -12.4277    247.8845    234.6057   2.9502537780e+01  -3.8828584125e+00    0.8589332    0.3331697 -31.05  0.005218228    2.135    0.532
        11 -18.2819     21.5700    229.1885   7.5596444418e+01   2.2446005882e+01     7.033871     4.902701  23.69   0.02867289    1.388    0.280
        12  -9.4161     33.7876    191.0588   7.0368456531e+01   2.9674344990e+01     0.189652    0.1519474  52.42 0.0003871522    1.077    0.071
        13 -10.7810    135.1005    187.7317   4.3244437405e+01   1.6885855403e+01    0.2807886    0.2079273 -71.27  0.001167866    1.904    0.475
        14 -11.2712     52.8371    247.0128   6.9422121273e+01   1.5885650614e+01    0.2509717    0.1556237 -68.46  0.001539588    1.956    0.489
        15  -9.9100    192.6483    194.2913   3.2292892223e+01   7.4890953979e+00    0.5321384    0.2941191 -59.06  0.002153659    4.333    0.769
        16 -11.3484    144.9642    183.6488   4.0275587957e+01   1.6181664835e+01     0.439321    0.2904879 -61.57  0.001424233    2.024    0.506
        17  -9.0943     12.3256    182.9811   7.5805149660e+01   3.3584148432e+01    0.1554667    0.1322483  57.33 0.0002417777    1.020    0.019
        18  -9.6321      6.2080    183.0984   7.7501867116e+01   3.4039098296e+01    0.1920001    0.0735915  18.44 0.0007169055    2.705    0.630
        19 -11.0351     51.9520    162.8190   6.2376215074e+01   3.4677516531e+01     1.085785    0.5846384 -49.08  0.004676792    2.075    0.518
        20  -9.1640     47.2380    176.8965   6.5339828519e+01   3.1671800467e+01    0.4252607    0.2973796  64.49  0.001995605    1.418    0.295
        21  -9.0049     42.2220    173.4462   6.6481093178e+01   3.3095075402e+01    0.2720795    0.2120928  45.75 0.0003718833    1.157    0.135
        22  -9.7666     45.4063    170.2344   6.5207136855e+01   3.3550520264e+01     0.397455    0.2624528 -89.45  0.001350263    1.596    0.373
        23  -9.6847    220.5590    176.0528   2.4282356663e+01   6.6119674897e+00    0.2323636     0.137874 -47.51  0.001290523    2.038    0.509
        24 -10.7688    143.8716    166.7462   3.7484763779e+01   1.9700540047e+01    0.5016995    0.3414209 -80.12  0.002123385    2.794    0.642
        25  -9.8044      2.3876    168.8605   7.7978264362e+01   3.7822656946e+01    0.2159755    0.1321551  28.96   0.00085455    1.564    0.361
        26 -12.1897      6.7367    196.0614   7.7883245212e+01   3.0934820386e+01    0.3612225    0.2276977 -42.14  0.001627263    2.153    0.536
        27 -10.4927     57.2097    211.6533   6.5816334318e+01   2.2453356145e+01    0.3762054    0.3007372  53.33  0.001286648    1.134    0.118
        28 -11.9623    123.6420    155.3947   4.0282477981e+01   2.5553108421e+01    0.7850708    0.3969596 -54.81  0.003187966    2.139    0.532
        29 -12.2921    111.7950    150.5229   4.2497324754e+01   2.8724403626e+01    0.8300632    0.5285259  69.44  0.002901725    2.525    0.604
        30 -11.5690    118.8699    149.9706   4.0465316031e+01   2.7610105850e+01    0.5964071    0.3003144 -42.32  0.002370273    2.126    0.530
        31 -10.8980     86.9257    154.8338   5.0463521010e+01   3.1819191733e+01    0.3150849    0.3025661  -7.79 0.0003310357    1.110    0.099
        32 -12.8884     93.2377    148.9602   4.7526567233e+01   3.2254527009e+01     0.974971    0.7613852  48.36  0.002673585    1.273    0.214
        33 -12.2619    133.8423    145.5327   3.5675286815e+01   2.5903169578e+01     1.356342    0.4299522 -54.33  0.003965946    4.086    0.755
        34  -8.7467      1.8138    151.2220   7.7338033740e+01   4.2378939047e+01    0.2096813    0.1582142  58.27  0.001188884    1.186    0.157
        35 -10.5023    143.6828    146.0051   3.3381111509e+01   2.4009078046e+01    0.3807097    0.2426242 -60.83  0.001683503    1.969    0.492
        36 -10.0422    138.7832    145.4874   3.4447740631e+01   2.5010892773e+01    0.3012137    0.2299886  87.86 0.0009864134    1.966    0.491
        37 -10.6667    114.2687    144.8567   4.0675824907e+01   2.9606033838e+01    0.4308286    0.2843504 -70.65  0.001356392    1.977    0.494
        38 -11.9021    115.7556    140.6785   3.9393044189e+01   3.0307303795e+01    0.7696828    0.4651121  76.36  0.002504599    3.780    0.735
        39 -11.0909    121.5146    136.3995   3.6899394553e+01   3.0222850168e+01    0.5703624    0.3506937 -33.01  0.001311469    1.942    0.485
        40  -8.7015    149.8449    142.7926   3.1259335045e+01   2.3548120645e+01    0.1870691    0.1727018  86.35 0.0003883362    1.294    0.227
        41 -10.1921    124.8621    140.9008   3.6989452804e+01   2.8578828531e+01    0.2303911    0.2030777  -9.65 0.0005362473    1.228    0.186
        42 -12.2216    105.6639    135.9489   4.1244518716e+01   3.3267980038e+01    0.7254883    0.5552818 -15.21  0.002330775    1.676    0.403
        43 -11.6749     99.9143    132.4086   4.2187706339e+01   3.5170670781e+01    0.7063682    0.4128164  69.05   0.00241946    3.081    0.675
        44 -11.6248     93.4211    135.4562   4.4819117935e+01   3.5571642168e+01    0.3834709    0.3543548  39.74  0.002019844    1.062    0.059
        45 -10.6582    135.7255    129.3395   3.1620218264e+01   2.9060294949e+01    0.5120951     0.223575 -47.94  0.001651898    2.278    0.561
        46 -10.4480    100.8599    123.9810   4.0009596271e+01   3.7053516239e+01    0.3295036    0.2819285  -9.91 0.0006004901    1.376    0.273
        47 -10.2038     92.2145    124.3864   4.2804127116e+01   3.8549022494e+01    0.4511066    0.2865372  76.62  0.001059691    2.589    0.614
        48 -10.1405    120.0997    122.7690   3.4146201376e+01   3.3607110920e+01    0.2907263    0.2363654 -32.17 0.0009537209    1.316    0.240
        49 -10.9564    113.3156    127.9923   3.7268767590e+01   3.3725391885e+01    0.3786021    0.3295738  14.60 0.0008805672    1.261    0.207
        50 -10.8558     83.2947    118.5137   4.4399906389e+01   4.1624230712e+01    0.5693375    0.3090627  60.05  0.001472858    2.675    0.626
        51  -9.4249    109.0726    117.9360   3.6100633537e+01   3.6916120796e+01    0.2291658    0.2261095  54.98 0.0003742821    1.011    0.011
        52  -9.6004    101.9536    115.2969   3.7590455841e+01   3.8944534038e+01    0.3429145    0.2300098 -70.83  0.001424673    1.876    0.467
        53 -11.6732      6.0742    111.9228   7.3144018199e+01   5.2702679613e+01    0.6494676    0.5472876 -20.47  0.002822426    1.342    0.255
        54 -10.1880      1.7376    107.4631   7.4541043478e+01   5.4148954608e+01    0.4111954    0.2348057 -88.12  0.001902252    1.625    0.385
        55 -10.9871    116.8133    110.0600   3.1879571798e+01   3.7164349569e+01    0.5005956    0.3207176  49.18  0.002166649    1.599    0.375
        56 -10.2500     18.9290    105.3977   6.7026851374e+01   5.3636133824e+01    0.2746316    0.2077924  21.54  0.001234627    1.407    0.289
        57 -10.7216    120.1734    104.2674   2.9412960287e+01   3.7749825622e+01    0.3625786    0.2135266 -47.40  0.001508499    1.685    0.406
        58  -9.9870     53.3963    205.2185   6.6249267945e+01   2.4297792256e+01    0.5477926    0.2463015  55.23  0.002364145    2.331    0.571
        59  -7.9274    107.3073     94.7072   3.0435608026e+01   4.2636693416e+01    0.1570503    0.1237336  86.17 0.0002548228    1.581    0.368
        60  -8.9322      9.0612    190.1521   7.7029689756e+01   3.2130669948e+01     0.246721    0.1490207  67.95 0.0003476224    1.481    0.325
        61  -9.8811     20.1889     87.3186   6.3638802650e+01   5.8473861224e+01    0.3101397    0.1661537  23.99  0.001371843    1.921    0.480
        62 -15.6294     70.3891    145.6433   5.4052147480e+01   3.6672148304e+01     8.508648     4.322934  89.85    0.0171517    3.684    0.729
        63  -8.9946      3.8682     76.7069   7.0202569478e+01   6.2361033940e+01    0.2578984    0.1207274  -2.83 0.0009121509    2.525    0.604
        64 -11.5615     66.3162     65.6941   3.5705351721e+01   5.7608123821e+01    0.4779054    0.3147622 -66.30  0.002059539    1.937    0.484
        65  -9.7207     45.0598    247.0238   7.1150791279e+01   1.6689310303e+01    0.2008246    0.1280691 -59.59 0.0007645735    1.966    0.491
        66 -12.3986    201.6698     40.1548   3.5738310294e+02   3.0373973117e+01    0.5273611    0.4448896 -74.01   0.00115221    1.115    0.103
        67 -10.5184     54.2147    239.8380   6.8650981168e+01   1.7077234575e+01    0.1892799    0.1563606  40.71 0.0003664096    1.049    0.046
        68  -9.3518     75.2279    249.5246   6.4627519477e+01   1.3003504504e+01    0.2918418   0.08718692 -48.98  0.001149884    4.659    0.785
        69  -9.0031    191.1892     60.8161   3.6852926006e+00   2.9803992683e+01    0.1667218    0.1556538  -8.34 0.0003359683    1.310    0.237
        70  -9.2281     41.8758    205.7569   6.9281643068e+01   2.5444744487e+01    0.3113739     0.219904  42.84  0.001355903    1.186    0.157
        71 -11.0678     70.8012    190.9481   6.0196414045e+01   2.5422689608e+01    0.3783832    0.3225339 -61.88 0.0005040322    1.290    0.225
        72  -9.3959    189.7722     15.2085   3.5210886085e+02   3.5865961507e+01    0.1537372    0.1482187  64.72 0.0005967157    1.330    0.248
        73 -11.0478     22.2525    203.2885   7.4199372781e+01   2.7947865753e+01    0.3742391    0.2517036  12.53   0.00144449    1.686    0.407
        74  -9.3279     62.0473    237.7783   6.6710134368e+01   1.6615043205e+01    0.1791176    0.1674448 -52.32 0.0006472123    1.335    0.251
        75  -9.6722    167.1478    224.7578   4.2002762970e+01   6.0150457875e+00    0.2151141    0.1591392 -26.03 0.0007256782    1.339    0.253
        76  -8.1555     83.9636     28.0133   1.3218384417e+01   6.0568748960e+01    0.1607713    0.1582446  56.28 0.0003095866    1.063    0.059
