#   1 NUMBER                 Running object number                                     
#   2 MAG_AUTO               Kron-like elliptical aperture magnitude                    [mag]
#   3 X_IMAGE                Object position along x                                    [pixel]
#   4 Y_IMAGE                Object position along y                                    [pixel]
#   5 X_WORLD                Barycenter position along world x axis                     [deg]
#   6 Y_WORLD                Barycenter position along world y axis                     [deg]
#   7 A_WORLD                Profile RMS along major axis (world units)                 [deg]
#   8 B_WORLD                Profile RMS along minor axis (world units)                 [deg]
#   9 THETA_WORLD            Position angle (CCW/world-x)                               [deg]
#  10 FWHM_WORLD             FWHM assuming a gaussian core                              [deg]
#  11 ELONGATION             A_IMAGE/B_IMAGE                                           
#  12 ELLIPTICITY            1 - B_IMAGE/A_IMAGE                                       
         1  -9.1989    111.9342     34.0805   4.2158511500e+01   5.1879709563e+01    0.3442428    0.1758018 -35.18  0.001109245    1.961    0.490
         2  -8.1707     97.2898     14.7895   3.8689250379e+01   5.7369293508e+01     0.248145   0.09989052 -33.88  0.000777755    2.519    0.603
         3  -8.5410     55.7925      9.8568   4.9947710262e+01   6.5225050116e+01    0.1989865    0.1520866 -38.93 0.0006363336    1.580    0.367
         4  -7.9544     47.5975      9.7340   5.3037859597e+01   6.6392025654e+01    0.1560639   0.09821864 -37.63  0.000630135    1.634    0.388
         5  -8.3609     90.9686      8.9308   3.8036949267e+01   5.9275171136e+01    0.1838771     0.158437 -60.17 0.0006252577    1.664    0.399
         6  -8.6708     33.4843      4.8760   5.6634487244e+01   6.8801395012e+01    0.2619727    0.1612498 -50.19  0.001476802    2.545    0.607
         7  -8.4344     79.1847      3.7659   3.9265648639e+01   6.2054496842e+01    0.2118857     0.149394 -29.51  0.001012362    1.507    0.337
         8  -8.2530     62.6666      1.4095   4.3571996454e+01   6.5159826567e+01    0.1937428    0.1116643  48.27 0.0006625892    1.936    0.483
         9  -7.5630     39.6479      1.3315   5.2328515877e+01   6.8511260164e+01   0.09962367   0.09059022 -45.82 0.0007046804    1.778    0.437
        10  -9.0235    132.1734    247.4674   8.3570381024e+01   7.9539572665e+00    0.2139221    0.1578634  78.68 0.0006684329    1.543    0.352
        11  -9.0587    248.0490    234.3330   6.1922834887e+01  -8.8798601156e+00    0.2668061    0.1774267 -31.42  0.001614903    1.786    0.440
        12  -9.6276    246.7531    228.1652   6.1127516963e+01  -8.0253551884e+00    0.5064055      0.22144 -20.94  0.002500248    2.844    0.648
        13  -8.8790    248.9476    249.2799   6.4124183029e+01  -1.0516504551e+01    0.3267246    0.1977212  -4.03  0.002127927    1.776    0.437
        14  -9.6111    248.7342    242.0563   6.3041306731e+01  -9.7740416273e+00    0.3157942     0.209602 -32.39   0.00138124    1.865    0.464
        15  -9.2229    233.0347    247.0514   6.6374517885e+01  -7.9583960674e+00    0.3411527    0.1971641 -35.88  0.001889696    2.181    0.541
        16  -8.6677     94.2903    249.6227   9.0118993864e+01   1.3265085335e+01     0.240482    0.1311237  66.77  0.001010427    1.799    0.444
        17  -7.6881     72.4708    250.5369   9.3707460083e+01   1.6090713270e+01    0.1063768   0.07807555  63.66 0.0001130026    1.027    0.027
        18  -9.2446    103.6565    246.3609   8.8274854363e+01   1.2425795056e+01    0.3581904    0.1848207 -83.13  0.001910627    2.901    0.655
        19  -9.0970     64.8208    248.3418   9.4755667093e+01   1.7426437086e+01    0.2249252     0.059591  47.83  0.001101083    2.698    0.629
        20 -10.0552    223.9514    244.0815   6.7436109516e+01  -6.2578100455e+00     0.390423    0.2283737 -42.77  0.002362694    2.400    0.583
        21  -7.9835     12.6835    247.3583   1.0254830548e+02   2.3515117814e+01     0.106268   0.04622691  67.31 0.0007044086    1.754    0.430
        22  -9.3749    120.2248    245.1292   8.5357160342e+01   1.0141406294e+01    0.3152707    0.1887441  80.09  0.001722454    2.303    0.566
        23  -8.8597     67.5966    245.0812   9.4076432962e+01   1.7595405814e+01    0.2193257    0.1078356 -86.42  0.001145748    2.314    0.568
        24  -8.4452    139.5212    244.0108   8.1924389715e+01   7.3034065823e+00    0.1467621    0.1145582 -66.39  0.001023435    1.592    0.372
        25  -9.3725     78.5166    243.4151   9.2178067527e+01   1.6424890501e+01    0.3090858    0.1103328  60.52   0.00141096    3.155    0.683
        26  -7.9379     34.4943    243.9882   9.9166608803e+01   2.1755337239e+01    0.1431447   0.05980695  76.26 0.0008090964    2.429    0.588
        27  -8.5040    201.8803    242.6990   7.0968583280e+01  -2.6157665825e+00    0.1870872    0.1518629 -61.09 0.0007824779    1.917    0.478
        28  -8.8545    168.9919    243.0370   7.6694334043e+01   2.6866167852e+00    0.1787361    0.1409926  47.55 0.0005293902    1.098    0.089
        29  -9.1636    194.4474    240.2438   7.1896891670e+01  -1.1119814959e+00    0.3064229    0.2088972 -56.99  0.001457475    2.290    0.563
        30  -9.4081    183.2818    240.1746   7.3825290225e+01   7.2461486242e-01    0.3775335    0.2307497  63.86  0.002000347    2.464    0.594
        31  -9.7755    160.0927    240.1401   7.7874406437e+01   4.5381345332e+00    0.3091675    0.2164001 -85.89  0.001233018    2.318    0.569
        32  -8.7152    153.7715    241.7222   7.9177949690e+01   5.3453899535e+00      0.20351    0.1610675 -80.33  0.001384575    1.666    0.400
        33  -7.9884     88.1904    241.9847   9.0459044966e+01   1.5327800353e+01     0.149902    0.1168626  74.76  0.000602713    1.133    0.117
        34  -7.4843     49.3490    242.6766   9.6798330200e+01   2.0255936437e+01    0.1141374   0.05543665  66.04 0.0007049054    1.747    0.428
        35  -8.4906    214.0163    241.0011   6.8651087996e+01  -4.3552973179e+00    0.1411469    0.1133511  24.59 0.0005620881    1.062    0.059
        36  -9.1774    243.2214    236.0132   6.2986212351e+01  -8.3329366754e+00     0.287865      0.15293  12.66  0.001524181    2.302    0.566
        37  -8.3533    146.1611    239.2212   8.0203598029e+01   6.9385007819e+00    0.1577697    0.1179876  64.33  0.000495241    1.355    0.262
        38  -9.2972    135.6203    238.7287   8.1993637658e+01   8.7053850549e+00    0.2694122    0.1435046  60.04  0.001045128    2.005    0.501
        39  -8.4971     40.1949    239.3934   9.8018420747e+01   2.1871174555e+01    0.1530643   0.06583898  52.63 0.0009545856    1.763    0.433
        40  -8.2907      2.3135    239.6685   1.0369879380e+02   2.5772621043e+01    0.1037736   0.04583856  67.24 0.0007044871    1.678    0.404
        41  -9.4303    231.1809    236.1251   6.5006546955e+01  -6.5017868615e+00    0.3432618    0.2653692 -28.16  0.001610808    1.551    0.355
        42  -8.4336    209.1626    238.2089   6.9064381728e+01  -3.2510357430e+00    0.1477703    0.1278273  47.66 0.0004862733    1.347    0.258
        43  -8.1788    129.2034    238.2143   8.3058243849e+01   9.8011430431e+00    0.1642231    0.1156983  65.91 0.0008218953    1.391    0.281
        44  -8.2652     69.3418    238.3035   9.3273727915e+01   1.8481137914e+01   0.08951864   0.08524521  27.27 0.0007039789    1.679    0.404
        45 -10.0170    118.9454    235.9265   8.4600591507e+01   1.1760820059e+01    0.2031809    0.1831391  82.65  0.000525184    1.221    0.181
        46  -8.4321    122.9825    234.0280   8.3680412356e+01   1.1431944285e+01    0.1923355    0.1195313  67.84 0.0009307007    1.748    0.428
        47  -8.8046     25.9044    236.9280   1.0007712586e+02   2.3862999196e+01    0.2590854   0.09251804  66.51  0.001396123    2.664    0.625
        48  -9.9560    214.8050    232.9385   6.7294788279e+01  -3.5324207603e+00    0.4416168    0.3294989  89.23  0.002326044    3.309    0.698
        49  -9.1313    203.2268    234.6303   6.9555515106e+01  -1.8495282440e+00    0.2784807    0.1990814 -62.58   0.00133792    2.459    0.593
        50 -10.0097    175.7754    233.2508   7.4184953794e+01   2.8966646659e+00     0.409749    0.2176326 -55.86  0.002120984    2.828    0.646
        51  -7.9450    170.2765    235.6482   7.5489970939e+01   3.4833174064e+00    0.1132955   0.08588242  69.11 0.0004642243    1.642    0.391
        52  -9.2305    108.6165    234.2416   8.6228791661e+01   1.3610691810e+01    0.3000961    0.1730532  67.34  0.001194482    1.840    0.457
        53  -8.8745     78.7374    234.0426   9.1354442620e+01   1.7941108881e+01    0.2520992    0.1429637  87.69  0.001015791    1.945    0.486
        54  -9.1721      8.1436    234.8161   1.0263745008e+02   2.6020897885e+01    0.1199021   0.09605601  86.12  0.000525552    1.346    0.257
        55  -8.3628     99.9650    234.0332   8.7714290302e+01   1.4934333296e+01    0.1935625    0.1125515  70.06  0.001130483    1.815    0.449
        56  -9.9885     68.6507    232.1555   9.2895866507e+01   1.9607405594e+01    0.4474991     0.196942  75.29  0.002124336    3.181    0.686
        57  -8.5232    145.0223    233.1678   7.9660289763e+01   8.0239729588e+00    0.2494187    0.1333103  61.22  0.001260777    2.232    0.552
        58  -8.4532    140.1294    230.0139   8.0144257388e+01   9.3090793817e+00    0.2282723    0.1266151  60.76 0.0007095787    1.992    0.498
        59  -8.1108    132.6651    232.5380   8.1789208412e+01   1.0127897728e+01    0.1850926    0.1315611  83.63 0.0006706578    1.734    0.423
        60  -8.6570     92.7363    231.8803   8.8758211704e+01   1.6343656092e+01    0.3250416    0.1641743  72.45  0.001241676    2.546    0.607
        61  -9.4454    186.4534    230.4534   7.1886706048e+01   1.4834433143e+00    0.3127729    0.2300815 -78.42  0.001626439    2.443    0.591
        62  -9.1111    235.9441    230.1276   6.3250840909e+01  -6.5745651900e+00    0.2657882    0.1597191 -31.53 0.0009577304    1.900    0.474
        63  -8.2678    157.7863    231.3827   7.7144457337e+01   6.1765940124e+00    0.1582642    0.1377402  55.35 0.0005126405    1.128    0.114
        64  -9.1921    151.4735    228.9702   7.7963266858e+01   7.5914430738e+00    0.2972441    0.2002505  82.46  0.001541603    2.279    0.561
        65  -9.3799    148.7930    224.4823   7.7857267822e+01   8.7302996466e+00    0.3037718    0.2082442  75.49  0.001722198    1.944    0.486
        66  -8.3648     10.3128    230.3074   1.0210006152e+02   2.6572150477e+01   0.08223099   0.06878375 -73.95 0.0007025679    1.623    0.384
        67  -8.5240      1.5941    230.3017   1.0340179146e+02   2.7400505731e+01    0.1579702    0.0716638  69.61  0.001079175    1.679    0.404
        68  -8.4522    229.8246    228.5914   6.4036406000e+01  -5.4345109504e+00    0.1938218    0.1527476 -46.50  0.001034353    1.868    0.465
        69  -8.8796    162.4315    227.7713   7.5818846409e+01   5.9276799505e+00    0.2954684    0.1759882  61.35  0.001303971    2.030    0.507
        70  -8.8435    127.7232    226.8954   8.2003893090e+01   1.1820405447e+01    0.2691597     0.177909  69.17  0.001386426    1.651    0.394
        71  -8.4832    120.1834    227.9492   8.3488753883e+01   1.2850596284e+01     0.191911    0.1199371  79.36  0.001044875    2.073    0.518
        72  -8.6749    206.0636    225.8990   6.7722158311e+01  -1.2167264620e+00    0.2265317     0.163519 -58.64 0.0007965656    2.234    0.552
        73  -8.0809     58.1699    236.8009   9.4985077843e+01   2.0157876454e+01    0.2376396    0.0468869  45.51     0.001028    3.448    0.710
        74  -8.2260     49.2925    226.4711   9.5689251377e+01   2.3017160178e+01    0.2357493    0.1001034  68.56  0.001238944    2.479    0.597
        75  -8.4482    200.0089    226.0654   6.8818440343e+01  -2.1985718403e-01    0.1725683    0.1420584  67.23 0.0005411161    1.654    0.395
        76  -8.9004    180.7359    224.1402   7.1981683038e+01   3.3287833038e+00    0.2834126    0.1878566  62.81 0.0009165639    1.951    0.487
        77  -8.9922     94.0255    223.8194   8.7733349217e+01   1.7529684670e+01    0.2630102    0.1491561  80.72  0.001339063    2.182    0.542
        78  -8.2233     39.0663    224.9440   9.7267725607e+01   2.4477279495e+01    0.2457982   0.08089714  59.28  0.001206607    2.847    0.649
        79  -8.9088    216.3983    223.1121   6.5463822999e+01  -2.5889029782e+00      0.23227    0.2111022 -51.84  0.001020306    1.565    0.361
        80  -8.8227    104.7261    223.4968   8.5777204847e+01   1.5990707501e+01    0.2852551    0.1739749  79.03  0.001613438    1.958    0.489
        81  -8.4945    172.9858    222.7485   7.3185673771e+01   4.8628428853e+00    0.2108508    0.1627166 -76.14 0.0007879016    1.896    0.472
        82  -8.5531    163.1321    222.8857   7.5008777463e+01   6.5371776729e+00    0.2826029    0.1805439  58.82  0.001580279    1.682    0.405
        83  -8.4387    159.0166    220.0907   7.5370399535e+01   7.6710684167e+00    0.1981738    0.1735751 -83.82 0.0008553246    1.384    0.278
        84  -8.4376    194.6273    232.3992   7.0727384987e+01  -1.4366475005e-01    0.1963012    0.1461838 -58.10 0.0008014084    1.995    0.499
        85  -9.0837    238.9778    221.4492   6.1305930862e+01  -6.0619446793e+00    0.1867028    0.1647086 -34.21 0.0007261758    1.544    0.352
        86  -9.5805    225.6290    221.3383   6.3568735329e+01  -3.8941701558e+00    0.2272935    0.2050687 -27.41  0.001077483    1.406    0.289
        87  -7.9876    140.7165    222.5953   7.9091570357e+01   1.0382566077e+01    0.1764929   0.09571502  51.46 0.0008954805    1.606    0.377
        88  -9.2523    120.6708    219.1781   8.2363148254e+01   1.4235345459e+01    0.4285131    0.2100323  65.49  0.001884953    2.936    0.659
        89  -8.8595     82.7531    220.2921   8.9395678478e+01   1.9762929652e+01    0.2516364    0.1362336  89.96  0.001290397    2.250    0.555
        90  -8.3085     73.4729    220.9896   9.1106477044e+01   2.0914261588e+01    0.1626892   0.08075555  82.73 0.0008098276    2.605    0.616
        91  -8.5232     27.5820    220.1864   9.8834152606e+01   2.6581389936e+01    0.2378946   0.08071594 -72.65  0.001298165    2.628    0.619
        92  -9.4486      7.2823    221.4429   1.0212681260e+02   2.8393040767e+01    0.2485581   0.06122074  55.29  0.001258375    3.102    0.678
        93  -8.2753    202.5272    220.0340   6.7421000740e+01   1.5151864154e-01    0.1609753    0.1221049 -33.49 0.0004949747    1.545    0.353
        94  -9.3991    192.3126    221.0822   6.9422423167e+01   1.7642080522e+00    0.2724009    0.2261022 -75.16 0.0006372391    1.811    0.448
        95  -8.3183    210.0783    218.8839   6.5889281493e+01  -9.8479366024e-01    0.1818737    0.1566174 -53.33 0.0006280309    1.621    0.383
        96  -9.3758    133.0033    215.9972   7.9661916967e+01   1.2753437843e+01    0.4647339    0.2695188  80.44  0.001866334    3.162    0.684
        97  -8.6684    249.0116    218.0341   5.9041848493e+01  -7.2470022108e+00    0.1645421     0.148474  61.78  0.001133186    1.788    0.441
        98  -8.5978     62.1310    217.0161   9.2749910881e+01   2.3116719766e+01    0.2812061    0.1248358  68.53  0.001183199    2.592    0.614
        99  -8.9753     51.6385    217.0541   9.4579534783e+01   2.4414908789e+01    0.2562947    0.1418023  82.50 0.0009630257    1.725    0.420
       100  -8.4038    179.4086    217.2930   7.1189586387e+01   4.5472663957e+00    0.1501677    0.1221527 -60.11  0.000844373    1.606    0.377
       101  -8.8405    169.3817    215.9726   7.2845191021e+01   6.5023390332e+00    0.2736662      0.20023 -84.70  0.001087814    2.167    0.538
       102  -8.6859    143.0378    216.4426   7.7839056488e+01   1.0989133367e+01    0.2523526    0.1762016  80.28  0.001237565    1.900    0.474
       103  -8.1520    111.9831    216.9795   8.3710091028e+01   1.5994151745e+01    0.2066022    0.1185087  87.89  0.001004185    2.639    0.621
       104  -8.1610     18.6301    215.8357   1.0002576417e+02   2.8283977320e+01     0.147881   0.07333922  88.01 0.0009510782    1.707    0.414
       105  -8.9709    232.3048    214.3994   6.1244318960e+01  -4.1414084181e+00    0.2364255    0.2096474 -41.74  0.001231627    1.560    0.359
       106  -8.0099    154.1809    215.0911   7.5558199081e+01   9.2936790653e+00    0.1690403    0.1371536  70.07 0.0008692922    1.348    0.258
       107  -9.1740     93.3182    213.8952   8.6819464371e+01   1.9387665552e+01    0.3241212    0.1644256  68.51  0.001303176    2.422    0.587
       108  -7.9230     41.4454    215.2457   9.6190399255e+01   2.5943998149e+01    0.1533001   0.08189168  87.34 0.0009455543    1.729    0.422
       109  -9.4135    213.9203    211.9329   6.4048189944e+01  -7.2422948375e-01    0.3509145    0.2868278  65.24  0.001575488    1.723    0.420
       110  -8.4424    185.6749    214.1232   6.9540065415e+01   3.9105302301e+00    0.1752666    0.1585007 -83.74 0.0007384233    1.460    0.315
       111  -9.4087     73.2828    211.7450   9.0276335099e+01   2.2615138588e+01    0.6044117    0.2191238  61.99  0.002364005    3.914    0.744
       112  -7.9889    224.9737    212.1763   6.2135370787e+01  -2.6411018294e+00    0.1541035    0.1335671 -46.33 0.0005124704    1.589    0.371
       113  -8.5664    161.6284    212.1505   7.3724800310e+01   8.4608362009e+00    0.2154073    0.1532535  54.49 0.0007680771    1.334    0.250
       114  -8.1652    106.4207    212.2850   8.4195143508e+01   1.7691718342e+01    0.1563609    0.1083907 -83.06 0.0005193502    1.589    0.371
       115  -7.8241    242.5581    211.5290   5.8992532833e+01  -5.4652793744e+00    0.1214999   0.09857768  17.11 9.096575e-05    1.038    0.037
       116  -9.0588    204.2383    210.3541   6.5524505152e+01   1.1761735667e+00    0.2781262    0.1916228 -45.88  0.001124977    1.828    0.453
       117  -8.4272    192.3459    210.0903   6.7657906340e+01   3.3165862171e+00    0.2249577    0.1558436 -49.02 0.0009005498    1.824    0.452
       118  -9.3339    175.3471    209.6984   7.0762408287e+01   6.4089157599e+00     0.360884    0.2376877  72.32  0.001573787    2.497    0.599
       119  -8.8522    148.0131    210.3975   7.6049966830e+01   1.1131294052e+01    0.2731694    0.1926497  89.03  0.001200445    2.026    0.506
       120  -8.9523    116.3278    210.0636   8.2050652719e+01   1.6518883603e+01    0.2911579    0.1804082  80.80  0.001042561    2.146    0.534
       121  -9.6605      6.8850    209.8655   1.0159165180e+02   3.0492074333e+01    0.3421676    0.1034948  71.19   0.00145813    4.250    0.765
       122  -8.5278     32.3132    209.8626   9.7364323765e+01   2.7948942072e+01    0.2074236   0.08044466 -84.01   0.00100896    2.605    0.616
       123  -9.1149    236.6369    207.9272   5.9367319475e+01  -4.0558736856e+00    0.2926856    0.2282477 -54.51  0.001639116    2.069    0.517
       124  -8.0629     46.3744    209.1854   9.4873712157e+01   2.6490209446e+01    0.1566071   0.08463597 -89.41 0.0009421994    1.743    0.426
       125  -9.3160    246.2966    207.0837   5.7571520594e+01  -5.5344704495e+00    0.2683838    0.1886933 -17.62 0.0006971563    1.410    0.291
       126  -9.5067    249.9435    202.3857   5.6108049710e+01  -5.5552774630e+00    0.3982173      0.21566 -21.14  0.001724355    1.938    0.484
       127  -8.0155    156.5766    207.8060   7.4031851007e+01   1.0055682782e+01    0.1579582    0.1226597 -71.15 0.0004409806    1.628    0.386
       128  -8.2941    139.2035    207.7940   7.7365076413e+01   1.3096131880e+01    0.2187245    0.1440241 -75.51 0.0008584973    2.071    0.517
       129  -8.0402    126.4440    208.2559   7.9881744689e+01   1.5179117622e+01    0.1610645    0.1157733 -79.90 0.0005871582    1.650    0.394
       130  -9.2719     99.3274    205.8749   8.4782576214e+01   1.9950821620e+01    0.3504753    0.2061586  84.83  0.001435285    2.206    0.547
       131  -8.4653     56.6205    205.4401   9.2724613382e+01   2.5956537461e+01    0.2291476    0.1295511  77.25    0.0010665    1.725    0.420
       132  -9.3953    194.9142    203.2724   6.6038858411e+01   3.8572836395e+00    0.3332139    0.3043341 -56.25  0.001379887    1.388    0.279
       133  -9.2031    192.3565    197.0126   6.5435390208e+01   5.2702263209e+00    0.3189431    0.2560236 -56.94 0.0007534866    1.614    0.381
       134  -7.9446    109.1377    205.1654   8.2812744543e+01   1.8553774205e+01     0.176517    0.1268846  71.61 0.0009062978    1.372    0.271
       135  -8.3045     25.4605    205.4942   9.8237256785e+01   2.9484417677e+01    0.1091221   0.07714031  76.26 0.0002244551    1.049    0.047
       136  -8.5518     85.5734    209.5329   8.7788838542e+01   2.1311032177e+01    0.2674955    0.1390232  70.62  0.001335623    2.300    0.565
       137  -8.9334    183.6026    203.5534   6.8208597213e+01   5.8675829112e+00    0.2888552    0.2052175  65.95  0.001053528    1.867    0.464
       138  -9.7319    163.9570    202.8735   7.1850211129e+01   9.5444427723e+00    0.4275189    0.2504077  60.78  0.001141223    2.112    0.526
       139  -8.5167    131.2146    203.7134   7.8336638240e+01   1.5177555128e+01    0.2660553    0.1808962  78.77  0.001143685    1.866    0.464
       140  -8.3866     17.2395    202.9880   9.9476517851e+01   3.0776689863e+01    0.1354891   0.07007079 -81.20 0.0004897926    1.601    0.375
       141  -9.0697    243.2606    200.6427   5.6918911189e+01  -4.2436530993e+00    0.2633382    0.2016038 -33.51 0.0009563672    1.514    0.340
       142  -8.4384    210.9661    201.9467   6.2851876779e+01   1.1627779388e+00    0.1864308    0.1603016  81.34  0.001119887    1.751    0.429
       143  -8.6511    140.7289    201.0034   7.6084892071e+01   1.4010636172e+01    0.3156651    0.1996392  68.87  0.001525079    2.019    0.505
       144  -8.6117     80.1274    201.0124   8.7901685282e+01   2.3686376989e+01    0.2998429    0.1471954  70.31  0.001342623    2.636    0.621
       145  -7.7262     41.3527    202.6793   9.5246819669e+01   2.8294889283e+01    0.1213458   0.06340379  68.21 0.0007047397    1.750    0.428
       146  -8.1660      9.6585    202.2942   1.0071271731e+02   3.1625615280e+01    0.1103908   0.05482719  67.28 0.0005171246    1.658    0.397
       147  -9.4155    149.6500    198.3997   7.3935511849e+01   1.2882121487e+01    0.4481074    0.2877856  81.23  0.001642813    2.641    0.621
       148  -8.8097    124.0772    199.0705   7.9086292152e+01   1.7225458615e+01    0.2931234    0.1937804  84.80  0.001154697    2.004    0.501
       149  -9.4234    113.0157    198.2002   8.1154239100e+01   1.9220253031e+01    0.4239427    0.2431662  75.31  0.001687468    2.511    0.602
       150  -9.2720    237.0600    198.2361   5.7542214027e+01  -2.8932549260e+00    0.2913374     0.159516 -37.25  0.001310325    2.034    0.508
       151  -8.6008    177.0018    198.5900   6.8635813143e+01   7.8570931693e+00    0.2228445    0.1841757 -73.98 0.0006068585    1.610    0.379
       152  -9.1147     88.8707    198.4849   8.5931075509e+01   2.2911948850e+01    0.3083386    0.1903409  75.51   0.00135603    1.759    0.432
       153  -8.4033    202.5547    197.8919   6.3679677519e+01   3.2654417689e+00    0.2189968    0.1644716  77.87  0.001096202    2.262    0.558
       154  -9.3650     61.5096    196.9662   9.1026895651e+01   2.6967072436e+01    0.3767607    0.1790953  72.50  0.001523018    2.599    0.615
       155  -8.2652     53.8329    196.5597   9.2434490767e+01   2.8004045494e+01     0.234481    0.1139846  72.39  0.001196047    2.307    0.567
       156  -7.8676     29.3096    197.6522   9.7011224355e+01   3.0568375405e+01     0.117993   0.06173813  70.80 0.0005342014    1.709    0.415
       157  -8.1804     12.4009    197.1855   9.9939796162e+01   3.2328711014e+01    0.1554175   0.07427023  87.30 0.0009485879    1.782    0.439
       158  -9.5129    245.7210    193.4377   5.5161410400e+01  -3.7398482690e+00    0.3203505    0.2579708 -55.01  0.001880377    1.960    0.490
       159  -8.1735    132.9906    195.9182   7.6861477198e+01   1.6273931277e+01    0.2060411    0.1441159  72.49 0.0006876179    1.663    0.399
       160  -7.6441     36.3337    196.6719   9.5672865853e+01   3.0005658075e+01    0.1203165   0.06385048  69.45 0.0007051796    1.719    0.418
       161  -8.8066    224.6761    193.7173   5.8885077103e+01  -1.3017647760e-01    0.2986157    0.1609696 -42.08  0.001384727    2.201    0.546
       162  -8.9430    185.1858    194.5366   6.6367363260e+01   6.9877113368e+00    0.2343202    0.2070369 -71.08 0.0007265052    1.451    0.311
       163  -8.3136    231.1273    194.1674   5.7824311073e+01  -1.3300706340e+00    0.1588263    0.1554671  35.66 0.0005548598    1.358    0.264
       164  -9.0072    160.9207    193.8154   7.0974981629e+01   1.1621255006e+01    0.2557746    0.2033974 -89.40 0.0008813907    1.640    0.390
       165  -8.6620     76.9067    193.6624   8.7714998793e+01   2.5560728618e+01     0.218031    0.1521374 -89.70 0.0006055641    1.367    0.269
       166  -8.9530     43.7591    193.2665   9.4022865549e+01   2.9837841945e+01     0.310257    0.1554568  79.82  0.001681856    2.109    0.526
       167  -8.1705    199.0857    191.6443   6.3205624017e+01   4.8459982833e+00    0.2012011    0.1831079 -53.68 0.0006527947    1.364    0.267
       168  -8.4290    172.4425    191.7164   6.8350222611e+01   9.8322747725e+00    0.2182792    0.1324274 -50.92 0.0006167609    1.955    0.488
       169  -9.0606    139.7382    190.5381   7.4683475522e+01   1.6065443658e+01     0.332301    0.2167616  77.80  0.001209949    2.227    0.551
       170  -8.8391      6.7595    190.9336   1.0052916584e+02   3.4029284208e+01    0.2889369   0.09761709 -88.74  0.001398885    2.956    0.662
       171  -7.8912    205.2879    191.6467   6.2043132598e+01   3.6930074686e+00    0.1223644    0.1060563  87.08  0.000361461    1.671    0.401
       172  -8.1513    179.3377    191.2842   6.6927237962e+01   8.6085844354e+00    0.1680884    0.1257867 -52.33 0.0004857061    1.597    0.374
       173 -10.4293     92.4315    188.6322   8.4022135758e+01   2.4300711591e+01    0.8879088    0.2609398  51.56  0.003186136    3.716    0.731
       174  -8.3615     20.9930    190.9930   9.8015855978e+01   3.2694726073e+01    0.2345627   0.07739975  66.70 0.0009540522    4.092    0.756
       175  -8.3169    148.2073    188.9322   7.2712929523e+01   1.4822686424e+01    0.2009379    0.1674291  79.88 0.0008139808    1.344    0.256
       176  -8.9144    129.3046    188.2069   7.6442748282e+01   1.8348172471e+01    0.2742918    0.2026329  83.36 0.0008207273    1.601    0.375
       177  -9.5192    120.7423    186.0524   7.7873107818e+01   2.0240913630e+01    0.4641266    0.2519124 -74.70  0.002005384    2.777    0.640
       178  -8.7926     34.2404    187.9442   9.5349318483e+01   3.1938477991e+01    0.2774407    0.1312697  80.67  0.001331071    2.248    0.555
       179  -8.4025    237.2058    188.0129   5.5596796345e+01  -1.5620381544e+00    0.2296841     0.159689 -10.01 0.0008585693    1.482    0.325
       180  -8.7689    216.5676    187.6996   5.9223335392e+01   2.1944992578e+00    0.2262498    0.2156674 -53.56  0.000800984    1.361    0.265
       181  -8.7904    191.4921    187.2021   6.3840213036e+01   6.9715373564e+00    0.2820374    0.2166335 -73.96 0.0009690681    2.008    0.502
       182  -9.3695    155.9857    187.2355   7.0859281211e+01   1.3689006416e+01    0.3236585    0.2172536 -62.29 0.0008416115    1.856    0.461
       183  -9.0964     54.7714    186.7570   9.1312579429e+01   2.9826937364e+01    0.3757378     0.177581  76.33  0.001548655    2.744    0.636
       184  -8.7663    215.8678    195.2867   6.0762541306e+01   1.2271603141e+00    0.2489253    0.1787319 -51.59 0.0007842596    1.918    0.479
       185  -8.2268    230.5386    187.0151   5.6576798275e+01  -2.4449691269e-01    0.1843701    0.1228896 -30.92 0.0007834051    1.561    0.359
       186  -8.5915    165.0748    186.5904   6.8921578634e+01   1.2095594131e+01    0.2643529    0.2036633  86.38  0.001134548    1.786    0.440
       187  -9.2432    109.5247    185.8227   8.0150883752e+01   2.2163173885e+01    0.3695886    0.2393632  83.51  0.001146233    1.950    0.487
       188  -8.8332    249.3936    185.4930   5.3021995785e+01  -3.3315820838e+00    0.2329351    0.2047166 -39.45 0.0009540374    1.483    0.326
       189  -8.7792    202.8038    184.6227   6.1201754453e+01   5.2313446031e+00    0.2241018    0.1769175 -73.96 0.0008149424    1.990    0.498
       190  -8.7451    182.9782    184.5621   6.5009594041e+01   9.0276388850e+00    0.2333855    0.1898535 -63.33 0.0007813405    1.567    0.362
       191  -9.2425     66.8413    184.3605   8.8670876661e+01   2.8778464932e+01    0.3431579    0.1882448  65.96  0.000855297    1.892    0.472
       192  -8.4786    224.1200    183.5842   5.7063815249e+01   1.4050338377e+00    0.2060021     0.172258 -33.93 0.0005219653    1.340    0.254
       193  -8.9216    210.0699    183.7563   5.9673373095e+01   3.9919409011e+00    0.2620659    0.1811284 -34.74 0.0006130701    1.555    0.357
       194  -8.9225    174.2748    183.4135   6.6519971844e+01   1.0892085664e+01    0.2578525    0.2195249  87.25 0.0005739005    1.486    0.327
       195  -8.2163    197.1666    183.1809   6.2002183783e+01   6.5320427632e+00    0.1746067    0.1606036  77.35 0.0004887246    1.360    0.265
       196  -9.1317     44.4208    182.1735   9.2887903472e+01   3.1971650538e+01    0.3417388    0.1852775  77.69  0.001124632    1.880    0.468
       197  -8.1092      1.7568    183.5536   1.0095662677e+02   3.5877443624e+01     0.136692   0.07467475  55.26 0.0008753013    1.617    0.382
       198  -8.5805    241.8530    181.5414   5.3537535933e+01  -1.4987419338e+00    0.3494757    0.2439154 -83.25  0.001261373    5.540    0.819
       199  -7.9778    235.3816    181.2387   5.4603259306e+01  -3.0609989146e-01    0.1742946    0.1174538 -40.15 0.0007471048    1.696    0.410
       200  -9.0369    147.5706    180.4947   7.1429212005e+01   1.6489252381e+01    0.3071222    0.2224084  71.68    0.0010211    1.672    0.402
       201  -7.6731     90.3087    181.3587   8.3511651599e+01   2.6077051007e+01    0.1184678   0.09979401 -28.57 0.0007041555    1.734    0.423
       202  -9.4405     25.5054    178.5222   9.6224518714e+01   3.4716765282e+01    0.5395713    0.2005982  82.40  0.002128071    4.184    0.761
       203  -9.4725    191.6015    178.1440   6.2119566483e+01   8.4242709437e+00    0.3135254    0.2592361  81.50 0.0008520879    1.665    0.400
       204  -8.1011    169.4813    178.5124   6.6587991747e+01   1.2670961637e+01    0.2250084    0.1321627 -57.57 0.0007001197    2.228    0.551
       205  -8.4776    137.4267    179.0006   7.3286180660e+01   1.8646101583e+01    0.2547325    0.1749863  66.53  0.001293154    1.660    0.398
       206  -8.5742    250.6272    172.4776   5.0240853646e+01  -1.8051476909e+00    0.2218678    0.1746282 -17.83 0.0005092312    1.191    0.160
       207  -9.1978    248.9213    177.2879   5.1491553586e+01  -2.1597489847e+00    0.3041353    0.2683005 -73.62  0.001188986    1.837    0.456
       208  -8.5768    247.3129    173.6852   5.1043078850e+01  -1.3863304037e+00    0.1716747    0.1572274 -13.17 0.0004607351    1.209    0.173
       209  -8.5741    129.0264    176.9724   7.4716633527e+01   2.0558075456e+01    0.2777669    0.1772105 -84.29 0.0008913099    2.344    0.573
       210  -9.0955     36.1521    176.5584   9.3985916619e+01   3.4023446031e+01      0.46301    0.1847543  79.57  0.001797447    4.154    0.759
       211  -8.4946    231.1614    176.8137   5.4474196305e+01   1.0893787976e+00    0.2162763     0.170592 -37.82 0.0007311085    1.429    0.300
       212  -8.4851    217.7483    177.0892   5.6954663662e+01   3.5533184863e+00    0.1894978    0.1850196 -80.74 0.0007035899    1.325    0.246
       213  -8.6899    205.1944    177.2122   5.9324414050e+01   5.9362732913e+00    0.1733228    0.1636852 -83.17 0.0004931978    1.356    0.263
       214  -9.2090    183.0808    175.8392   6.3355975333e+01   1.0479682041e+01    0.3158585    0.2183396 -52.61 0.0008891707    1.730    0.422
       215  -8.7119     89.2444    176.6720   8.3105007892e+01   2.7193356985e+01     0.271944    0.1756835  71.37  0.000816806    1.664    0.399
       216  -9.2588     58.7122    175.4503   8.9326031556e+01   3.1645848585e+01    0.5032786    0.2086889  66.90  0.001931868    3.883    0.742
       217  -9.2013     55.9848    170.7393   8.9359597636e+01   3.2963633485e+01    0.4212362    0.2003662  76.93  0.001818765    3.061    0.673
       218  -8.9731     12.9646    176.3486   9.8432249688e+01   3.6328893879e+01     0.250254    0.1171707  85.55 0.0009500498    1.958    0.489
       219  -7.5736    211.6708    176.3058   5.7926931309e+01   4.8317085659e+00    0.1274854    0.1099157  82.66  0.000484848    1.655    0.396
       220  -9.2837    158.6848    174.6857   6.8097050058e+01   1.5454129621e+01    0.3800978    0.2661201 -86.60 0.0009732756    2.261    0.558
       221  -9.1136    104.2645    174.5501   7.9608209716e+01   2.5279303275e+01     0.489233    0.2508748  68.19  0.001940231    3.076    0.675
       222 -10.7039     75.8688    169.9669   8.5052727215e+01   3.0526100853e+01     1.122926    0.4212593 -75.13  0.003844622    4.375    0.771
       223  -9.5770     81.2804    155.3168   8.1782222394e+01   3.2884892678e+01    0.5215637    0.4694355 -34.93  0.002253124    1.408    0.290
       224  -8.1587    224.4542    174.0254   5.5119997282e+01   2.7470457369e+00    0.1934084    0.1279688 -34.55 0.0006813494    1.573    0.364
       225  -9.4205    175.7360    172.0885   6.4110982083e+01   1.2582344542e+01    0.3068515    0.2691801 -53.00 0.0008044794    1.280    0.219
       226  -8.5033    143.1384    172.2578   7.0918919607e+01   1.8882737834e+01    0.2507592     0.175054 -83.27 0.0006757525    2.025    0.506
       227  -8.4258    153.7722    171.7619   6.8585088566e+01   1.6948536598e+01    0.2438971    0.1973013  84.20 0.0003975597    1.499    0.333
       228  -8.4720    149.9583    169.4590   6.8965672928e+01   1.8121498570e+01    0.2954651    0.2140039  88.43 0.0009255804    1.951    0.488
       229  -8.5869    134.8295    171.3923   7.2537661818e+01   2.0599903654e+01    0.2217372    0.1827841 -76.71 0.0006812118    1.327    0.247
       230  -9.6641    121.5067    170.1898   7.5202831150e+01   2.3243674605e+01    0.3693421    0.2595903 -86.10 0.0009781274    1.771    0.435
       231  -9.2382     45.2010    171.0322   9.1624458026e+01   3.4170144695e+01    0.3217697    0.1733921  84.70   0.00124304    1.966    0.491
       232  -9.0033    230.1355    168.9270   5.3065104532e+01   2.4354354679e+00    0.4030112    0.1995402 -43.42  0.001786301    2.349    0.574
       233  -8.2937    205.7617    169.9447   5.7771893937e+01   6.9876273253e+00    0.2398777    0.1852642 -56.34  0.000775454    1.680    0.405
       234  -8.5846    198.7201    169.9279   5.9122201676e+01   8.3830837878e+00    0.2417255     0.191381 -57.80 0.0008884657    1.608    0.378
       235  -8.3581    244.4840    169.0448   5.0583732345e+01  -2.3378741835e-01    0.1904891    0.1216837 -30.09 0.0004995131    1.534    0.348
       236  -8.3539    237.1664    169.1901   5.1877572229e+01   1.0839180436e+00    0.2014911    0.1643022   7.23 0.0007482713    1.129    0.115
       237  -9.1798    167.1819    168.4463   6.5162073736e+01   1.4936860786e+01    0.3306699    0.2346497  67.81  0.001288706    1.785    0.440
       238  -7.9657     88.8268    168.7651   8.2088630610e+01   2.8898302477e+01    0.1851385    0.1353368  76.50 0.0008539797    1.383    0.277
       239  -8.5289    218.8751    168.1442   5.4946960145e+01   4.7081627797e+00     0.191645    0.1889354  60.95 0.0005485151    1.253    0.202
       240  -8.2093    211.4711    167.9729   5.6290360234e+01   6.1804396784e+00    0.2682299    0.1173031 -49.51  0.000979013    3.331    0.700
       241  -8.5785    212.8658    163.5774   5.5122098017e+01   6.6077320903e+00     0.237087    0.1890688 -29.06 0.0003995811    1.283    0.220
       242  -8.6324    111.5458    167.2398   7.6887502344e+01   2.5571058563e+01    0.2834924    0.1830756  74.30  0.001111566    1.965    0.491
       243  -8.8985    191.9074    166.4481   5.9754411771e+01   1.0330865591e+01    0.2766424    0.2002438 -43.05 0.0007407265    1.501    0.334
       244  -8.9433     20.9136    166.4119   9.6105103405e+01   3.7622106659e+01    0.2965222    0.1147174  56.94  0.001283865    2.667    0.625
       245  -8.2330    184.9490    166.1730   6.1085749892e+01   1.1781394859e+01    0.2055118    0.1889424  85.82 0.0005450105    1.297    0.229
       246  -9.7716    137.1773    164.4831   7.0798160016e+01   2.1531342198e+01    0.6501705    0.2974375  59.61  0.002272719    3.318    0.699
       247  -9.9530     95.1601    162.7858   7.9801113942e+01   2.9184653388e+01    0.7792721     0.394832  75.41  0.002600482    4.502    0.778
       248  -8.3459    233.9568    164.9522   5.1568215608e+01   2.3045515647e+00    0.1943163    0.1688606 -69.10 0.0007680043    1.675    0.403
       249  -9.4146     33.5007    163.1349   9.3236203808e+01   3.7079943768e+01    0.4867629    0.1971585  61.49   0.00223699    2.962    0.662
       250  -8.7096    159.4753    163.9200   6.5898414769e+01   1.7313683981e+01    0.2644771    0.2120427  75.05 0.0007972064    1.488    0.328
       251  -8.8620    246.1694    162.6073   4.8969317969e+01   3.7373645267e-01    0.2301321    0.1738795 -24.10 0.0005859443    1.261    0.207
       252  -8.2017    239.8682    163.6146   5.0257747893e+01   1.3925180556e+00    0.1777668    0.1246774  53.95 0.0006768294    1.712    0.416
       253  -8.5675    204.9391    162.5124   5.6405403600e+01   8.3667031722e+00    0.2453839     0.191429 -50.71 0.0005444183    1.522    0.343
       254  -9.3720      3.4318    162.2634   9.9224668883e+01   3.9964302490e+01    0.3520805    0.1474196  63.57  0.001927436    2.418    0.586
       255  -8.8729    151.7659    160.8248   6.6943202543e+01   1.9436538152e+01    0.3344072    0.2424581 -88.85  0.001002758    1.983    0.496
       256  -9.3326    177.4779    160.4162   6.1436584631e+01   1.4327146561e+01    0.2930997    0.2471096 -73.29 0.0008788874    1.478    0.323
       257  -8.6201     61.1961    160.1801   8.6966808654e+01   3.4556244986e+01    0.3121653    0.1630239  76.03  0.001224807    2.602    0.616
       258  -8.2901    245.4590    158.4814   4.8225380615e+01   1.0988439813e+00    0.1936254    0.1814956  29.74 0.0006654679    1.217    0.179
       259  -9.7352    250.2187    157.5589   4.7231746548e+01   3.5366028095e-01    0.3363672    0.1934267 -35.90 0.0008758235    1.720    0.419
       260  -8.3574    246.7236    155.6281   4.7408278557e+01   1.2779114415e+00    0.2288328    0.1513953  -5.76 0.0004256119    1.696    0.410
       261  -8.2552    236.9728    158.9155   4.9775221394e+01   2.6309634481e+00    0.1969635    0.1687201 -65.56 0.0005069206    1.665    0.399
       262  -8.4393    227.2950    158.6436   5.1431489253e+01   4.5397937453e+00    0.2369773    0.1612722 -45.87 0.0009376186    1.716    0.417
       263  -8.1868    128.1544    158.5294   7.1694310592e+01   2.4421322301e+01    0.2290211    0.1834583 -86.88 0.0007755117    1.407    0.289
       264  -9.6781    105.6116    157.5636   7.6602234016e+01   2.8598237424e+01    0.4737603    0.3005047  82.29  0.001296587    2.212    0.548
       265  -8.7160    196.6150    157.7435   5.7023738564e+01   1.0866533379e+01     0.258589    0.2116517 -74.81  0.001029886    1.689    0.408
       266  -8.2742    188.3438    157.5764   5.8635304497e+01   1.2601242621e+01    0.2207235    0.1787804 -49.76 0.0006416483    1.380    0.275
       267  -9.0594    167.6245    157.1093   6.2812782920e+01   1.6956721807e+01    0.3253074      0.24495 -85.18  0.001225744    1.922    0.480
       268  -8.6616    218.0060    156.4366   5.2656737638e+01   6.7278582420e+00    0.2644377     0.186301 -49.97 0.0008981161    1.729    0.422
       269  -8.9425    157.5194    155.4330   6.4628553278e+01   1.9335068151e+01     0.340722    0.2344859 -52.90  0.001311252    1.582    0.368
       270  -9.3083    119.5769    154.8714   7.2954385111e+01   2.6744296014e+01     0.400052    0.2615368 -89.20   0.00121308    2.242    0.554
       271  -9.2870     49.8732    155.2199   8.8843575418e+01   3.6989895222e+01    0.3682812    0.1874992  67.22  0.001735335    2.387    0.581
       272  -9.2576    241.5140    153.8056   4.7903604319e+01   2.5275781116e+00    0.3577456     0.275101  73.46  0.001859388    2.048    0.512
       273  -8.9099    243.2104    149.7684   4.6745837213e+01   2.8052016091e+00    0.2420229    0.1697806 -38.60   0.00128752    1.478    0.323
       274  -7.9286    204.7185    155.3206   5.4928737074e+01   9.6122866872e+00    0.1340901    0.1148657 -79.34 0.0003684281    1.586    0.370
       275  -8.5635    144.5801    154.4681   6.7263224815e+01   2.2109892022e+01    0.2750767    0.2101341 -87.37   0.00069846    1.685    0.407
       276  -9.1644     68.1186    153.5184   8.4518691954e+01   3.5101704973e+01    0.4158954    0.2196643  70.97  0.001465163    2.642    0.621
       277  -9.7595    132.7112    152.6555   6.9559749330e+01   2.4776057010e+01    0.4389532    0.3245641  79.31  0.001241088    1.691    0.409
       278  -9.2678    133.3335    148.3415   6.8569022775e+01   2.5548694637e+01    0.3158127    0.2498397 -33.20  0.001458479    1.464    0.317
       279  -8.7160    151.8871    152.0111   6.5157295858e+01   2.1144106455e+01    0.3374255    0.1933296 -44.09  0.001100965    1.837    0.456
       280 -10.3353    149.0080    144.8938   6.4313716976e+01   2.3149899182e+01    0.5801007    0.3873489 -86.85  0.001653509    2.588    0.614
       281  -9.6234     29.1370    150.2185   9.2836049517e+01   4.0249613895e+01    0.4672061    0.2087832  80.00  0.002071499    3.084    0.676
       282  -9.0662     20.0727    152.0985   9.4980190414e+01   4.0683891400e+01    0.1903593    0.1070102  72.84  0.001123519    1.763    0.433
       283  -8.4674      9.0216    153.0000   9.7375969391e+01   4.1424550672e+01    0.1492633   0.06135775  29.60 0.0008040671    2.954    0.661
       284  -8.8629    189.5523    150.0530   5.6783295456e+01   1.3687596872e+01    0.2961922    0.2328764 -68.76 0.0008259049    1.698    0.411
       285  -8.1092    182.4099    151.1182   5.8468897954e+01   1.4998520499e+01    0.1984702    0.1359775 -55.04 0.0007738756    1.749    0.428
       286  -8.3044    162.8591    150.6918   6.2495831003e+01   1.9161394677e+01    0.2709883    0.1932845 -78.31   0.00121092    2.096    0.523
       287  -8.7206     98.3365    150.6327   7.7089152665e+01   3.1281882346e+01    0.2831124    0.1996864  81.23 0.0008396024    1.669    0.401
       288  -8.8654      2.9847    149.0009   9.8292495748e+01   4.2719770276e+01    0.4239212    0.1025499 -74.70  0.001821463    3.201    0.688
       289  -9.4506    248.8946    149.1038   4.5649212618e+01   1.8239646475e+00    0.3125198    0.1816717 -30.40 0.0008131082    1.629    0.386
       290  -8.2295    213.0815    149.6255   5.2100895574e+01   8.8409994678e+00    0.2270073    0.1910211 -43.07 0.0004994393    1.299    0.230
       291  -8.4539    198.8111    148.4278   5.4582711596e+01   1.2022659884e+01    0.2294446    0.1909467 -46.62 0.0004707985    1.316    0.240
       292  -9.9764     89.2918    145.9512   7.8410925841e+01   3.3729594994e+01    0.6817073    0.3632258 -86.08  0.002521461    3.504    0.715
       293 -10.3414     55.4846    145.0155   8.6237636930e+01   3.8553640117e+01    0.7544327    0.3510892  70.52  0.002866079    3.869    0.742
       294  -9.2337     57.3204    134.9990   8.4340622321e+01   4.0547120200e+01    0.1938393    0.1821926  18.47  0.001291683    1.349    0.259
       295  -9.6469     39.8414    147.6703   9.0170906103e+01   3.9726395551e+01    0.4751412    0.2264691  68.17  0.001876045    2.774    0.640
       296  -9.0887    233.4999    147.5366   4.7933259928e+01   5.0379902245e+00    0.2684683      0.13072 -33.97 0.0006520992    2.006    0.501
       297  -8.3791    223.2731    146.5177   4.9532991082e+01   7.2567603388e+00    0.2512134    0.1824526 -31.49  0.000667163    1.361    0.265
       298 -10.1715    106.6426    144.3902   7.4017008504e+01   3.1250782925e+01    0.6618177    0.3832926  76.63  0.002317012    3.135    0.681
       299  -7.9742    105.3119    138.3711   7.3189790197e+01   3.2786878565e+01    0.2650338    0.1938759   7.01  0.001250836    2.193    0.544
       300  -8.7096     78.1671    147.0982   8.1227300387e+01   3.5125457651e+01     0.237905    0.1767076  65.57  0.001030211    1.371    0.271
       301  -7.9714    206.8238    146.5734   5.2616493979e+01   1.0656110387e+01    0.1986364    0.1367895  58.69 0.0009069923    1.698    0.411
       302  -8.3516    175.8116    146.1143   5.8754048255e+01   1.7318572991e+01    0.2236439    0.1978745 -86.29 0.0007131809    1.349    0.259
       303  -9.6137    139.1412    144.8995   6.6544249961e+01   2.5127955466e+01    0.3484768    0.2500669 -82.46  0.001156074    1.915    0.478
       304  -9.1630     12.7596    145.5452   9.5925696720e+01   4.2686580178e+01    0.2945312    0.1528274  78.18  0.001675793    1.956    0.489
       305 -10.1106    240.2118    144.1306   4.6025167040e+01   4.2375271547e+00    0.4122362    0.3421434 -35.51  0.001667021    1.247    0.198
       306  -8.7669    165.7190    143.9162   6.0424112049e+01   1.9874708825e+01    0.3076099     0.226106  69.12 0.0009492065    1.693    0.409
       307  -9.6945    124.9462    142.3438   6.9301428440e+01   2.8400860720e+01    0.4954044    0.3298774 -87.67  0.001512084    2.288    0.563
       308 -10.8530     69.2340    139.2524   8.2108622233e+01   3.8090106114e+01    0.8443651     0.371554 -63.32  0.003068581    2.100    0.524
       309  -7.7796    194.3116    143.6819   5.4421345911e+01   1.3813772132e+01    0.1432508    0.1183864 -84.03 0.0005075438    1.643    0.391
       310  -9.1547      2.6848    141.4925   9.7727625920e+01   4.4305858321e+01    0.3423738    0.1432262  75.31   0.00167237    2.858    0.650
       311  -9.1906    247.1720    143.5852   4.4735378196e+01   2.9677970115e+00    0.2407078     0.174676 -28.13 0.0005833516    1.295    0.228
       312  -8.4456    182.1018    141.5767   5.6433753214e+01   1.6819821004e+01    0.2491108    0.1988711 -51.80 0.0006208119    1.377    0.274
       313  -8.0679    250.4893    140.5317   4.3519845373e+01   2.7854906055e+00    0.1362768    0.1208231  -5.07 0.0001014725    1.004    0.004
       314  -8.3493    134.0000    139.9659   6.6696711246e+01   2.7163214978e+01    0.2367005   0.08223371 -48.41 0.0007998769    2.925    0.658
       315  -9.8160     23.5188    137.8843   9.2748212201e+01   4.3418034213e+01    0.4814929    0.2178013  73.11  0.002038901    3.103    0.678
       316  -8.6386    172.4870    138.2597   5.7708902375e+01   1.9518482759e+01    0.3031062     0.227379 -76.31 0.0009516732    1.878    0.467
       317  -7.5695    218.6980    138.3257   4.8532129770e+01   9.5426313433e+00    0.1391181    0.1153607 -71.60 0.0007030771    1.639    0.390
       318  -8.3410    207.7964    137.7819   5.0449496447e+01   1.1952819502e+01    0.2650525    0.1858702 -61.58 0.0007766042    1.999    0.500
       319  -8.5409    197.4301    137.1890   5.2328459266e+01   1.4296100756e+01    0.2563431    0.2107498 -68.98 0.0006472185    1.559    0.358
       320  -8.2091     89.1784    137.6458   7.6978533548e+01   3.5575320998e+01    0.2694414    0.1772396   7.32  0.001147863    3.005    0.667
       321  -9.0621    151.3989    135.8613   6.1808607303e+01   2.4481055855e+01    0.4737629    0.2382803  34.06    0.0017874    2.435    0.589
       322  -8.8864    140.0395    136.7760   6.4611558755e+01   2.6626662630e+01    0.2404162      0.17188  16.84  0.001077069    1.969    0.492
       323 -10.4421     83.4529    133.2539   7.7592032280e+01   3.7418056605e+01    0.5692278    0.3422293 -64.28  0.001507727    1.605    0.377
       324  -8.9511    248.5090    134.8921   4.2593156292e+01   4.0119570937e+00    0.2732397    0.2044971 -35.26 0.0009537537    1.301    0.232
       325  -8.6775    250.8035    129.8988   4.1104383580e+01   4.3139320389e+00    0.4183584    0.1162486 -30.47  0.001316141    3.814    0.738
       326  -7.6252    192.6578    136.3234   5.3080941850e+01   1.5490399937e+01      0.14921    0.1198275 -84.58  0.000564319    1.729    0.422
       327  -8.2992    162.5205    136.1442   5.9390283246e+01   2.2071561238e+01    0.2360429    0.2028443  78.65 0.0006451922    1.344    0.256
       328  -8.6883     39.2816    136.0678   8.8845023882e+01   4.2317894432e+01    0.2114337    0.1568048  61.58 0.0006288119    1.385    0.278
       329  -8.1579    187.5568    135.0768   5.3827064832e+01   1.6833097309e+01    0.2253363    0.1452821 -40.06 0.0006617476    1.583    0.368
       330  -8.1021    231.6573    133.9618   4.5220344575e+01   7.5476340361e+00     0.200616    0.1730544 -24.86 0.0005809347    1.113    0.101
       331  -8.8547    179.3345    133.6539   5.5200767916e+01   1.8901552303e+01    0.3031742    0.2378492 -76.40 0.0008669817    1.717    0.418
       332  -7.6704    237.5274    133.4917   4.4104282988e+01   6.4186337287e+00    0.1387992    0.1294674 -14.01 0.0008090804    1.068    0.063
       333 -10.0941    132.3263    131.2795   6.5213971466e+01   2.9316559993e+01    0.4821885     0.320466 -73.95  0.001174478    2.111    0.526
       334  -8.9005    112.5626    132.8730   7.0324532778e+01   3.2712258817e+01    0.2714171    0.2096035  76.50 0.0007967808    1.509    0.337
       335  -9.2882    143.1610    131.4246   6.2699443380e+01   2.7096916422e+01    0.3144728    0.2509378 -65.97 0.0007818391    1.398    0.285
       336 -10.1071     97.8841    129.5466   7.3278084383e+01   3.5973632654e+01    0.6162812    0.2238627 -51.79  0.002324435    2.596    0.615
       337 -10.1495     12.6339    128.4686   9.4233288105e+01   4.6338837303e+01    0.4964242    0.2242612 -89.57  0.002165442    2.383    0.580
       338  -8.4081    246.9805    129.9894   4.1740625837e+01   5.0564286525e+00    0.2122613    0.1851902 -24.86  0.000646681    1.088    0.081
       339  -8.0784    204.6668    130.2929   4.9312206217e+01   1.3929464998e+01    0.2223112    0.1749878 -75.39 0.0008017825    1.782    0.439
       340  -8.0427    192.9863    130.0295   5.1546136698e+01   1.6555861197e+01    0.2249147    0.1828504 -74.12 0.0005079903    1.608    0.378
       341  -9.2622    168.4299    129.4078   5.6538931437e+01   2.2108153252e+01    0.3020009     0.255392 -89.71 0.0007070244    1.449    0.310
       342  -9.5326    152.9916    128.7971   5.9834520432e+01   2.5572498137e+01    0.4544687    0.2462678 -55.65 0.0009550669    2.220    0.550
       343  -9.8770     73.1576    128.9354   7.9396671006e+01   3.9856407060e+01    0.4198613    0.2609181  81.69  0.001254161    2.242    0.554
       344  -8.6352     25.5170    129.6550   9.1316030006e+01   4.5029574811e+01    0.2051564    0.1295136 -29.28  0.001147912    2.478    0.596
       345  -8.4946      1.7770    130.1639   9.6906275816e+01   4.6753148840e+01    0.1906519   0.08270275  67.91 0.0009465673    2.833    0.647
       346  -7.6898    220.5101    129.5687   4.6185386964e+01   1.0609995634e+01    0.1441951    0.1347113   4.78 6.620651e-05    1.012    0.011
       347  -8.0184    211.5004    128.9662   4.7702847410e+01   1.2661875161e+01    0.2050098    0.1215912 -57.05 0.0008084456    2.450    0.592
       348  -9.7219    163.5688    127.0170   5.7040634270e+01   2.3641067194e+01    0.4743426    0.2551576 -27.67  0.001769065    2.542    0.607
       349 -10.4179     60.1345    124.9682   8.2021879949e+01   4.2441132175e+01    0.6780966    0.3779278  80.72  0.002590822    2.905    0.656
       350 -10.7146     45.1702    123.4216   8.5594070337e+01   4.4501779225e+01     1.008844    0.4928768  80.63   0.00377506    4.114    0.757
       351  -9.9913    117.8298    124.8400   6.7304389182e+01   3.3485673850e+01      0.54513    0.3781045  89.15 0.0009255824    2.127    0.530
       352  -8.8938    179.2788    124.4905   5.3040781227e+01   2.0640834686e+01    0.2924631     0.246232 -73.14 0.0007135872    1.443    0.307
       353 -10.3364     28.5119    122.0631   8.9604958744e+01   4.6427457609e+01    0.6782279     0.317946  79.10  0.002810579    3.588    0.721
       354  -9.1891     85.4242    122.4297   7.5025396803e+01   3.9530917731e+01    0.4296728    0.2776643   3.72  0.001784099    3.147    0.682
       355  -7.7072    188.4704    123.5536   5.0910077912e+01   1.8746902758e+01    0.1487434    0.1451084  20.23  0.000161849    1.019    0.018
       356  -8.1848    195.1451    121.9849   4.9187071403e+01   1.7525536010e+01    0.2461905    0.1666471 -61.19 0.0005726883    1.996    0.499
       357  -8.8314    171.9586    121.3799   5.3845817355e+01   2.2876728846e+01    0.2753795    0.2071538 -56.31 0.0005094364    1.500    0.333
       358  -9.3216    158.5629    121.2059   5.6762944835e+01   2.5888735126e+01    0.3213834     0.241789 -72.61 0.0009033699    1.743    0.426
       359 -10.1016    131.1957    118.6444   6.2583441320e+01   3.2206001558e+01    0.5436489    0.3663782 -88.68  0.001897489    2.515    0.602
       360  -8.7671    103.1908    118.6147   6.9623747113e+01   3.7481858352e+01     0.287768    0.1347949  33.23  0.001115031    2.632    0.620
       361 -10.0175    141.5134    117.6843   5.9861133582e+01   3.0276912926e+01    0.6117955    0.3044568 -53.51   0.00186973    2.286    0.563
       362  -9.5847     70.9423    119.3365   7.8202765872e+01   4.2305123532e+01    0.3240202    0.2130685 -81.56 0.0009929028    1.776    0.437
       363  -9.1403     16.2035    118.9752   9.2274234199e+01   4.8119017036e+01    0.2732785    0.1349508 -21.13  0.001092754    5.371    0.814
       364  -9.7374      2.7812    116.9247   9.5335297237e+01   4.9501593979e+01    0.4711572    0.1973373  83.64  0.002142997    3.182    0.686
       365  -7.7376    231.6150    117.2978   4.1350032362e+01   1.0231278316e+01    0.1445534    0.1135306 -74.40 0.0007017758    1.775    0.437
       366  -8.1288    185.7792    115.7856   4.9549808068e+01   2.0789589719e+01    0.2047728    0.1795018 -75.32 0.0004843714    1.344    0.256
       367 -10.0025    109.2880    113.9574   6.6989689083e+01   3.7415912930e+01    0.4802317    0.3172447 -76.64  0.001418432    2.154    0.536
       368  -8.7734     59.3105    115.1986   8.0514990484e+01   4.4726162794e+01    0.2803902    0.1878567 -15.61  0.001379694    2.483    0.597
       369  -8.2673    250.2128    114.7994   3.7753181684e+01   6.7211322705e+00     0.191409    0.1549896  11.49  0.001053113    1.326    0.246
       370  -8.3046    192.9428    115.1321   4.7938697572e+01   1.9263653000e+01    0.2297936    0.2030095 -68.13 0.0006070379    1.303    0.233
       371 -10.2879     92.9028    111.0981   7.0646301775e+01   4.0863348265e+01    0.9197871    0.3434903 -52.41  0.002641853    2.500    0.600
       372  -8.2038    167.4082    114.2445   5.3065579906e+01   2.5280190848e+01    0.2085056    0.1439376 -50.07 0.0004540952    1.543    0.352
       373  -9.9152     78.9413    112.1893   7.4639343604e+01   4.2775648621e+01    0.5192167    0.3328968 -82.94  0.001728577    2.142    0.533
       374  -8.5313     78.7856    104.7860   7.3078390996e+01   4.4437373082e+01    0.3343844     0.225106 -10.35  0.001525949    2.500    0.600
       375  -9.8827    128.6711    102.0428   5.9062059528e+01   3.6185947052e+01    0.3577656    0.2848423 -85.78 0.0008773869    1.626    0.385
       376  -9.9552    133.4491    108.3512   5.9495524021e+01   3.3894234550e+01    0.5976173    0.2821375 -48.30   0.00158344    2.148    0.534
       377 -10.2008    121.8738    112.0606   6.3314821448e+01   3.5451024790e+01    0.3969777    0.2756973 -50.08  0.001376566    1.417    0.294
       378  -8.4382    174.8595    111.7361   5.0814914887e+01   2.4057717102e+01    0.2766309    0.1935486 -65.21 0.0007139428    1.917    0.478
       379  -8.7430    159.4055    111.7525   5.4218928214e+01   2.7572740482e+01    0.2778513    0.2332743 -81.22 0.0008174365    1.447    0.309
       380  -9.8298     14.4308    111.0482   9.1718778401e+01   4.9971626906e+01    0.3677745    0.1973739  74.54  0.001893847    2.354    0.575
       381 -10.7826    248.7378    104.0140   3.5462551514e+01   8.6726746163e+00      0.69046    0.3213298 -25.06   0.00276289    2.355    0.575
       382  -9.0631     67.0199    105.3207   7.6470662991e+01   4.5951817093e+01     0.370674    0.1967043  10.19  0.001297341    4.720    0.788
       383  -8.6921     42.8608    109.3043   8.3904044662e+01   4.7880815395e+01    0.2651712    0.1218785  15.24  0.001077773    4.089    0.755
       384  -8.1653    189.4379    107.9518   4.6826943000e+01   2.1374814428e+01     0.229733    0.1468889 -39.32 0.0005830361    1.559    0.358
       385 -10.8080    109.3938     98.7619   6.3227465635e+01   4.0652868590e+01    0.9054185    0.4977646  66.29  0.002351173    3.638    0.725
       386  -9.0410    107.7829     92.2253   6.1938943490e+01   4.2322318719e+01    0.6054994     0.292606  28.48  0.002148645    3.187    0.686
       387  -8.8858    110.0022    106.9744   6.5133578400e+01   3.8791655748e+01    0.3252744    0.1934435  25.63   0.00134904    2.337    0.572
       388 -10.5813     45.8247    102.2930   8.1823319185e+01   4.9126349707e+01      0.71777    0.3958438  74.31  0.003046958    3.347    0.701
       389 -10.7052     22.9269    102.3397   8.8218198143e+01   5.1222131291e+01    0.7150847    0.3743169  81.37  0.002467137    2.857    0.650
       390  -9.2229     22.9249     89.8153   8.6155477219e+01   5.3942271385e+01    0.3135596    0.2103363 -38.94  0.001393634    1.543    0.352
       391  -9.7236    139.8633    103.4629   5.6660006342e+01   3.3537792960e+01    0.5444251    0.3036296 -43.12   0.00121321    1.780    0.438
       392  -8.6507    166.8131    104.0883   5.0580238673e+01   2.7369151837e+01    0.2309609    0.2094365 -74.09 0.0004852141    1.228    0.186
       393 -10.0496    150.4899    101.6857   5.3651605786e+01   3.1557569574e+01     0.827861    0.2988792 -42.41  0.002380922    2.756    0.637
       394  -7.9639    175.8143    102.0196   4.8092807815e+01   2.5658653962e+01    0.2488212    0.1702269 -62.85 0.0005737651    1.926    0.481
       395  -8.5787    159.9745    100.6107   5.1181985885e+01   2.9613342439e+01    0.2890385    0.2064111 -55.59 0.0004920002    1.581    0.368
       396  -9.3160     82.1259     99.8963   7.1023336502e+01   4.5012994422e+01    0.3572902    0.2247151 -70.37 0.0008290308    1.951    0.487
       397  -9.2067     95.1415     97.0113   6.6673813107e+01   4.3554183444e+01    0.3027926    0.2297979 -65.72 0.0006348446    1.433    0.302
       398 -10.0696     63.9564     95.6214   7.5244814599e+01   4.8485673978e+01    0.5115529    0.3195853 -87.27  0.001633122    2.580    0.612
       399  -9.8134     66.4062    110.3071   7.7659631114e+01   4.4923884752e+01    0.3451857    0.2611896  89.49  0.001084295    1.511    0.338
       400  -8.7183    120.0812     93.4063   5.8967180223e+01   3.9704083036e+01    0.2999407    0.2606792  -7.72  0.001328986    1.283    0.220
       401  -9.8582    124.6935     90.7232   5.7025859037e+01   3.9312267062e+01    0.4223249    0.3210444 -68.25 0.0009536403    1.640    0.390
       402  -8.3050    164.9235     93.9741   4.8280783522e+01   2.9721128583e+01    0.2379223    0.1874857 -74.20 0.0004858688    1.620    0.383
       403  -8.1660    188.4234     93.2530   4.3180838787e+01   2.4245435040e+01    0.2198942    0.1394913 -46.77 0.0009423152    1.655    0.396
       404  -8.2284    176.4996     93.0027   4.5532792620e+01   2.7151837453e+01    0.2338367    0.1499166 -39.14 0.0007076485    1.555    0.357
       405  -9.5309     46.2256     92.4368   7.9766837324e+01   5.1249478114e+01    0.4560823     0.225169  14.31  0.001992577    3.422    0.708
       406  -8.1878    157.8142     91.5725   4.9207757445e+01   3.1835580766e+01     0.247694    0.1796355 -44.44 0.0004195775    1.398    0.285
       407  -9.8431     34.9294     89.8375   8.2601814079e+01   5.2925500734e+01    0.4094189    0.2420029 -87.23  0.001460313    2.314    0.568
       408  -9.7924      5.0396     91.5267   9.1585547128e+01   5.4791770872e+01    0.2712601     0.172501  82.46  0.001167136    1.748    0.428
       409  -9.0851      6.7210    102.5767   9.2632812334e+01   5.2324886204e+01    0.2701797    0.1483363  84.50  0.001078214    2.048    0.512
       410  -9.3218    139.2461     91.7995   5.3655267661e+01   3.5999337284e+01    0.5008179     0.285006 -50.70  0.001558033    1.916    0.478
       411 -10.1754     86.5194     85.5966   6.6167085740e+01   4.7392143512e+01    0.6543813    0.3663781 -55.74  0.001630363    1.827    0.453
       412  -8.9398     66.1110     86.9433   7.2577686342e+01   5.0085818792e+01    0.3125856    0.1825767  10.63  0.001365906    2.897    0.655
       413  -9.8168     48.4666     83.7355   7.7201301961e+01   5.2893090179e+01     0.536516    0.3412439 -81.32   0.00241861    2.150    0.535
       414  -7.5495    179.3102     85.6170   4.2926376994e+01   2.7793399198e+01    0.1632292    0.1191841 -68.94 0.0007022023    1.804    0.446
       415 -10.0045    104.7402     82.9439   6.0211905127e+01   4.4791132706e+01     0.436843    0.3059006 -67.20 0.0009896861    1.891    0.471
       416  -8.3590    157.8463     84.0498   4.7080565488e+01   3.3226954229e+01    0.2304812    0.2071797 -62.39 0.0005242667    1.210    0.174
       417  -9.3058    140.8754     82.2570   5.0537971995e+01   3.7474601419e+01    0.4073017    0.2072517 -42.79 0.0009279751    1.964    0.491
       418  -8.8013    249.5604     81.5693   3.0008287051e+01   1.1882591183e+01    0.2913848    0.1756962 -78.39  0.001163531    2.970    0.663
       419  -7.4429    185.6342     82.2997   4.0748458398e+01   2.6826789314e+01    0.1588142    0.1204476 -76.99 0.0001777679    1.729    0.422
       420  -8.0468     64.0235     82.3790   7.2080853833e+01   5.1331699347e+01    0.1719232    0.1649794 -53.94 0.0006004953    1.108    0.097
       421  -9.9038     24.7682     79.8409   8.3737117663e+01   5.5936816195e+01    0.5582795    0.2661179 -73.36  0.002334494    2.304    0.566
       422  -9.4266     10.0039     80.7675   8.8455167546e+01   5.6776653340e+01     0.302367    0.1771267  73.68  0.001672933    2.458    0.593
       423  -8.2542    150.3004     80.3940   4.7751797964e+01   3.5665165510e+01    0.2608095    0.1774982 -55.39 0.0009124062    1.725    0.420
       424  -8.6416    119.3510     80.0020   5.5364149863e+01   4.2530728357e+01    0.3037805    0.2145862 -58.90 0.0007943162    1.682    0.405
       425  -8.8704     74.5164     79.9379   6.8232844508e+01   5.0405066083e+01    0.3471244    0.2187895 -67.44  0.001293549    2.045    0.511
       426  -8.1413    166.9237     79.4880   4.3779673310e+01   3.1877776489e+01    0.2340222    0.1988908 -35.70 0.0005185814    1.181    0.153
       427  -8.1167    184.2327     78.0032   3.9826292318e+01   2.7901449013e+01    0.2026506    0.1268298 -34.03 0.0005508431    1.602    0.376
       428  -7.9901    157.1467     76.1852   4.4956989942e+01   3.4810903999e+01    0.2079001    0.1793003 -67.17 0.0004237964    1.326    0.246
       429  -9.4576    128.0229     74.8676   5.1559205524e+01   4.1691675669e+01    0.3971609    0.2466211 -52.78 0.0007631512    1.860    0.462
       430  -8.6834    140.6296     75.1423   4.8493278013e+01   3.8849761518e+01    0.2345519    0.1814364 -50.95 0.0005721411    1.391    0.281
       431  -9.7916     82.4175     72.1982   6.3642315155e+01   5.0789651714e+01    0.4491098    0.2883073 -64.25   0.00103847    2.070    0.517
       432 -10.0174     63.0807     73.3131   7.0005871577e+01   5.3348468827e+01    0.4472344    0.2719986 -65.29  0.001336322    1.996    0.499
       433  -7.9431    163.5027     73.0737   4.2648638351e+01   3.3824606936e+01    0.2320297    0.1486476 -37.95 0.0009350288    1.563    0.360
       434  -7.5875    151.6372     73.2935   4.5345207769e+01   3.6629914686e+01    0.1551797    0.1215731 -81.48 0.0007029648    1.706    0.414
       435  -8.6076    115.7316     72.7225   5.4154873653e+01   4.4663244001e+01    0.2836149    0.1887337 -48.22 0.0006704894    1.557    0.358
       436  -7.8444    175.4987     72.4588   3.9977066803e+01   3.0989131085e+01    0.1506072    0.1486014  36.04 0.0001815346    1.004    0.004
       437  -8.8441    105.9893     71.5579   5.6498157080e+01   4.6799573947e+01    0.2698889    0.1942219 -57.16 0.0007826074    1.615    0.381
       438  -9.3589     95.2201     70.9487   5.9421755585e+01   4.8894283175e+01    0.3747612    0.2281709 -55.86  0.001038378    1.918    0.479
       439  -7.8679     42.5368     72.5298   7.6436898055e+01   5.5885704070e+01    0.1237993    0.1050108 -53.58 0.0002833322    1.070    0.065
       440  -9.4614     51.4650     69.4296   7.2720043766e+01   5.5564818068e+01    0.4276548    0.2355369 -69.29  0.001692645    2.577    0.612
       441  -9.0724     29.7233     69.7755   7.9995056170e+01   5.7650819494e+01    0.3720941    0.1877853 -19.34   0.00166887    3.365    0.703
       442  -9.1236     16.7454     69.9564   8.4309517448e+01   5.8606706823e+01    0.2603925    0.1555201 -77.12 0.0008714041    1.814    0.449
       443  -9.3236    138.3934     66.9407   4.6528983786e+01   4.0823994944e+01    0.3976141    0.2553314 -32.73  0.001627415    1.574    0.365
       444  -9.0350    121.8198     65.5830   5.0299597868e+01   4.4717089705e+01    0.3220232    0.2039506 -46.81 0.0005479202    1.669    0.401
       445  -7.7325    211.7199     64.9857   3.1404744770e+01   2.3191350568e+01    0.1816363    0.1282207 -32.05 0.0003709313    1.403    0.287
       446  -9.1463     37.2601     64.1014   7.6079847610e+01   5.8140718275e+01    0.2566617    0.1772044 -89.92  0.001385142    2.321    0.569
       447  -8.9228    110.2100     63.5207   5.2790245126e+01   4.7475362611e+01    0.2823987     0.227939 -70.72 0.0007838914    1.657    0.396
       448  -8.3876     95.3188     64.3300   5.7338862349e+01   5.0141495534e+01    0.1451185    0.1057304  -5.52 0.0002451041    1.687    0.407
       449  -8.5993     64.4094     63.2538   6.6712079752e+01   5.5198628534e+01    0.3988796    0.2195417  -5.86  0.001409337    4.435    0.775
       450  -8.9301    147.0625     68.1262   4.4835874191e+01   3.8610485103e+01    0.3464065    0.2448955 -43.26  0.000646812    1.453    0.312
       451  -7.9119    158.0427     61.7314   4.0416386117e+01   3.7054603345e+01    0.1864155     0.130851  55.53  0.000333495    1.418    0.295
       452  -9.2372     97.6236     60.3318   5.5370274342e+01   5.0462778148e+01    0.2749359    0.2656103 -89.46 0.0009585766    1.246    0.198
       453  -9.6712     73.4276     59.2617   6.2534729623e+01   5.4691738051e+01     0.382764    0.2377816 -55.41  0.001110863    1.821    0.451
       454  -7.9528    147.0074     58.9671   4.1999813295e+01   4.0163289796e+01     0.232974    0.1809518 -67.10 0.0005517177    1.640    0.390
       455  -8.1594     89.2059     59.2483   5.7549705369e+01   5.2158469641e+01    0.1824384    0.1591152 -60.21 0.0006179352    1.362    0.266
       456  -8.1889     38.3586     59.2847   7.4423916759e+01   5.9005358317e+01    0.1262797   0.07975162 -27.14 0.0007020274    1.676    0.403
       457  -8.1687    130.9279     57.7351   4.5437777971e+01   4.4086665072e+01    0.2238903    0.1719893  87.08 0.0006596379    1.868    0.465
       458  -9.7861     23.4217     56.0866   7.8853687143e+01   6.0950932999e+01    0.4083132    0.2501632 -87.35  0.001807739    2.985    0.665
       459  -9.5025      7.4525     56.6480   8.4648664112e+01   6.1913738366e+01    0.2854261    0.1714135 -78.13  0.001490196    1.898    0.473
       460  -8.9726    119.3257     55.7943   4.7781455023e+01   4.6948958860e+01    0.2967632    0.2260749 -59.38 0.0006329271    1.662    0.398
       461  -8.5778    108.0467     57.0333   5.1275440303e+01   4.9057814689e+01    0.2146367    0.1955255 -12.51  0.000487616    1.031    0.030
       462  -8.6941    105.9047     53.1249   5.0567038207e+01   5.0154052668e+01    0.2992923    0.1912898 -50.33 0.0008135615    1.832    0.454
       463  -7.8518    193.5177     56.4768   3.2050569941e+01   2.9005727211e+01    0.1464727    0.1439687  83.63 6.369685e-05    1.004    0.004
       464  -8.5640    140.0159     55.7852   4.2603546088e+01   4.2326134964e+01    0.2661081    0.1798899 -46.27 0.0006411463    1.608    0.378
       465  -9.0118     44.1408     55.0362   7.1187846015e+01   5.9251778008e+01    0.3070062    0.1512948 -54.41  0.001221588    1.874    0.466
       466  -9.3883     62.6139     53.2010   6.4191877138e+01   5.7369076990e+01    0.6237069    0.1938577 -50.40  0.001966642    3.353    0.702
       467  -9.0134     54.0109     53.2321   6.7170485899e+01   5.8469103696e+01    0.3736669    0.1741341 -58.57  0.001369312    2.813    0.645
       468  -8.2613    250.0307     54.4646   2.3451187449e+01   1.5656030026e+01    0.1895352    0.1025346  39.96 0.0008088057    2.477    0.596
       469  -9.3969     92.4600     50.2898   5.3546204291e+01   5.3177874665e+01    0.3989217    0.2238508 -47.75  0.001279269    1.970    0.492
       470  -8.3300     74.2634     51.8622   5.9846522070e+01   5.5936695071e+01    0.2586573    0.1651265   4.39  0.001049795    2.204    0.546
       471  -8.3389    144.8442     48.8326   3.9237758671e+01   4.2272830699e+01    0.2002933    0.1727184 -57.49 0.0005437154    1.318    0.241
       472  -8.1447    129.8384     48.8192   4.2758110178e+01   4.5770002249e+01    0.1968106    0.1728944 -58.87 0.0005129253    1.331    0.249
       473  -8.2441    120.8904     47.3324   4.4511562443e+01   4.7987661284e+01     0.197963    0.1786404  33.29 0.0005593285    1.082    0.076
       474  -8.2402    112.2268     46.6692   4.6583284349e+01   4.9934282056e+01    0.2325392     0.178784 -40.30 0.0006173904    1.353    0.261
       475  -8.9688     82.2328     46.2917   5.5337879495e+01   5.5638428277e+01    0.2751358    0.2115638 -51.37 0.0006142384    1.520    0.342
       476  -8.4431     45.0775     44.5745   6.7594088035e+01   6.1128359007e+01     0.208062    0.1480485 -50.44 0.0006265632    1.371    0.271
       477  -8.9759     16.9175     44.5043   7.8187964135e+01   6.3698667211e+01    0.2019309    0.1407223 -66.87 0.0006371471    1.555    0.357
       478  -8.3496    132.5601     43.0462   4.0145460323e+01   4.6022012448e+01    0.2116137    0.1398264 -30.72 0.0004029822    1.530    0.346
       479  -8.7104     93.1491     42.1913   5.0468833624e+01   5.4394125547e+01    0.2793061    0.1902613  11.02  0.001237287    1.761    0.432
       480  -8.7272     58.0453     42.0422   6.2024362138e+01   6.0000597171e+01    0.2985875    0.1595787 -54.12  0.001035083    2.324    0.570
       481  -8.0149     32.9716     44.0000   7.1930646552e+01   6.2476764930e+01    0.1666577   0.06706019  26.67 0.0005409971    2.902    0.655
       482  -9.5764      5.0872     41.3515   8.1898689169e+01   6.5049301876e+01    0.4341393    0.1854805 -70.11  0.002063108    2.979    0.664
       483  -9.4747     69.4575     41.2125   5.7743079090e+01   5.8529200652e+01    0.3170796     0.218676 -51.12  0.001142648    1.699    0.411
       484  -7.7440    140.2929     41.2989   3.7767356302e+01   4.4464771395e+01    0.1486427    0.1074758  22.04  0.000304086    1.565    0.361
       485  -8.6627    105.8931     41.1202   4.6367570624e+01   5.2096880198e+01    0.2023779    0.1865507 -47.57  0.000545839    1.265    0.210
       486  -8.7738     36.7806     40.5008   6.9364095947e+01   6.2752792472e+01     0.220659    0.1408295 -45.09 0.0006357902    1.313    0.238
       487  -8.4751     95.7337     37.8955   4.8120788320e+01   5.4580851230e+01    0.2386071    0.1761699 -46.39 0.0005635565    1.564    0.361
       488  -8.8783     80.8917     36.3937   5.2159180998e+01   5.7483901412e+01    0.3010547    0.1549349 -42.36  0.001006192    1.992    0.498
       489  -9.3053     26.2277     35.1070   7.1705185605e+01   6.4717413449e+01    0.2835231    0.1749349 -59.56 0.0008773789    1.826    0.452
       490  -8.1764    126.0314     35.3012   3.9025713579e+01   4.8617289369e+01     0.196282    0.1768064  33.56 0.0004658712    1.050    0.048
       491  -9.5277    211.2722    246.6748   6.9944680592e+01  -4.5712802489e+00    0.3023551    0.2019469 -55.59  0.001334468    2.648    0.622
       492  -8.7695     60.7295     32.4357   5.7535908251e+01   6.1248700505e+01    0.2249905      0.15278 -36.03  0.000659686    1.332    0.249
       493  -8.8548     48.4450     32.8947   6.2247967836e+01   6.2789091008e+01    0.2240708    0.1826001 -35.65  0.000754183    1.184    0.156
       494  -7.7453    139.2855     31.3154   3.4601083161e+01   4.6060255380e+01    0.1474525    0.1037139  23.57 0.0002398823    1.584    0.369
       495  -8.5789     72.1662     30.9109   5.2947559216e+01   5.9768111728e+01      0.18489    0.1645179 -33.12 0.0005067931    1.264    0.209
       496  -9.0644     12.9888     30.1375   7.5494314810e+01   6.6642660427e+01     0.253332    0.1392894 -61.37  0.001033953    1.968    0.492
       497  -8.6890    101.4882     29.0303   4.3121407231e+01   5.4735697456e+01    0.2864121    0.1183785 -36.71 0.0008508574    2.434    0.589
       498  -8.9010    155.1541     31.1661   3.1308192508e+01   4.2204772925e+01     0.212932    0.1813708  31.10 0.0003513623    1.176    0.150
       499  -8.7610     81.6434     27.3047   4.8403227321e+01   5.8714110937e+01    0.2369978    0.2069242 -63.47  0.000853934    1.663    0.399
       500  -9.3866      3.9613     27.2895   7.8407205316e+01   6.7725045581e+01    0.2757532    0.1657995 -71.90  0.001453919    2.299    0.565
       501  -8.6347    119.1682     32.6382   3.9765028022e+01   5.0515242916e+01    0.3073376    0.1327534 -42.17  0.000872548    2.657    0.624
       502  -8.8943     91.9125     26.1526   4.4776654592e+01   5.6999277387e+01    0.2957721    0.1675902 -40.00 0.0007126692    1.913    0.477
       503  -7.8323    104.3374     22.7026   3.9902659317e+01   5.4981607341e+01    0.1266736    0.1081179 -70.53 0.0007032135    1.655    0.396
       504  -8.9175     63.6560     20.9464   5.1889237164e+01   6.2558618670e+01     0.260507    0.1842089 -42.88 0.0008159335    1.642    0.391
       505  -8.9389     48.4451     21.3707   5.7735396365e+01   6.4627354560e+01    0.2415493    0.1897561 -41.09 0.0007900128    1.430    0.301
       506  -7.8527     34.4917     22.5715   6.3812521397e+01   6.6068669967e+01    0.1163699   0.09316044 -22.79 0.0005280526    1.050    0.047
       507  -8.1663    120.7803     21.0459   3.5121876098e+01   5.1624915671e+01      0.17709     0.109931 -24.98 0.0006618005    1.651    0.394
       508  -7.9670    117.3015     21.6713   3.6188215041e+01   5.2327827102e+01    0.1320801    0.1074517 -62.83  0.000405145    1.645    0.392
       509  -8.2149     19.4326     21.1729   6.9653015784e+01   6.7712164461e+01    0.1535361   0.09434192 -54.14 0.0008206799    1.752    0.429
       510  -8.7214     74.2132     19.5292   4.7660778965e+01   6.1061798672e+01    0.2373607    0.1781673 -47.17 0.0006438471    1.751    0.429
       511  -7.7730     11.6650     20.3161   7.2744404439e+01   6.8453108291e+01   0.09369607   0.08520704 -79.34 0.0004229149    1.693    0.409
       512  -7.9498     39.0010     18.0751   6.0137210099e+01   6.6274882318e+01    0.1562025    0.1402841 -53.06 0.0006028135    1.639    0.390
       513  -8.1909     87.8326     17.1464   4.2370160026e+01   5.8934298268e+01    0.1840923    0.1665562 -27.11 0.0004763636    1.272    0.214
       514  -8.1105    112.8282     16.5952   3.5358182007e+01   5.3900436733e+01    0.1740497    0.1278049  64.86 0.0003164587    1.559    0.359
       515  -8.2170     30.0266     15.7740   6.2941265569e+01   6.7602105443e+01    0.1473283    0.1317279  58.52 0.0006663658    1.938    0.484
       516  -8.1351    191.4863    249.5004   7.3685874701e+01  -1.7684059195e+00    0.1164998   0.08948089  38.35 0.0002382676    1.047    0.045
       517  -8.0886     16.8690     13.6332   6.7871927517e+01   6.9153423629e+01    0.1316613   0.09658366  27.64 0.0004956914    1.702    0.413
       518  -7.5847     83.3523     10.6921   4.1012426154e+01   6.0534205894e+01    0.1165107    0.1022612 -64.85 0.0007043121    1.716    0.417
       519  -9.1650    175.6898    247.5795   7.6127026056e+01   1.0041247960e+00    0.2914371     0.201964  73.65  0.001302607    2.275    0.560
       520  -9.6101    147.7396    246.3850   8.0783391888e+01   5.6572619596e+00    0.5080119    0.2488151  66.67   0.00204455    4.332    0.769
       521  -8.3084    113.4157    248.4082   8.6838078268e+01   1.0673347732e+01    0.1745571   0.09980804 -79.17 0.0009879004    2.382    0.580
       522  -9.2150    242.9683    246.1318   6.4609674818e+01  -9.3396280387e+00    0.3095862     0.149744 -24.22  0.001705583    2.386    0.581
       523  -9.0041    218.5909    246.8459   6.8740950560e+01  -5.7317748013e+00    0.2952828    0.1308949 -38.29  0.001605866    2.840    0.648
       524  -9.0979    156.3270    247.5482   7.9446402800e+01   4.1238033225e+00     0.207922    0.1867565 -67.48 0.0009288745    1.421    0.296
