#   1 NUMBER                 Running object number                                     
#   2 MAG_AUTO               Kron-like elliptical aperture magnitude                    [mag]
#   3 X_IMAGE                Object position along x                                    [pixel]
#   4 Y_IMAGE                Object position along y                                    [pixel]
#   5 X_WORLD                Barycenter position along world x axis                     [deg]
#   6 Y_WORLD                Barycenter position along world y axis                     [deg]
#   7 A_WORLD                Profile RMS along major axis (world units)                 [deg]
#   8 B_WORLD                Profile RMS along minor axis (world units)                 [deg]
#   9 THETA_WORLD            Position angle (CCW/world-x)                               [deg]
#  10 FWHM_WORLD             FWHM assuming a gaussian core                              [deg]
#  11 ELONGATION             A_IMAGE/B_IMAGE                                           
#  12 ELLIPTICITY            1 - B_IMAGE/A_IMAGE                                       
         1 -14.9340     69.0658    178.8615   9.3402827789e+01   2.8258649784e+01     1.840036      1.11276  67.13  0.008041067    2.087    0.521
         2 -11.3048    243.8787     17.2480   2.2342174524e+01   2.5324632389e+01    0.2722015    0.1027976 -52.14  0.001452555    2.042    0.510
         3 -10.6829     49.4706     14.4146   5.3744677152e+01   6.8056368895e+01    0.2608259    0.1849425  21.10 0.0007753246    1.336    0.252
         4 -11.7072     34.0245     12.9063   6.0266143196e+01   7.0895542667e+01    0.3755906    0.2822916  56.18  0.001808689    1.923    0.480
         5 -11.3077    162.3625     11.8639   2.7579697064e+01   4.2871399792e+01    0.2200497    0.1530108 -87.60 0.0005167734    1.336    0.251
         6 -10.1339     45.1988     12.1897   5.4441108590e+01   6.9094686609e+01    0.1907792    0.1477194  16.46  0.000725512    1.153    0.133
         7 -11.1017     27.3778     11.4299   6.3073121917e+01   7.2107180469e+01     0.235434    0.1719426 -25.26  0.001496002    1.336    0.252
         8 -11.7634     56.4336      9.4832   4.8390122935e+01   6.7277437676e+01    0.3653497    0.2735822  32.42  0.001296636    1.160    0.138
         9 -10.8990    114.2376      9.1758   3.3316808923e+01   5.4476340644e+01    0.2179587    0.1864029  59.56 0.0005680909    1.060    0.057
        10 -10.9617     98.7572      8.7733   3.6114912140e+01   5.8141466297e+01    0.1734074    0.1444168 -77.36  0.001007159    1.356    0.263
        11  -9.7496     69.4675      9.4416   4.3904827823e+01   6.4614381279e+01    0.1276632    0.1088835  37.60 0.0001547888    1.006    0.006
        12 -10.4599      3.6514      8.7585   7.7228240663e+01   7.5375573923e+01    0.2064475    0.1601052  13.38 0.0008070568    1.269    0.212
        13  -9.4555    213.6084      8.5412   2.2440328308e+01   3.2055829190e+01    0.1149889   0.09040152 -64.26 0.0001257841    1.021    0.021
        14 -11.5306    124.2937      7.3937   3.1066179634e+01   5.2247891643e+01    0.3359782    0.2030544  87.66 0.0009534528    1.744    0.427
        15 -11.0639     85.7903      7.7908   3.8641999431e+01   6.1193469029e+01     0.238681    0.2125966  69.26 0.0003191039    1.145    0.127
        16 -10.9052     88.6860      6.2940   3.7315629515e+01   6.0667891284e+01    0.2185281    0.1826092  54.48  0.000446239    1.041    0.040
        17 -12.2323    153.1189      3.6711   2.6263234201e+01   4.5771918156e+01    0.4027734    0.1983016 -53.16  0.002010776    2.072    0.517
        18 -10.8487     22.7850      5.2160   6.2089069308e+01   7.3586030218e+01    0.1876622    0.1451599  32.79 0.0005880021    1.333    0.250
        19 -10.4484     16.4979      5.4954   6.6214708979e+01   7.4415204615e+01    0.1935723    0.1014804  41.92  0.001029365    2.232    0.552
        20 -11.7507    239.8157      4.3846   2.0069254517e+01   2.7429944694e+01    0.2549841    0.1161032  84.39  0.001486851    2.171    0.539
        21 -11.2676    132.8983      4.2703   2.8825120737e+01   5.0472851461e+01    0.3628812    0.1581556  79.43  0.001606169    2.308    0.567
        22 -12.4977    175.7412      2.7370   2.3887054445e+01   4.0691532096e+01    0.3891491    0.1528904  71.26  0.001860792    2.244    0.554
        23 -11.0895     38.6637      2.6350   5.2060116597e+01   7.1310653782e+01    0.2832431    0.2031336  42.36  0.001178785    1.291    0.225
        24 -10.5785    144.8394      2.8267   2.6920856910e+01   4.7778439262e+01     0.173639    0.1294087 -65.97 0.0005040037    1.308    0.236
        25 -11.4269    113.9313      1.9765   3.0784840439e+01   5.5146811913e+01    0.3737544    0.1597125  67.54 0.0008014766    1.988    0.497
        26 -10.3429     97.6385    165.3178   8.3328876607e+01   2.7481681099e+01    0.1590282    0.1136547  66.65 0.0007042337    1.765    0.434
        27  -9.6536     64.4677    250.6023   1.0210322303e+02   1.2942917783e+01    0.1190776   0.09902591  41.83 0.0001217404    1.037    0.036
        28 -10.4207     49.3956    249.8752   1.0522999544e+02   1.4773976623e+01    0.1983513    0.1541386  78.75 0.0005926412    1.294    0.227
        29  -9.8519     52.9516    246.8895   1.0426518115e+02   1.4961798707e+01    0.2414853    0.1499506   9.97 0.0007580424    2.193    0.544
        30 -14.8702     59.6919    212.1973   9.9753955843e+01   2.1491087903e+01     5.784091     2.521821  67.06   0.02041224    3.877    0.742
        31 -14.6254      3.2993    234.1998   1.1395328765e+02   2.2447370129e+01     1.465279    0.5029181 -65.48  0.007007992    2.983    0.665
        32 -13.5665     53.6699    179.1924   9.7679391518e+01   3.0105004559e+01    0.8029363    0.4017453  34.92   0.00357376    1.907    0.476
        33 -11.2737     62.9017    155.5659   9.1727111299e+01   3.5029323824e+01    0.2756593    0.2368067 -59.61 0.0006033296    1.123    0.110
        34 -11.4407     71.9548    159.2799   8.9629315086e+01   3.2841093294e+01    0.2060778    0.1965128  40.56 0.0008294943    1.076    0.071
        35  -9.5724      7.7604    151.1936   1.0788698055e+02   4.1711193881e+01    0.1921042    0.1060632   0.79 0.0008843202    2.487    0.598
        36 -10.9373    243.2188    148.3927   4.8892193461e+01   6.6496748946e+00     0.149354    0.1216436  57.49 0.0009598935    1.749    0.428
        37 -10.1444     85.5097    148.5119   8.3684965239e+01   3.3609329421e+01    0.1509918     0.146096 -85.11 0.0001401833    1.040    0.038
        38 -15.0668     21.7540    199.1139   1.0789222793e+02   2.8576938176e+01     1.795386     1.571295 -41.44   0.01158573    1.402    0.287
        39 -10.1057      5.2233    139.3806   1.0759953194e+02   4.4962103505e+01    0.2475916    0.1425999  76.90 0.0008972294    1.780    0.438
        40 -12.7844     56.4062    174.8585   9.6379115635e+01   3.0871391449e+01    0.6121224    0.2983848  42.28  0.001445771    1.991    0.498
        41  -9.1326     25.2954    129.3235   9.9853710096e+01   4.6135662064e+01    0.1481347   0.09371475 -42.92 0.0003503378    1.620    0.383
        42 -13.6941    246.2438    121.2453   4.3106725728e+01   1.0527872578e+01    0.7630616    0.4958196 -17.42  0.004245485    1.866    0.464
        43 -10.0832     15.2373    173.7622   1.0765062315e+02   3.5354351455e+01       0.1692    0.1420295 -52.37 0.0006521118    1.310    0.236
        44  -9.5105      5.9485    121.9936   1.0557762058e+02   4.9484066223e+01    0.1611799    0.1375847 -72.72 0.0004362849    1.001    0.001
        45  -9.4646    153.5107    114.5396   5.7493021027e+01   2.8847379660e+01    0.1516743    0.1413111 -61.10 6.173654e-05    1.100    0.091
        46 -14.3917     19.8411    214.7911   1.0938576872e+02   2.5144307163e+01     1.441275     1.108721  60.67  0.008996973    1.104    0.094
        47 -13.3694    247.6030    101.3831   3.8940042242e+01   1.3401453323e+01    0.5714658    0.4180539   4.20  0.003319788    2.148    0.534
        48 -11.0703     64.8621     96.4177   7.8748786166e+01   5.0019513044e+01    0.2560772    0.2306373 -40.55 0.0002126165    1.044    0.042
        49 -10.1491      4.4635     96.4484   1.0283036927e+02   5.6209620168e+01    0.2727918    0.1617985 -27.32   0.00137415    1.835    0.455
        50 -10.7807    132.3527     93.0746   5.6760019492e+01   3.7755280946e+01    0.2624749     0.213833  56.05 0.0004033282    1.289    0.224
        51 -10.4941      2.7560    111.5070   1.0549206483e+02   5.2407153701e+01    0.2286479    0.1855308 -81.65  0.000552632    1.119    0.106
        52  -9.3837    107.5338     89.4693   6.2430267343e+01   4.3803891779e+01    0.1519615    0.1465003 -14.56 3.779344e-05    1.036    0.034
        53 -11.3235     26.0044     81.7184   9.0832745426e+01   5.8390480727e+01    0.1925458    0.1749886 -21.43 0.0004861103    1.099    0.090
        54 -11.1669     54.2575     78.6217   7.7828484432e+01   5.5796760818e+01    0.3982471     0.296729 -82.98  0.001396254    1.932    0.482
        55  -9.8116    216.0808     78.5516   3.7871809994e+01   2.2507126507e+01    0.1585537     0.127404  65.81 0.0003246838    1.413    0.292
        56  -9.8751     77.7799     78.0582   6.8576659770e+01   5.2068983299e+01    0.2017648    0.1828645 -29.95 0.0003028527    1.064    0.060
        57  -9.9063     63.8914     69.9169   7.1146031440e+01   5.6219227796e+01    0.2093206    0.1784016  -9.07  0.001134239    1.184    0.155
        58 -10.6435     41.2908     70.0187   8.0763461570e+01   5.9498458822e+01    0.2023013    0.1757071 -38.83 0.0009478743    1.065    0.061
        59  -9.3565     59.6556     69.3065   7.2645789423e+01   5.7037143900e+01    0.1399603    0.1154694  73.77 0.0006460326    1.693    0.409
        60  -9.7869      7.8327     68.8121   9.6276351073e+01   6.2872633523e+01    0.1663047    0.1510582  82.94 0.0004931299    1.312    0.238
        61 -13.8914     15.1863    239.9418   1.1176683641e+02   2.0213893564e+01     1.091156    0.4957069  84.41  0.005704371    2.264    0.558
        62  -9.9804    192.2357     66.0310   3.8059135057e+01   2.9278422017e+01    0.1768872    0.1488592 -54.81 0.0002280772    1.053    0.050
        63 -11.3546     67.0029     65.1139   6.8270247035e+01   5.6683097080e+01    0.2158266    0.1953552 -26.90 0.0002649679    1.064    0.060
        64 -11.4203    250.3413     63.6380   3.1047232160e+01   1.8428170821e+01    0.3671421   0.09836034 -39.49  0.001559238    2.706    0.630
        65 -10.3829      4.1282     64.3251   9.7098157562e+01   6.4141377703e+01    0.2338836    0.1594647 -42.02 0.0007240673    1.235    0.190
        66 -11.1861      3.2502     59.9667   9.6536216929e+01   6.5201818919e+01    0.2758771    0.2477399  -4.00  0.001831659    1.216    0.178
        67 -10.8177     99.4250     62.1726   5.6073577086e+01   5.0867182464e+01    0.3559238    0.2633683 -68.27  0.001062823    1.824    0.452
        68 -10.0398     43.5070     62.8820   7.7449293773e+01   6.0778979067e+01    0.2061748    0.1289609 -49.10 0.0006726446    1.523    0.343
        69  -9.3363     89.6539     59.2286   5.8074544967e+01   5.3459739915e+01    0.1371929     0.112537  75.33 0.0002057908    1.550    0.355
        70 -11.9797    248.4134     54.1503   2.9317088789e+01   2.0035147601e+01    0.5414676    0.1556158 -37.99  0.002385372    2.636    0.621
        71  -9.6459     16.6643     57.7058   8.8941656612e+01   6.4815214472e+01    0.1413241   0.08330701 -29.38 0.0002972955    1.644    0.392
        72  -9.8127     78.1323     56.1284   6.0849804683e+01   5.6340675246e+01    0.1820394    0.1721197  82.70 0.0003480886    1.267    0.211
        73  -9.0875     40.2731     55.2509   7.6286038126e+01   6.2807753487e+01    0.1321095    0.0949323 -15.33            0    1.451    0.311
        74 -10.3731    233.6605     51.3372   3.0024106689e+01   2.3068046792e+01    0.1319518   0.07233479 -60.97 0.0007050903    1.759    0.431
        75 -11.3429    249.3262     44.6587   2.7356745482e+01   2.1102221923e+01    0.3133459     0.132475 -36.66  0.001653994    1.958    0.489
        76  -9.9823      7.0000     45.9604   9.0660101399e+01   6.8098720738e+01    0.2052251   0.06360406 -60.59 0.0007981446    2.913    0.657
        77  -9.7097    137.2310     44.3366   4.0934520510e+01   4.4999669494e+01    0.1917873    0.1250554  72.11 0.0005933806    1.602    0.376
        78 -10.1849     39.0425     44.4938   7.2763290316e+01   6.5088732424e+01    0.1985816    0.1248261  29.16 0.0009905638    1.581    0.367
        79 -11.0641    236.0858     42.6806   2.8005909670e+01   2.3741699059e+01    0.2227864    0.1917833  38.98   0.00155111    1.685    0.407
        80 -10.0392     71.4931     42.9906   5.8136137147e+01   5.9878627918e+01    0.1858754    0.1164522  -7.88 0.0004384107    2.296    0.565
        81  -9.5633    185.9665     41.9252   3.2829113754e+01   3.4058198838e+01    0.1515417    0.1325768 -66.66 0.0002908905    1.011    0.011
        82  -9.7774    118.7418     41.9254   4.3975866051e+01   4.9697326792e+01     0.180593    0.1216635 -29.86 0.0003830635    1.589    0.371
        83 -10.0125     95.8002     39.2694   4.8792344483e+01   5.5330484101e+01    0.2470317    0.1710264   4.97  0.000971613    1.949    0.487
        84  -9.3749    159.2975     39.7074   3.5812023692e+01   4.0418966711e+01    0.1376813   0.09435674 -68.10 0.0002175168    1.562    0.360
        85 -10.4606     40.4606     36.5072   6.8682240963e+01   6.6325745056e+01    0.2503205    0.1218058  34.33 0.0007138761    2.014    0.503
        86  -9.7055     51.3067     32.9667   6.1989208502e+01   6.5172068820e+01    0.1887556    0.1656692 -47.82 0.0004961383    1.416    0.294
        87 -10.3144     17.6071     31.6580   7.9080613306e+01   7.0072375855e+01    0.1899578    0.1698275 -19.81 0.0003078783    1.164    0.141
        88 -10.1761      3.7870     31.7483   8.7747590032e+01   7.1241699182e+01    0.1829387    0.1358514 -25.73 0.0008925094    1.109    0.099
        89 -10.5044    153.1362     27.9040   3.3294953299e+01   4.3316292196e+01    0.1943974     0.158444 -73.40 0.0003130902    1.182    0.154
        90  -9.5222    160.3945     27.1813   3.2097704726e+01   4.1698456678e+01    0.1722346    0.1096705 -46.49 0.0002439462    1.520    0.342
        91  -9.2434     46.7065     27.2588   6.1414378855e+01   6.6822573731e+01    0.1113962    0.1035679  66.37 0.0001898998    1.496    0.332
        92 -10.1790     88.1481     24.7063   4.5157492180e+01   5.8923784389e+01    0.2030173     0.164246  79.48 0.0006181714    1.451    0.311
        93 -10.3462     98.7305     23.3984   4.1877806715e+01   5.6681849393e+01    0.2236581    0.1838169 -23.37 0.0005417284    1.327    0.246
        94 -10.4307     72.7510     22.6832   4.8969757354e+01   6.2486698988e+01     0.219347    0.1738205  26.84 0.0004577345    1.197    0.164
        95  -9.7071     38.1837     22.8408   6.3375099240e+01   6.8860201128e+01    0.1768749    0.1305275   4.16 0.0003847717    1.305    0.234
        96 -10.4230    226.9801     19.2140   2.3810457943e+01   2.8270691171e+01    0.1412579   0.08396292  81.63 0.0003365942    1.672    0.402
        97 -13.2166     26.2562    225.2534   1.0859115267e+02   2.2229710359e+01     0.967153    0.2717693 -56.47   0.00310886    4.060    0.754
        98 -10.6772     20.3923     17.1471   7.0398546404e+01   7.2229853440e+01    0.1986255    0.1641081  22.18  0.001328679    1.274    0.215
        99 -10.8150    249.4073     14.7915   2.1555371269e+01   2.4603293704e+01    0.1436621   0.09359179 -30.07  0.000955414    1.688    0.408
       100 -10.1691    183.4861     15.4735   2.6417399705e+01   3.7722220183e+01    0.1240124    0.1035732 -73.94 7.950151e-05    1.009    0.009
       101 -10.2759     66.7021    238.9181   1.0063652570e+02   1.4962678566e+01    0.3134677    0.1472624 -77.95  0.001465764    2.698    0.629
       102 -10.4790    128.2135     14.4120   3.2812009614e+01   5.0672163741e+01    0.1835226    0.1144455  83.04 0.0008259394    1.641    0.391
       103 -10.8156     82.3768    238.2278   9.7088452257e+01   1.3198032123e+01    0.3881485    0.2147289  37.42   0.00204376    1.530    0.346
       104 -14.5062     46.9463    217.0023   1.0324541583e+02   2.1879810217e+01     1.575882     1.308764  50.10   0.01000245    1.071    0.066
       105 -10.1625     63.3078    235.0244   1.0104874078e+02   1.6150921644e+01    0.1666889    0.1497221  63.97 0.0004409818    1.082    0.076
       106  -9.9717     51.9394    234.6805   1.0355354540e+02   1.7527162437e+01    0.2429654    0.2217996 -37.44  0.001659621    1.363    0.266
       107  -9.8598    201.2828     11.6553   2.4006768741e+01   3.4275852829e+01    0.1282113   0.06955534 -59.79 0.0007014849    1.640    0.390
       108 -12.1364     75.5628    227.0014   9.7496319395e+01   1.6328688323e+01    0.4624563    0.2096304 -58.45  0.002114149    2.338    0.572
       109 -10.7076     48.4414    233.5855   1.0424439104e+02   1.8143319619e+01     0.247243    0.1807634 -45.52  0.001492413    1.721    0.419
       110 -11.9318     95.4593    227.5298   9.2959830658e+01   1.3664958755e+01    0.6026103    0.4161535 -14.99  0.003134483    2.007    0.502
       111 -12.1783     78.1273    212.8614   9.5350409161e+01   1.9047767307e+01    0.3601357    0.2125115  49.70  0.001412294    1.670    0.401
       112 -12.0939     92.7450    207.4413   9.1110954063e+01   1.8293182033e+01    0.3857147    0.2259272  34.11  0.001876597    1.569    0.363
       113 -11.6000    102.5024    205.9652   8.8520609942e+01   1.7250179049e+01    0.3074987    0.1438126 -67.28  0.001219156    2.791    0.642
       114 -14.7781      6.7778    194.8140   1.1125423715e+02   3.0891103112e+01      4.09715      1.17028 -70.78   0.01654172    2.961    0.662
       115 -13.1932     98.5315    196.3544   8.8131228800e+01   1.9965595195e+01    0.5804954    0.2952509  44.47  0.002506444    1.970    0.492
       116 -14.5723      7.3432    241.1175   1.1341751131e+02   2.0687905332e+01     1.179362    0.5607809 -84.85  0.006656516    2.042    0.510
       117 -14.7077     30.0704    236.3709   1.0844549161e+02   1.9505407537e+01     1.754903     1.085285  53.61   0.01064348    1.363    0.267
       118 -13.5315     86.8733    185.7158   8.9580454584e+01   2.4131213923e+01    0.5698982    0.3800026 -66.52  0.002772575    1.577    0.366
       119 -10.2734     45.7088    241.7949   1.0544599579e+02   1.6765590037e+01    0.3409181    0.1602191  42.04  0.001172582    1.721    0.419
       120 -12.3519     27.5195    170.4440   1.0397962159e+02   3.5115905555e+01    0.6580775    0.2362225  57.36    0.0022314    3.677    0.728
       121 -12.5074     18.0751    160.4216   1.0570201648e+02   3.8531759193e+01    0.6905752     0.554844 -81.65   0.00405648    1.100    0.091
       122 -12.7924     30.5673    166.3961   1.0270648123e+02   3.5867542535e+01    0.8234419    0.3264937  49.01  0.003231489    2.656    0.624
       123 -12.2010     53.4573    185.2315   9.8451511749e+01   2.8623181661e+01    0.6429124    0.2270606 -69.29  0.002379806    2.833    0.647
       124 -10.9424     29.7213    162.2245   1.0250494806e+02   3.7030199391e+01    0.4778132    0.2659656  43.38  0.002274851    1.787    0.440
