#   1 NUMBER                 Running object number                                     
#   2 MAG_AUTO               Kron-like elliptical aperture magnitude                    [mag]
#   3 X_IMAGE                Object position along x                                    [pixel]
#   4 Y_IMAGE                Object position along y                                    [pixel]
#   5 X_WORLD                Barycenter position along world x axis                     [deg]
#   6 Y_WORLD                Barycenter position along world y axis                     [deg]
#   7 A_WORLD                Profile RMS along major axis (world units)                 [deg]
#   8 B_WORLD                Profile RMS along minor axis (world units)                 [deg]
#   9 THETA_WORLD            Position angle (CCW/world-x)                               [deg]
#  10 FWHM_WORLD             FWHM assuming a gaussian core                              [deg]
#  11 ELONGATION             A_IMAGE/B_IMAGE                                           
#  12 ELLIPTICITY            1 - B_IMAGE/A_IMAGE                                       
         1 -14.6506    224.8633     85.4371   8.2602816947e+01   1.7982550152e+01     6.485396     2.907745 -13.37   0.02251206    3.460    0.711
         2 -11.8806    230.9579     50.6198   7.2926668886e+01   2.1107237012e+01     1.434544    0.2589941 -31.78  0.004490104    3.854    0.741
         3 -12.9036    243.3571    135.8661   9.1419902363e+01   7.8547526115e+00     3.359231    0.8481325 -40.28   0.01013542    5.789    0.827
         4 -12.9948    247.8868     98.9749   8.2628130326e+01   1.1672553733e+01     4.201537    0.5177477 -28.86   0.01013855    7.258    0.862
         5 -12.4829    249.2025     63.0070   7.4005827334e+01   1.5802366303e+01     3.384161    0.3676423 -26.77  0.007449303    8.569    0.883
         6 -13.0940    247.0950     18.7043   6.3472229398e+01   2.1061974340e+01      2.66089     1.306742  -4.67   0.01123339    3.115    0.679
         7 -12.6611    224.4816     20.1892   6.5592912233e+01   2.5963465982e+01     1.518931    0.5832849 -18.71  0.005893264    2.866    0.651
         8 -11.3601    220.8644     16.0307   6.4788110880e+01   2.7234618225e+01    0.6764646    0.3252532 -11.70   0.00284436    2.581    0.613
         9  -9.9478    167.8232     17.3078   7.0868330512e+01   4.0842679559e+01    0.3203331    0.2387806 -28.46  0.000975318    1.379    0.275
        10 -11.6098    236.9478     10.6282   6.2185013584e+01   2.4050016935e+01    0.8322917    0.3598781 -28.17  0.003903405    2.002    0.501
        11 -10.2733    231.6919      2.3338   6.0438769011e+01   2.5995586352e+01    0.2883043    0.1758568 -18.47  0.001217422    1.691    0.409
        12  -8.9759     69.9878     12.3258   9.3357386799e+01   6.6988014064e+01    0.1968909    0.1685677  23.56 0.0004805506    1.070    0.066
        13  -9.7087    241.4962      8.5135   6.1366546430e+01   2.3243955460e+01    0.2074488    0.1178461  -8.71   0.00097349    2.138    0.532
        14  -9.6800    117.6909      9.0560   7.6360520435e+01   5.5612165335e+01    0.2055022     0.189555  14.74  0.000407479    1.116    0.104
        15  -9.7029    106.2967      8.0095   7.8581458833e+01   5.8777137699e+01    0.2076885     0.194082   9.09 0.0007655029    1.097    0.088
        16 -10.7499    110.6906      4.8382   7.5964361973e+01   5.7924304016e+01    0.3836379    0.2685513 -43.92  0.001850224    1.615    0.381
        17 -10.1480     17.4889      5.2486   1.2287180492e+02   7.6189216763e+01     0.368343    0.2055011  10.87  0.001896505    1.928    0.481
        18  -8.9813      4.5079      5.9648   1.3468616938e+02   7.6794865919e+01    0.2715125   0.09279376 -49.95 0.0002722498    2.071    0.517
        19  -9.2422      2.6974      3.3240   1.3530695235e+02   7.7429295614e+01    0.2639283     0.144649 -74.94  0.001427613    1.906    0.475
        20 -10.4139     12.0410      5.5101   1.2776690719e+02   7.6523368691e+01    0.2168432    0.1615496 -50.04 0.0001746279    1.169    0.145
        21 -10.1260    239.4550      1.5062   5.9774852402e+01   2.4327737086e+01    0.1962302    0.1692133 -61.67 0.0005550669    1.057    0.054
        22  -8.8423    153.4821      3.8981   6.8020876477e+01   4.6122102058e+01     0.213415    0.1472017 -19.52  0.001024651    1.567    0.362
        23 -10.1602    126.8272      3.5159   7.2032798519e+01   5.3625020124e+01    0.4086232    0.2126212  84.68  0.001282302    2.303    0.566
        24  -8.4809     55.3893      4.2405   9.5458517940e+01   7.1076395238e+01    0.1784443      0.12157 -36.66 0.0004266027    1.552    0.356
        25  -9.7123     50.8752      3.7912   9.7661665601e+01   7.1980383294e+01     0.215077    0.1796489   0.60  0.000298953    1.059    0.056
        26  -8.2719    158.6727      2.3298   6.6782103830e+01   4.4805388873e+01    0.1581423    0.1003679 -60.16 0.0007051033    1.708    0.414
        27  -9.6787    218.2245    247.6272   1.1482732065e+02  -9.1602089389e-01    0.2949053    0.1689242 -26.54  0.002081484    2.051    0.512
        28 -10.8627    226.2666    249.9947   1.1381093053e+02  -2.1134327983e+00    0.2614161    0.1328308  29.35 0.0007060286    1.391    0.281
        29 -10.8455    209.5972    247.0936   1.1621245013e+02   2.1443590368e-01    0.4049903    0.3185205 -14.41  0.003286468    1.535    0.348
        30  -8.2028    201.6611    250.6745   1.1802646934e+02   8.7144430186e-01    0.1135409   0.06185662  13.73 0.0007051394    1.726    0.421
        31 -10.1637    193.1759    247.5167   1.1910788374e+02   2.2796990775e+00    0.4090131    0.2122453 -32.69   0.00265008    2.444    0.591
        32  -9.2908    186.9230    247.3797   1.2019612684e+02   3.1108822265e+00    0.2218119    0.1539985 -18.09  0.001376144    1.704    0.413
        33  -9.5012    168.1596    250.0081   1.2388056605e+02   5.2975736649e+00    0.2185091    0.1133073  29.45 0.0003286954    1.384    0.278
        34  -8.3758     48.3154    250.2998   1.4634452205e+02   2.0049280946e+01   0.08691164   0.07331518  16.14 0.0006026704    1.612    0.380
        35  -9.2342    231.1151    193.5866   1.0448326876e+02   2.8948222818e+00    0.2700213    0.1515793 -24.11   0.00136595    1.771    0.435
        36  -8.9258    223.5107    201.0583   1.0704343041e+02   3.1499341375e+00    0.1633037    0.1039409 -21.24  0.001032014    1.588    0.370
        37 -10.0237    165.0418    200.4552   1.1804926902e+02   1.2115686349e+01    0.2531386    0.1478622 -18.11   0.00126319    2.486    0.598
        38  -8.9575    215.8457    198.3313   1.0794148190e+02   4.5757957028e+00    0.1811245    0.1488507  -9.45 0.0007852404    1.303    0.233
        39 -11.1561    171.4346    214.1460   1.1874466983e+02   9.2360631937e+00    0.5043902    0.2539374 -32.66   0.00270669    2.513    0.602
        40  -9.5213    225.2081    194.5195   1.0565521807e+02   3.6439456318e+00    0.2901916    0.2123501 -46.41  0.001764631    2.375    0.579
        41 -10.0047    185.0690    192.5528   1.1277201018e+02   1.0053152883e+01    0.5033467    0.1793639 -31.88  0.002033378    3.670    0.728
        42  -8.9355    219.7838    195.0294   1.0669012281e+02   4.3808009170e+00    0.1687333    0.1443901   6.38 0.0007247125    1.279    0.218
        43  -9.5268    162.1039    192.7348   1.1748624337e+02   1.3728745423e+01    0.1970938      0.18317 -47.80  0.001322756    1.435    0.303
        44 -10.6128    172.2936    190.7125   1.1504847831e+02   1.2376166156e+01    0.3133793    0.1764486 -38.13   0.00166302    2.085    0.520
        45  -8.4153    151.4480    249.5350   1.2690060637e+02   7.5690778027e+00    0.1132663   0.07858261  30.57 0.0002075462    1.011    0.010
        46  -9.7839    166.6051    185.9937   1.1546647344e+02   1.4017847475e+01    0.2589543     0.127305 -41.73  0.001248821    2.405    0.584
        47  -9.7754    183.6757    182.9432   1.1143551181e+02   1.1633790688e+01    0.2722685    0.1543011 -42.29  0.001397958    2.158    0.537
        48 -10.0612    176.6003    181.0658   1.1255476805e+02   1.3092266341e+01    0.2643059    0.1266969 -39.58  0.001251079    2.404    0.584
        49  -9.2184    190.7476    179.0850   1.0934896652e+02   1.1007074339e+01    0.2553076    0.1511701 -38.63  0.001356766    1.963    0.491
        50  -8.3639    227.5212    175.5415   1.0189362383e+02   5.5273444464e+00    0.1954418    0.1084816 -25.76 0.0008643857    1.770    0.435
        51  -8.8652    227.5589    171.3260   1.0110274175e+02   6.0345142716e+00    0.2297491    0.1577639 -40.59  0.001334217    1.964    0.491
        52  -9.3490    182.5458    175.8217   1.1041413210e+02   1.2865504464e+01     0.234391    0.1250452 -31.37  0.001144313    2.111    0.526
        53  -9.4316    218.7481    168.1066   1.0204068627e+02   7.8517252753e+00    0.3756904    0.2344959 -33.44  0.002115131    1.737    0.424
        54  -9.3671    223.2353    172.6317   1.0209932449e+02   6.5559609929e+00    0.4041554    0.2118259 -43.60  0.001954474    2.799    0.643
        55  -9.6079    150.3967    167.3991   1.1587429325e+02   1.9847799662e+01    0.2569652    0.1160288 -31.58 0.0009626211    3.356    0.702
        56  -9.1314    229.2110    166.1116   9.9830015243e+01   6.4146739247e+00    0.2840513    0.1519901 -24.77  0.001384117    1.807    0.447
        57 -10.0012    191.9179    165.9444   1.0669669855e+02   1.2703752895e+01    0.3462135    0.1916916 -37.17  0.001725245    1.990    0.497
        58 -10.3346    199.3114    164.4347   1.0495430075e+02   1.1631638065e+01    0.3862689    0.2175462 -38.22  0.001807231    1.992    0.498
        59 -10.0868    197.2973    157.1842   1.0392278256e+02   1.3038620731e+01    0.4405388    0.2385764 -37.78   0.00201704    2.014    0.504
        60  -9.6490    175.7541    246.9971   1.2215461839e+02   4.6278421446e+00    0.1944688     0.160941 -28.03  0.001547152    1.636    0.389
        61  -8.7518    212.6306    162.6942   1.0210493973e+02   9.5840852685e+00    0.2466048    0.1152755 -27.51  0.001145077    2.224    0.550
        62  -9.5342    204.7369    161.1243   1.0326964350e+02   1.1156724461e+01    0.3405197    0.2807122 -37.41  0.001898849    1.505    0.336
        63 -11.0062    212.0814    129.7434   9.5297440921e+01   1.4308373590e+01    0.5138027    0.1707486 -36.53  0.001911519    2.970    0.663
        64  -9.8182    225.4496    133.8199   9.3868865508e+01   1.1245699142e+01    0.3797424    0.3334455  50.99  0.002344693    1.469    0.319
        65  -9.2593    221.3510    161.6908   1.0033937696e+02   8.2530885206e+00    0.2735711     0.185334 -25.45 0.0009536966    1.456    0.313
        66  -9.9089    221.5533    153.5874   9.8691276935e+01   9.2818383148e+00    0.6234313    0.2022653 -38.14  0.002416654    3.364    0.703
        67  -9.8668    223.4017    146.4203   9.6898736881e+01   9.9158931435e+00    0.4002314    0.2611476 -20.94  0.001878681    1.444    0.308
        68  -9.6563    224.1800    140.4802   9.5516195797e+01   1.0575013984e+01    0.3493254    0.2069001 -34.27  0.001179505    1.716    0.417
        69  -8.9542    218.4956    144.4993   9.7356272454e+01   1.1040959690e+01     0.237213    0.1998683  10.50 0.0007468639    1.042    0.040
        70  -9.6053    215.4282    149.1688   9.8878072784e+01   1.0944053522e+01    0.3355767    0.2245395 -39.11  0.001531448    1.733    0.423
        71 -11.2375    214.3449    142.3705   9.7647805207e+01   1.2084176349e+01     1.431073    0.4124259 -25.87  0.004053104    5.572    0.821
        72  -9.8171    226.4991    157.0008   9.8515893981e+01   8.0033719307e+00    0.4577252    0.1878218 -36.33  0.002063127    2.566    0.610
        73  -9.8678    228.5075    151.0711   9.6979471457e+01   8.4302676079e+00     0.478586    0.2115414 -23.62  0.002164174    2.333    0.571
        74  -8.4216    176.4972    159.5210   1.0863382879e+02   1.6457046032e+01    0.1407373    0.1183562  19.98 0.0001594061    1.016    0.015
        75  -8.9066    216.1803    156.0343   1.0014098130e+02   9.8762717050e+00    0.2663765     0.164767 -30.43  0.001439181    1.634    0.388
        76  -9.8856    205.5188    154.0476   1.0170846778e+02   1.2021398310e+01    0.3232073    0.2458652  -7.89  0.001535239    1.246    0.197
        77  -9.1110    202.3874    151.7068   1.0182676544e+02   1.2922133236e+01    0.2525391    0.1800656 -27.32  0.001007545    1.422    0.297
        78 -10.8891    240.4283    207.9239   1.0531392301e+02   8.8285286338e-02    0.4375285    0.3161345 -42.45  0.002830727    2.511    0.602
        79  -8.6137    196.5752    149.9725   1.0259795111e+02   1.4242861628e+01    0.1991694    0.1280072 -29.15  0.001021209    1.594    0.373
        80  -8.9067    182.0000    149.9419   1.0555299431e+02   1.6974534174e+01    0.2168658   0.07868198 -38.14 0.0008044051    2.956    0.662
        81 -10.2288    208.0287    146.4329   9.9665072315e+01   1.2658516951e+01    0.5182671    0.2110541 -33.92  0.002188309    2.478    0.596
        82  -9.2190    206.2025    226.0946   1.1394426208e+02   2.8105734621e+00    0.2025869    0.1484335 -33.13  0.001070717    1.826    0.452
        83  -8.9148    198.6743    226.4867   1.1534728106e+02   3.8030527182e+00    0.1697362    0.1011709 -29.89  0.001083547    1.985    0.496
        84 -10.1830     17.0564    223.3833   1.5126227673e+02   2.7383361768e+01    0.2251602    0.1458412  40.44  0.001690881    1.235    0.190
        85  -8.8185    194.5488    143.2197   1.0157804014e+02   1.5650380722e+01    0.3124841    0.1326505 -32.75  0.001272162    2.469    0.595
        86  -9.8733    229.9267    140.9502   9.4644692463e+01   9.5027848923e+00    0.4273838    0.1657993 -35.56  0.001506174    2.556    0.609
        87  -9.1750    155.5473    142.7313   1.0993705291e+02   2.3321582635e+01    0.2627064    0.1420255 -37.30  0.001135363    2.050    0.512
        88  -8.6243    181.7883    141.9958   1.0392551621e+02   1.8305221986e+01    0.2123949    0.1677192 -65.83  0.001069702    1.965    0.491
        89  -8.4608    129.7076    223.6602   1.2833666395e+02   1.4008773885e+01     0.113618   0.08236131   8.53 0.0003077146    1.650    0.394
        90 -12.9714    242.2862    185.9912   1.0130425961e+02   2.1368329128e+00     2.167696     1.056717 -34.61    0.0119181    2.326    0.570
        91  -9.7857    208.3313    138.3242   9.7876977849e+01   1.3774655220e+01    0.2801652    0.2029954 -30.10  0.001028001    1.395    0.283
        92  -9.2731    192.5443    137.1731   1.0066583801e+02   1.6977573335e+01     0.314425    0.1350782 -32.32  0.001079824    2.445    0.591
        93  -8.4828    172.5721    137.7725   1.0499332199e+02   2.0833869444e+01    0.1932593    0.1387318 -47.70 0.0009528503    1.660    0.398
        94  -9.5588    234.0149    135.3909   9.2793374143e+01   9.5148143180e+00    0.3202156    0.2290934 -46.42  0.001414367    1.899    0.474
        95  -9.3856    227.8782    221.3998   1.0950373442e+02   3.8877246739e-01    0.2358571    0.2207819  17.33  0.001858028    1.800    0.444
        96  -8.7391    155.6216    135.1799   1.0830377936e+02   2.4702585724e+01    0.2030598    0.1374378 -28.23 0.0009478563    1.670    0.401
        97  -9.2205    179.6111    131.9785   1.0217734910e+02   2.0401484055e+01    0.3182682    0.1377655 -36.94  0.001247578    2.413    0.586
        98 -10.6698    205.5266    129.8113   9.6512967102e+01   1.5566714660e+01    0.5160853     0.223655 -34.21   0.00215462    2.283    0.562
        99 -10.8444    203.0518    121.1585   9.4984523948e+01   1.7363127954e+01    0.4305412    0.2462755 -35.44  0.002011735    1.749    0.428
       100  -9.1305    192.5294    129.2539   9.8892379710e+01   1.8231593482e+01    0.3285088    0.1374385 -32.75  0.001280293    2.473    0.596
       101  -8.1375    160.5099    130.5056   1.0610915158e+02   2.4571827095e+01    0.1511261    0.1341019  19.31  0.000124915    1.049    0.046
       102 -11.7729    238.7893    160.1383   9.7074030340e+01   5.6258559120e+00     1.440117    0.6111169 -44.36  0.005598151    4.355    0.770
       103  -9.5328    199.8220    126.3097   9.6791980196e+01   1.7226027498e+01    0.2428379    0.1811423 -36.42 0.0007589515    1.419    0.295
       104 -10.1146    218.6234    138.4445   9.6045394346e+01   1.1852691149e+01    0.4433084    0.2967314 -29.10  0.001647863    1.459    0.315
       105  -9.3233    179.7430    123.7719   1.0025175947e+02   2.1759491298e+01    0.3827527    0.2328235 -29.92   0.00158646    1.718    0.418
       106  -8.3945    201.5958    221.1998   1.1406431112e+02   3.9902788938e+00    0.1532623   0.09609797 -12.93 0.0009627501    1.743    0.426
       107  -8.6988    210.6767    218.5345   1.1204548717e+02   3.0194184532e+00    0.1734568   0.09931204 -28.31  0.001075849    1.965    0.491
       108  -8.6750    188.1631    123.2097   9.8368715824e+01   2.0096671650e+01    0.1917284    0.1772649 -55.86  0.001074951    1.352    0.261
       109  -9.8227    193.4733    216.4019   1.1485393784e+02   5.7061361624e+00    0.3662004     0.244104  -0.04  0.002098081    1.549    0.355
       110  -9.6407    199.7263    211.6440   1.1298617541e+02   5.3665455218e+00    0.4032217    0.2213076  16.24  0.002229267    1.818    0.450
       111  -8.6810    185.5931    114.7024   9.6845674175e+01   2.2036502703e+01     0.276685    0.1405354 -30.00  0.001128414    2.065    0.516
       112  -8.7579    194.7511    113.3483   9.4692369256e+01   2.0298611157e+01    0.2716341    0.1636429 -40.86  0.001237805    1.763    0.433
       113 -11.0969    216.4696    134.3272   9.5530778638e+01   1.2824712849e+01    0.9361768    0.4775264  -2.67   0.00333208    3.715    0.731
       114 -10.8070    172.3344    205.1517   1.1727069897e+02   1.0316172515e+01    0.4181522     0.226673 -20.87  0.002073846    2.667    0.625
       115  -8.4427    189.5422    108.9534   9.4623704197e+01   2.2123631048e+01    0.2209719    0.1407016 -31.48 0.0007081152    1.563    0.360
       116  -8.6061    182.6443    108.8537   9.5993346011e+01   2.3651597691e+01    0.2113675    0.1330789 -42.98  0.000943266    1.718    0.418
       117  -9.5093    177.6014    243.1606   1.2136019244e+02   4.8100235466e+00     0.222662    0.1351622  16.95 0.0008577909    1.492    0.330
       118 -10.9805    176.8649    210.7100   1.1719039868e+02   8.8763423518e+00    0.3371543    0.2177751 -32.05  0.002074779    1.848    0.459
       119  -8.4461    232.4187    247.2081   1.1243878376e+02  -2.6064990045e+00     0.116961   0.09029891 -18.80 0.0005951381    1.699    0.412
       120  -9.5528    160.0084     99.9712   9.8649449224e+01   3.0326632901e+01    0.3962516     0.207009 -25.29  0.001453309    2.459    0.593
       121  -9.2349    234.5789     95.9723   8.3770041019e+01   1.4595829254e+01    0.4281614    0.2520262  18.17  0.001407344    2.265    0.558
       122  -8.6453    219.3489    216.8463   1.1027011061e+02   2.0059689807e+00     0.256749    0.1055734 -33.71   0.00136946    2.796    0.642
       123 -10.0817    188.7104     94.5098   9.1053149152e+01   2.4641992178e+01    0.7095746     0.207122 -33.62  0.002215993    3.363    0.703
       124  -8.4478    183.4895     95.4703   9.2335744536e+01   2.5684477282e+01     0.264908    0.1448452 -20.59  0.001031188    2.220    0.550
       125  -8.6943    164.1380     92.9093   9.5757091417e+01   3.0643736143e+01    0.2353293     0.213338 -62.72  0.000770046    1.274    0.215
       126  -8.5776    157.1730    245.9545   1.2544997322e+02   7.2343208270e+00    0.1693327    0.1104799   0.02  0.001080513    1.996    0.499
       127  -8.7256    196.1986     91.3158   8.8802130716e+01   2.3435661227e+01    0.2348344    0.1744577  30.33 0.0007573538    1.399    0.285
       128  -8.7454    195.4807     96.5514   9.0309911902e+01   2.2785512799e+01    0.2630609    0.1397258 -19.09  0.001030164    2.282    0.562
       129  -7.8489    175.3173     87.3539   9.1774762999e+01   2.8949214763e+01    0.1631304    0.1161739  14.07 0.0007046338    1.744    0.427
       130 -11.7378      7.8356    206.4571   1.5264002892e+02   3.1133209434e+01    0.7758026    0.2455386  68.76  0.003573711    2.756    0.637
       131 -11.9099    245.1845    205.8799   1.0421076733e+02  -3.3430843039e-01     1.066727    0.4974486 -41.38  0.005221603    3.955    0.747
       132  -9.1008      9.3573     84.0279   1.4642056933e+02   5.7964014610e+01    0.1787926    0.1371714 -81.92 0.0004138242    1.112    0.101
       133 -10.1818    200.8944     79.0728   8.4692638975e+01   2.4199304055e+01    0.7946025    0.2298467 -31.59  0.002548935    3.230    0.690
       134  -9.3634    185.4773     82.4778   8.8387448194e+01   2.7316636285e+01    0.3080111    0.1466271 -30.81  0.001189003    2.099    0.524
       135  -8.9589    183.9459     77.4836   8.7264411410e+01   2.8471890756e+01    0.3512239    0.1956562 -44.93  0.001441911    1.942    0.485
       136  -9.6987      7.8134    196.1435   1.5238531856e+02   3.3037979816e+01    0.1982556    0.1902619 -47.98  0.001505689    1.502    0.334
       137  -8.3796    188.6307     78.1449   8.6582510922e+01   2.7238173030e+01    0.2181397    0.1398764 -17.11 0.0009471411    1.747    0.427
       138  -8.6438    174.5655     77.6957   8.9158849643e+01   3.0730259654e+01    0.2949197    0.1520722 -27.77  0.001138493    2.061    0.515
       139  -8.6300    166.7152     76.8634   9.0546884744e+01   3.2806764956e+01    0.2497341    0.1947185  -8.32  0.000984589    1.448    0.310
       140  -9.6079    186.0190    218.9737   1.1662018089e+02   6.4743647094e+00     0.196601    0.1187198  10.77  0.001140094    1.743    0.426
       141  -8.6882    186.4823    210.4981   1.1530010380e+02   7.4612209311e+00    0.1244126   0.09216247  21.50 1.613649e-05    1.026    0.026
       142  -9.1294    225.0962    207.6588   1.0784151760e+02   2.1997478676e+00    0.1811948    0.1402411 -11.53  0.001298263    1.339    0.253
       143  -9.1223    206.5535    206.8006   1.1098600893e+02   4.9443334460e+00    0.3376321    0.1701428 -19.42  0.001777808    2.396    0.583
       144  -8.9382    115.8925     72.4059   1.0231462875e+02   4.5978138953e+01    0.3089226    0.2174109 -66.43 0.0008563937    1.944    0.486
       145  -8.9618    163.3189     70.6132   8.9375530585e+01   3.4702435167e+01    0.3113201    0.1961762 -28.43  0.001325145    1.652    0.395
       146 -12.3786    245.4158    160.2825   9.6036864136e+01   4.5795891304e+00     2.189591    0.6337926 -39.19  0.007857381    4.754    0.790
       147  -9.3022    212.5600     65.0287   7.9069094420e+01   2.3459672212e+01    0.4045425    0.1425564 -23.69  0.001359243    3.133    0.681
       148  -9.6529    216.9683    211.4820   1.0985798782e+02   2.9178964839e+00    0.2207052    0.1592063 -12.67   0.00153023    1.380    0.276
       149  -9.4475    195.1166     66.7240   8.2214105324e+01   2.7370471605e+01    0.4701147    0.3094694  -1.86  0.002055531    1.960    0.490
       150  -8.8129    182.1962     67.5127   8.4686112251e+01   3.0441750753e+01    0.2855709    0.2050207 -27.56 0.0006878359    1.391    0.281
       151  -9.1016    203.0926     65.7223   8.0662018267e+01   2.5590406551e+01    0.3533581    0.1922214 -35.85  0.001028503    1.734    0.423
       152  -8.7814    200.8661     61.5610   7.9834653824e+01   2.6700668188e+01    0.2640581     0.189797 -41.20  0.001017799    1.370    0.270
       153 -11.8814    238.4494    217.7072   1.0718441795e+02  -6.2422575912e-01    0.9805736    0.8041169  56.01  0.006467677    2.792    0.642
       154 -10.8182    207.0770     58.1371   7.7957928379e+01   2.5668169551e+01     0.860434    0.2571934 -28.58  0.002850352    3.117    0.679
       155  -9.1835     26.2337     60.0211   1.3552754054e+02   6.2980795657e+01     0.200033    0.1855684  -9.07 0.0003279419    1.183    0.155
       156  -7.8986    197.3220     59.3105   7.9737028405e+01   2.7874952574e+01    0.1522103    0.1095719  23.89 0.0004957192    1.649    0.394
       157  -8.9990    186.7364    203.1887   1.1414084315e+02   8.3640553939e+00    0.1642756    0.1575868  20.27 0.0008941168    1.450    0.310
       158  -8.9157    182.5596     57.7655   8.1694435706e+01   3.1792252792e+01    0.2754132    0.1496017 -24.32  0.001077924    1.938    0.484
       159  -8.7257    227.8375    201.9681   1.0644780183e+02   2.4351715720e+00    0.1956816    0.1287159 -33.20  0.001249794    1.884    0.469
       160  -8.6180     95.3750     52.7805   1.0221927798e+02   5.4510298239e+01    0.2163905    0.1433293 -29.65 0.0004655187    1.637    0.389
       161  -8.3503     33.0163     57.9880   1.3171997653e+02   6.2948192390e+01    0.1619693    0.1408148 -57.45 0.0009688568    1.029    0.028
       162  -8.4498     30.8375     62.1066   1.3372837313e+02   6.2114718693e+01    0.1836926    0.1387126 -40.80 0.0002387568    1.287    0.223
       163  -9.4047    149.7638     47.0094   8.4512250286e+01   4.1996420105e+01    0.2117063    0.1320967 -29.76 0.0006949283    1.650    0.394
       164  -8.2168     63.1975     46.6060   1.1320678937e+02   6.1910740971e+01    0.1861827    0.1357172  18.70 0.0002577922    1.503    0.335
       165  -9.3197    230.9599    198.7731   1.0538631294e+02   2.3445129509e+00    0.2575997    0.1750773 -26.84  0.001096167    1.632    0.387
       166  -8.4528    149.4468     34.4942   8.0077077790e+01   4.3863915294e+01    0.1534467    0.1479163  54.57 7.480088e-05    1.006    0.006
       167  -8.2300    128.0000     34.0139   8.4661212775e+01   4.9738594388e+01    0.2396839   0.08965327 -28.87  0.000339585    2.795    0.642
       168  -9.1627    237.4224    243.7740   1.1116432921e+02  -2.9039129230e+00    0.2183427    0.1084586 -26.42  0.001137904    2.235    0.553
       169  -9.1536    239.8922    240.7697   1.1035094605e+02  -2.9363303636e+00    0.1720594    0.1343428  -5.57  0.001352514    1.463    0.316
       170  -8.5106    181.4614     32.0247   7.3827767939e+01   3.5488546719e+01    0.2249904    0.1446135 -25.40 0.0009181164    1.578    0.366
       171  -9.4786     55.3154     30.5943   1.1035270514e+02   6.6517954071e+01    0.2448959    0.2117791 -40.21 0.0006064031    1.154    0.134
       172  -8.6460     83.3287     27.9387   9.6041719740e+01   6.1690933166e+01    0.2091684    0.1875144 -10.04 0.0005857723    1.087    0.080
       173  -8.9685     42.1880     27.8990   1.1652920247e+02   6.8941813836e+01    0.1869504    0.1796757 -48.45 0.0003345481    1.201    0.167
       174  -8.3017      8.9773     27.0042   1.3784060969e+02   7.1882521880e+01    0.1497037    0.1217444 -53.60 0.0009649073    1.011    0.011
       175  -8.7033      4.5558     27.3390   1.4089993021e+02   7.1948948788e+01    0.1680165   0.09225366 -59.50  0.000768302    1.427    0.299
       176 -10.2034    136.8226     24.8274   7.8962254781e+01   4.8576848184e+01    0.4009507    0.2141282 -23.85  0.001225402    1.998    0.500
       177  -8.4862    118.9101     24.4864   8.2969211441e+01   5.3474111237e+01    0.2231212    0.1437598  57.11 -7.610652e-06    1.454    0.312
       178  -8.0707     68.4769     23.4817   1.0020701713e+02   6.5523476579e+01    0.1450462    0.1299427   2.81   5.3657e-05    1.024    0.023
       179  -9.2584      7.7158     23.0244   1.3766282078e+02   7.2852322204e+01    0.1836949    0.1604541 -34.50  0.000328044    1.123    0.110
       180  -9.0636    178.5152     22.4600   7.1148514751e+01   3.7375237976e+01    0.1451336    0.1393522  86.24 3.422756e-05    1.011    0.011
       181  -9.3600     84.2344     21.1993   9.2315491959e+01   6.2558534969e+01    0.3402584    0.2452585  70.41  0.001591127    1.844    0.458
       182  -9.6542     97.1383     20.9243   8.7612272885e+01   5.9544005115e+01    0.2346727    0.2179276  25.58 0.0002978671    1.011    0.011
       183  -8.4216     59.7744     20.9772   1.0316896189e+02   6.7588866567e+01    0.1804771    0.1101569 -36.81 0.0003328314    1.589    0.371
       184  -9.0362    202.1377    243.2540   1.1699836309e+02   1.5511238796e+00    0.1593358    0.1445172  57.77  0.001230337    2.089    0.521
       185  -9.6009    155.5466     15.7218   7.2095158682e+01   4.4411878002e+01    0.2752274    0.1537791 -13.19  0.001132006    2.088    0.521
       186  -8.7375     23.3723     15.8922   1.2354705017e+02   7.3493095075e+01    0.1802999    0.1372004 -41.78 0.0004269945    1.118    0.105
       187  -7.9926      2.6267     15.7870   1.3946329752e+02   7.4665144376e+01    0.1242093   0.06931482 -35.35 0.0004306174    1.582    0.368
       188  -9.1191    169.8356    241.2099   1.2255218221e+02   6.0841391676e+00    0.2549861    0.1561098  -4.96  0.001541206    2.242    0.554
       189  -8.5239    214.1719    241.1505   1.1464817519e+02   2.0966396005e-01     0.138472    0.1066822  26.43 0.0009903972    1.362    0.266
       190  -9.5387     29.6337     13.0556   1.1750336425e+02   7.3466120869e+01     0.216596    0.1780322   6.86 0.0003082313    1.211    0.175
       191  -8.4623    248.3558    240.2218   1.0893631655e+02  -3.8870836886e+00    0.1199544   0.08315515 -18.56 0.0006257689    1.646    0.392
       192  -8.0327     34.4822     10.4612   1.1254897811e+02   7.3397862247e+01    0.1326995      0.11168 -17.12 7.504434e-05    1.013    0.013
       193  -9.6205     17.6096    248.1154   1.5179786951e+02   2.3352314812e+01    0.1749807   0.08642289  44.51 0.0005183104    1.313    0.239
       194  -7.7584    225.3419    239.6649   1.1256735282e+02  -1.0592340466e+00   0.09463455   0.07496225  35.97 0.0007050658    1.760    0.432
       195  -9.6438    206.5586    237.2440   1.1543166498e+02   1.5869034061e+00     0.293852    0.1749332  40.76  0.001882284    1.760    0.432
       196  -9.8304    189.7776    234.8436   1.1809439175e+02   4.0926949013e+00    0.2642503    0.2426735 -66.55  0.002017244    2.034    0.508
       197  -8.3849    236.7619    235.7294   1.1014071029e+02  -2.1091533427e+00    0.1277565   0.07935269 -34.96 0.0008641988    2.365    0.577
       198  -9.1147    215.8472    234.7814   1.1348970822e+02   6.2190218724e-01    0.1538703    0.1528294 -75.82  0.001235019    2.086    0.521
       199  -9.0671    240.4577    232.4504   1.0907145566e+02  -2.2642004652e+00    0.1712699     0.151391  41.32  0.000822067    2.224    0.550
       200  -8.9088    202.0719    231.5978   1.1544999719e+02   2.7780772845e+00    0.2024642    0.1420375  -6.04  0.001437787    1.438    0.305
       201  -9.2071      1.6010    230.6810   1.5431547194e+02   2.7471441321e+01    0.1390092    0.1075482 -70.09 0.0006065951    1.757    0.431
       202 -10.5048      6.2921    227.8557   1.5340378183e+02   2.7553386908e+01    0.3284408   0.09265073  37.27  0.001879577    2.186    0.543
       203  -8.8470    145.7208    230.0623   1.2585000682e+02   1.0838906758e+01    0.1573694    0.1241894  31.66  0.000464342    1.088    0.081
       204  -8.5168    138.6923    228.4443   1.2705841986e+02   1.2052876846e+01    0.1702901     0.110168 -48.48  0.001089958    2.076    0.518
       205  -9.4693    184.5015    227.4826   1.1808216156e+02   5.6687734485e+00    0.1951074    0.1126303 -35.32  0.001210793    2.164    0.538
