#   1 NUMBER                 Running object number                                     
#   2 MAG_AUTO               Kron-like elliptical aperture magnitude                    [mag]
#   3 X_IMAGE                Object position along x                                    [pixel]
#   4 Y_IMAGE                Object position along y                                    [pixel]
#   5 X_WORLD                Barycenter position along world x axis                     [deg]
#   6 Y_WORLD                Barycenter position along world y axis                     [deg]
#   7 A_WORLD                Profile RMS along major axis (world units)                 [deg]
#   8 B_WORLD                Profile RMS along minor axis (world units)                 [deg]
#   9 THETA_WORLD            Position angle (CCW/world-x)                               [deg]
#  10 FWHM_WORLD             FWHM assuming a gaussian core                              [deg]
#  11 ELONGATION             A_IMAGE/B_IMAGE                                           
#  12 ELLIPTICITY            1 - B_IMAGE/A_IMAGE                                       
         1 -11.6872    199.1126      4.8905   2.7833621462e+01   3.4683151704e+01    0.2089394    0.1654987 -34.79  0.001399057    1.396    0.284
         2 -10.0522     28.9413      1.4551   6.2378200812e+01   7.2691452949e+01    0.1737571    0.1010497  38.59 0.0007535598    1.553    0.356
         3 -11.6856     37.8161    243.1117   1.1307527575e+02   1.7897898398e+01    0.3562849    0.1927306  36.61  0.001205978    1.575    0.365
         4 -10.3735     70.2685    250.2844   1.0685769205e+02   1.2707157878e+01    0.3211944    0.1303784  31.27  0.001484553    2.169    0.539
         5 -11.1713    149.6998    222.8686   8.6224909634e+01   6.8070203110e+00    0.4386509    0.2126716 -53.95  0.001974737    2.540    0.606
         6 -12.6166    238.0627    218.7359   6.8321599943e+01  -4.6306148308e+00    0.4686138    0.3907802 -41.65  0.003246632    1.702    0.413
         7 -11.3232     36.0521    222.9516   1.1206179890e+02   2.2254440404e+01    0.2877177    0.1852265 -88.51 0.0008632821    1.527    0.345
         8 -12.3688     22.8382    218.3947   1.1466966307e+02   2.4618286104e+01    0.3855679    0.2189109  66.52  0.001365466    1.612    0.380
         9  -9.8901    111.6762    216.3463   9.3863933464e+01   1.3771841988e+01    0.1410698   0.09874611  62.60 0.0007049952    1.741    0.426
        10 -10.4059     76.2304    213.2153   1.0186193498e+02   1.9491096693e+01    0.2037301    0.1085306 -81.89 0.0008840192    2.487    0.598
        11  -9.5254    213.2949    211.6538   7.1467429746e+01  -4.5117367597e-01    0.1074718    0.1020805 -61.80 0.0005848177    1.670    0.401
        12 -10.5725    239.9020    205.6933   6.5748534484e+01  -2.9973622651e+00    0.2360291    0.1870555  62.95  0.001373846    2.746    0.636
        13 -11.0398     56.6395    205.3419   1.0573149510e+02   2.3789804500e+01    0.2232002    0.1363117  62.39  0.001118798    1.685    0.407
        14 -10.9366     18.6097    203.1854   1.1462337101e+02   2.8430212465e+01    0.3515048    0.1519904  56.21  0.001651505    2.167    0.539
        15 -10.9258     74.2947    201.0081   1.0089009852e+02   2.2497030282e+01    0.1956719    0.1795243  86.85  0.001180249    1.088    0.080
        16 -10.7628      5.9878    200.9861   1.1739031244e+02   3.0062319125e+01    0.1836139    0.1457403  71.19            0    1.031    0.030
        17 -10.0396    140.3702    200.2292   8.4675999455e+01   1.2611266884e+01    0.1897503    0.1355154 -61.86 0.0007754791    1.722    0.419
        18  -9.8314    124.6207    198.2975   8.8075874781e+01   1.5550922902e+01    0.1478169    0.1056217  61.21 0.0007023129    1.759    0.431
        19 -11.0730    160.3927    193.7097   7.8978585086e+01   1.0649027963e+01     0.266692    0.2493406  43.94 0.0007824267    1.230    0.187
        20 -10.5994    121.3108    188.1681   8.7193195385e+01   1.8290543247e+01    0.4012442    0.1784258  38.73  0.001588216    2.117    0.528
        21 -10.7343     34.2347    187.2418   1.0953400133e+02   3.0636241670e+01    0.2134796   0.09912413 -88.65 0.0008072889    2.442    0.590
        22  -9.7422    156.2990    186.6516   7.8595032051e+01   1.2733479405e+01    0.1375328    0.1157864  80.34 0.0004924042    1.685    0.406
        23 -10.3804     94.6160    186.4320   9.3692171824e+01   2.2951502766e+01    0.2759412    0.1373044 -76.85 0.0009530003    3.343    0.701
        24  -9.8452    174.3200    183.6463   7.4051347707e+01   1.0295087210e+01    0.1346197    0.1152144  86.60 0.0007046842    1.750    0.429
        25 -10.1117    211.0000    181.9860   6.6427228954e+01   4.7174227897e+00    0.2218996   0.06779581 -40.61 0.0008090893    2.989    0.665
        26 -10.7737     44.6475    182.2923   1.0632614655e+02   3.0705230216e+01    0.2619606    0.1474157  43.86   0.00126539    1.684    0.406
        27 -10.5278    147.3916    179.6148   7.9320574318e+01   1.5713911873e+01    0.2815796    0.1375977 -62.16 0.0009569515    3.405    0.706
        28 -10.8636    191.7977    177.5216   6.9237671870e+01   8.5478831795e+00    0.3357315    0.1795052 -44.69  0.001539707    1.862    0.463
        29 -10.3778    101.0073    175.9917   9.0316921412e+01   2.4415991355e+01    0.2039621    0.1973624  50.86            0    1.012    0.011
        30 -11.2476     76.6608    174.8489   9.6708169409e+01   2.8419755776e+01     0.386753    0.2557063 -77.52  0.001813356    1.679    0.404
        31 -10.1233     12.8163    176.5989   1.1411864052e+02   3.5260160395e+01    0.1810308    0.1015627  42.55 0.0007729933    1.704    0.413
        32 -11.5152    120.5823    172.2219   8.4516457840e+01   2.2020400166e+01    0.5074986    0.2700079 -41.56   0.00162329    2.030    0.507
        33 -10.1016    206.5037    170.9975   6.5097255416e+01   7.3311681318e+00    0.1869851    0.1138219 -58.52 0.0008106324    2.594    0.614
        34 -10.0051    192.3808    166.1962   6.6834129297e+01   1.0551841871e+01    0.2042128     0.124417 -48.26 0.0009576391    1.731    0.422
        35 -10.3325    138.8685    164.7614   7.8438081648e+01   2.0454920792e+01    0.2849153    0.2065561 -81.37  0.001216178    2.109    0.526
        36 -10.4942     79.4917    163.8267   9.4167663553e+01   3.0753765679e+01    0.4283424    0.2311697  77.49  0.001365251    3.864    0.741
        37  -9.5990    213.6618    164.3260   6.2444329024e+01   7.3517071240e+00    0.1268447    0.1067951 -70.09 0.0007051527    1.726    0.421
        38 -11.4325     14.4341    160.4095   1.1232955154e+02   3.9158137033e+01    0.3175916    0.2880176 -38.78  0.002029713    1.297    0.229
        39 -10.6662     92.9730    159.9998   8.9677078916e+01   2.9610120260e+01    0.2545844    0.1822431  68.92  0.001146936    1.742    0.426
        40 -10.3113    197.9785    158.4827   6.4139140232e+01   1.1024543154e+01    0.1861443    0.1257829  67.34 0.0008103845    2.651    0.623
        41 -10.3452    105.4358    158.1508   8.5848009233e+01   2.7977669415e+01    0.3002014    0.1933386  67.54  0.001195906    2.278    0.561
        42 -10.3218    236.8209    157.5945   5.7202704506e+01   4.8828039157e+00    0.1513716    0.1250478  53.09 0.0006126136    1.642    0.391
        43 -10.1034    171.0127    156.9886   6.9327468962e+01   1.6163652370e+01    0.1807901    0.1683051 -12.35 0.0007529454    1.011    0.011
        44 -10.2421    218.9583    155.9769   5.9810710422e+01   7.9465265447e+00    0.2112959    0.1781964 -26.84 0.0006793407    1.026    0.025
        45 -11.5462    118.9374    154.0437   8.1343536966e+01   2.6565454390e+01    0.5480068    0.3214611 -71.28  0.002025248    2.623    0.619
        46 -10.4485    244.1201    155.1454   5.5595545833e+01   4.1957533008e+00    0.1974867    0.1504136 -16.56  0.001029837    1.215    0.177
        47 -10.0032     42.9733    155.4967   1.0354318480e+02   3.7679328005e+01    0.2008913    0.1389472  29.19 0.0005144948    1.540    0.351
        48 -11.5915    107.7279    146.0960   8.2741159910e+01   3.0507995021e+01    0.6674614    0.3340031  60.19  0.002027247    3.818    0.738
        49 -10.8283    148.8048    145.1813   7.1791789286e+01   2.2901722396e+01    0.3985897      0.27445 -83.07  0.001557216    2.614    0.617
        50 -10.5367     55.4886    145.5090   9.8253431480e+01   3.8787333072e+01    0.2630452     0.138871 -79.35 0.0009548012    2.298    0.565
        51 -11.0199    125.2091    143.4711   7.7375405843e+01   2.7879485736e+01    0.3832085    0.2785188 -85.87  0.001619403    2.051    0.512
        52 -10.8267     87.8616    143.7531   8.8022279514e+01   3.4515937977e+01    0.3053593    0.2045547  89.05  0.001243574    2.171    0.539
        53 -11.2831     21.5970    139.0968   1.0795228288e+02   4.4041373007e+01    0.4295585     0.309319  16.42  0.001057208    1.627    0.386
        54 -10.2742      1.4171    135.9897   1.1388540684e+02   4.6292038082e+01    0.2021152     0.108793 -77.20 0.0004957121    1.562    0.360
        55 -11.7632     83.5468    132.2783   8.6935656066e+01   3.8124579138e+01    0.5604193    0.3262312 -81.41  0.001976177    2.911    0.656
        56 -10.3349    131.9711    131.4800   7.2798969273e+01   2.9314327386e+01    0.3134592    0.1992169 -83.73  0.001029807    3.448    0.710
        57 -11.6472     98.5030    126.6078   8.1044981390e+01   3.6945846435e+01    0.8385634    0.3873851 -64.89  0.002633925    3.294    0.696
        58 -10.4684     59.2808    124.4989   9.3182800309e+01   4.3757121233e+01    0.4649475    0.2527551  83.26  0.001447182    4.095    0.756
        59 -11.7001     43.7407    123.2044   9.8231963864e+01   4.6021628253e+01    0.6453189    0.3685144  84.76  0.002540441    2.619    0.618
        60 -10.1789    117.3784    125.2284   7.5213411032e+01   3.3677064617e+01    0.2286567    0.1474916 -59.19   0.00071898    1.726    0.421
        61 -10.1996    112.6553    133.3356   7.8493276351e+01   3.2677445002e+01    0.1631978    0.1248081  79.33 -3.65549e-05    1.769    0.435
        62 -10.8308     28.5254    123.0347   1.0344295425e+02   4.7619170141e+01    0.3923437     0.171391  74.52  0.001043078    6.057    0.835
        63 -11.5241    158.4454    120.9710   6.3773338653e+01   2.6105473149e+01    0.4293374    0.2467507 -56.67  0.001705115    2.095    0.523
        64 -11.3534    141.1169    117.8347   6.7072694452e+01   3.0445454482e+01    0.4939203    0.2161549 -52.44  0.001680083    2.617    0.618
        65 -11.0152    130.5841    118.3007   6.9878957543e+01   3.2565010557e+01    0.3979514    0.2437008 -68.86  0.001452665    2.593    0.614
        66 -10.6863      2.3922    116.5834   1.1155785090e+02   5.1188907080e+01    0.2716833    0.1036049  88.08 0.0009549151    3.467    0.712
        67 -11.0545    108.7590    113.5968   7.4727095897e+01   3.8098016035e+01     0.558333     0.297522 -64.52  0.001902035    2.853    0.650
        68 -11.4472     92.4613    112.0921   7.9322673273e+01   4.1567296892e+01    0.6969814    0.3643219 -66.52  0.002376784    2.904    0.656
        69 -10.8298     78.9211    112.6816   8.3889416859e+01   4.3790180895e+01    0.5059561    0.3092508 -89.51  0.001700831    3.448    0.710
        70 -11.5133    122.1751    110.5426   7.0100196485e+01   3.6051851261e+01    0.6840521     0.289855 -45.73  0.002406985    2.320    0.569
        71 -10.6392    159.4095    111.1394   6.1075482766e+01   2.7905661886e+01    0.3783653    0.1291031 -48.88   0.00115347    3.273    0.694
        72 -11.5847     14.4271    110.2672   1.0646911732e+02   5.2054645743e+01    0.5845912    0.3541271  86.22  0.002833256    1.878    0.467
        73 -12.7961    112.1872    101.4031   7.0410145896e+01   4.0162110009e+01     1.314507    0.4496824  50.93    0.0038075    3.737    0.732
        74 -12.5003     63.9326    100.2903   8.5985883717e+01   4.9193572197e+01    0.6158909    0.3497888 -59.49 0.0008181532    1.796    0.443
        75 -11.6168     45.9308    102.9148   9.3314888027e+01   5.0966145533e+01    0.7402714    0.3703549  65.37  0.002109255    5.462    0.817
        76 -10.6853    139.8298    105.2822   6.4086459031e+01   3.3387449700e+01    0.2505817    0.2016237  75.20 0.0009637473    1.509    0.337
        77 -10.3590     81.8398    100.2462   7.9657315216e+01   4.6288490543e+01    0.2536631    0.1683266  77.78 0.0009471751    2.788    0.641
        78 -11.0292      7.3271    103.4031   1.0807498806e+02   5.4257415255e+01    0.3717279    0.2254937  70.64  0.001831565    2.031    0.508
        79 -10.1005     44.7978     94.6085   9.1798520616e+01   5.3161799826e+01    0.1846289    0.1315357  38.12 0.0002159189    1.540    0.351
        80 -10.2331     18.1361     93.4543   1.0220120881e+02   5.6037438521e+01    0.2101528    0.1732612 -87.81 0.0005348423    1.313    0.238
        81 -10.9479     34.6986     90.0131   9.4732617125e+01   5.5413807723e+01    0.4105042    0.1985003 -75.28  0.001530765    2.955    0.662
        82 -10.9357     86.5289     86.9042   7.4199261770e+01   4.8464845891e+01    0.4814434    0.3080248 -81.64  0.001660865    3.492    0.714
        83 -10.2884     79.7990     87.8848   7.6813548987e+01   4.9486240766e+01    0.2256808    0.1963434 -16.04 0.0003316836    1.180    0.152
        84 -10.8938     49.2794     85.3803   8.7620735791e+01   5.4817388680e+01    0.5334291    0.2816628  62.36  0.001623078    5.023    0.801
        85 -11.5765    105.0322     83.6999   6.7297434263e+01   4.5431879865e+01    0.4698111    0.2904747 -69.84  0.001711819    2.891    0.654
        86 -10.0679    119.3178     80.6765   6.2284234860e+01   4.2921233582e+01    0.1541977     0.121543 -82.12 0.0003302998    1.670    0.401
        87 -10.6757     62.7949     74.5147   7.8969000070e+01   5.5306116095e+01    0.4110332    0.2046361 -63.00  0.001448172    3.242    0.692
        88 -11.3521     82.2604     72.5252   7.1078513630e+01   5.2298756026e+01    0.4410257    0.2628914 -59.77  0.001803744    2.314    0.568
        89 -11.6316     41.7392     67.7341   8.5596318987e+01   5.9782998324e+01    0.7280602    0.2590013 -60.19  0.002382289    3.843    0.740
        90 -11.7152     38.2065     65.4154   8.6443626770e+01   6.0719266602e+01    0.4545888    0.3374639 -75.64  0.002354848    1.865    0.464
        91 -10.2474    105.8151     72.0174   6.3339889362e+01   4.7561148479e+01    0.2484452    0.1751842 -69.03  0.001038462    2.043    0.510
        92 -10.4032     95.2295     72.2337   6.6651144088e+01   4.9771514779e+01    0.2394828    0.1163327 -51.41 0.0008875246    2.457    0.593
        93 -10.4855     51.1790     69.7505   8.2159923992e+01   5.8085180302e+01    0.4273703    0.2385892 -71.89  0.001504638    3.769    0.735
        94 -10.1058    179.0063     69.9844   4.6491423451e+01   3.0962281700e+01    0.2044493    0.1848264 -70.32            0    1.049    0.047
        95 -11.5794      7.5576     65.1459   1.0084427364e+02   6.3522533100e+01    0.4254223    0.2588637  32.42  0.001622674    1.935    0.483
        96  -9.6020    194.3148     62.3148   4.2234307018e+01   2.8695456747e+01    0.1290173      0.10703  20.66 0.0007035185    1.643    0.391
        97 -10.1353    217.4695     60.1111   3.8810740132e+01   2.4061964367e+01    0.1817057    0.1545815 -84.73 0.0003160594    1.165    0.142
        98 -12.1961     25.3127     58.6146   9.0365001638e+01   6.3587482963e+01     0.611671    0.2880345 -61.37  0.002694577    2.326    0.570
        99 -11.8046     20.8491     51.7217   9.0379972888e+01   6.5469830125e+01    0.5688145    0.3378628 -66.30  0.002834223    2.102    0.524
       100 -11.3400     49.6345     52.6441   7.6826724866e+01   6.1790217361e+01     0.379188    0.2216336  42.61  0.001435717    1.921    0.479
       101 -11.5857     31.2349     51.8734   8.5185625166e+01   6.4370329010e+01    0.3469646     0.277211  80.03  0.001893691    2.086    0.521
       102 -12.8442      9.7332     49.1528   9.5414378153e+01   6.6909682179e+01    0.3814107     0.252205 -28.15 0.0009814386    1.343    0.255
       103 -10.2015    147.5193     43.4821   4.4366171399e+01   4.2352072799e+01    0.1399378    0.1284623 -88.67 0.0008097346    1.043    0.041
       104 -10.7176      5.0023     41.5271   9.5633328948e+01   6.8813154907e+01    0.3307463    0.1757012 -79.54  0.001397257    3.606    0.723
       105 -10.1939     57.4890     41.4708   6.8955323268e+01   6.2518015833e+01    0.2284356    0.1248388 -49.17 0.0007817913    2.284    0.562
       106  -9.6021     45.4900     35.4955   7.1695832784e+01   6.5464164365e+01    0.1300821    0.1155141   1.26 0.0008093052    1.081    0.075
       107 -10.3682     72.3308     31.6756   5.9020619668e+01   6.1220393861e+01    0.1275064    0.1088175 -81.35 0.0005102378    1.703    0.413
       108  -9.4701    179.6912     26.3011   3.4895983750e+01   3.6806345474e+01    0.1361359   0.08581932 -66.54 0.0002558854    1.601    0.375
       109  -9.8666    108.9484     26.4905   4.6437468965e+01   5.3767964499e+01    0.2086058    0.1240878  60.60 0.0009984031    1.542    0.352
       110 -10.4979     37.2371     25.8250   7.1244339568e+01   6.8239680260e+01    0.2727909    0.1582174  28.49  0.001337998    1.634    0.388
       111 -11.4461     64.1732     21.9073   5.7607805120e+01   6.4108550242e+01    0.2743976    0.2575059  53.14 0.0009410958    1.280    0.219
       112  -9.8176    137.0043     20.9777   3.9140613191e+01   4.7612494128e+01    0.1555165    0.1419864  77.44 0.0003046492    1.022    0.021
       113 -11.1108     32.8358     19.4871   7.0369645509e+01   6.9821274503e+01    0.2301722     0.204766   9.67 0.0006321488    1.211    0.174
       114 -10.7341    123.0265     17.8289   4.0479831524e+01   5.1325201639e+01    0.3438197    0.1455427  54.90  0.001274163    2.023    0.506
       115 -10.6861    150.2410     16.3986   3.5782950937e+01   4.4871566048e+01    0.2256693    0.1696625  -5.36  0.001274776    1.736    0.424
       116 -11.7916    213.7501    247.1747   7.7221994495e+01  -5.6436368400e+00    0.3121156    0.1762879  -5.64  0.001766635    1.881    0.468
