#   1 NUMBER                 Running object number                                     
#   2 MAG_AUTO               Kron-like elliptical aperture magnitude                    [mag]
#   3 X_IMAGE                Object position along x                                    [pixel]
#   4 Y_IMAGE                Object position along y                                    [pixel]
#   5 X_WORLD                Barycenter position along world x axis                     [deg]
#   6 Y_WORLD                Barycenter position along world y axis                     [deg]
#   7 A_WORLD                Profile RMS along major axis (world units)                 [deg]
#   8 B_WORLD                Profile RMS along minor axis (world units)                 [deg]
#   9 THETA_WORLD            Position angle (CCW/world-x)                               [deg]
#  10 FWHM_WORLD             FWHM assuming a gaussian core                              [deg]
#  11 ELONGATION             A_IMAGE/B_IMAGE                                           
#  12 ELLIPTICITY            1 - B_IMAGE/A_IMAGE                                       
         1 -11.7133    187.5857     29.0250   3.2436841551e+01   3.4790172176e+01    0.6026736    0.5443321  85.51  0.003412561    1.113    0.102
         2 -11.7664    174.2986     26.6684   3.3379564066e+01   3.8266966464e+01    0.7216549    0.4916788 -24.32  0.003800021    1.672    0.402
         3  -8.1818    120.0302      8.5042   3.5552927460e+01   5.3624830229e+01    0.2085758    0.1184969  65.78 0.0006259842    1.569    0.363
         4 -11.0065    207.3152      3.3409   2.4125604987e+01   3.3099717525e+01    0.4779231    0.2973862  49.49  0.002653398    2.073    0.518
         5  -8.3142     36.4729      2.4947   5.8018419345e+01   7.2001080722e+01    0.1194002    0.1009838   9.86 0.0003799881    1.032    0.031
         6 -12.8929    185.0441    216.7932   7.5347216336e+01   3.3264113716e+00     3.520851     1.083979 -51.87   0.01079749    6.594    0.848
         7 -11.9749    101.8220    249.7693   9.6258737121e+01   9.8634704565e+00    0.2206778    0.1942687   9.50 0.0003155166    1.362    0.266
         8 -14.8354     69.7851    183.6765   9.6230342500e+01   2.7582202346e+01     1.477172     0.514584  44.91  0.005727123    2.606    0.616
         9 -14.8992     65.1440    247.8048   1.0339117994e+02   1.4948060381e+01     0.677452    0.4551433   5.22   0.00375393    2.623    0.619
        10 -15.5428     34.9473    232.8772   1.0842911498e+02   2.1294147154e+01     1.167149    0.6069258  34.71  0.004726222    1.733    0.423
        11 -15.6539     93.4880    226.7331   9.5643266023e+01   1.5144759269e+01     1.558834    0.5391102 -58.15  0.006738436    3.168    0.684
        12 -19.0703     60.1043    219.4021   1.0216490889e+02   2.1041327851e+01     4.641639     3.988378  84.92   0.03153354    1.165    0.142
        13  -9.2379    141.7602    210.0863   8.3097157931e+01   1.1077832196e+01    0.2926452    0.2196826 -64.18 0.0006155782    1.649    0.393
        14  -9.2703    140.4207    204.3345   8.2520129879e+01   1.2359677639e+01    0.4356484     0.182053 -47.94  0.001830719    2.601    0.616
        15 -10.9316    196.6323    208.6376   7.1829684721e+01   2.8898289203e+00    0.3767166    0.2781134   9.81  0.002309224    1.296    0.228
        16  -7.6250    126.3616    207.0553   8.6003703356e+01   1.4065612303e+01    0.1988208    0.1606088  60.41 0.0006179199    1.321    0.243
        17  -9.1287     21.5804    244.7280   1.1166888208e+02   2.0451289585e+01    0.3173474    0.1546188  59.34   0.00191581    1.620    0.383
        18  -8.4797    157.4448    205.2255   7.9032085539e+01   9.4811187966e+00    0.2160206    0.1653247  33.45 0.0004223983    1.184    0.156
        19 -10.0083    204.4576    199.9959   6.8913560560e+01   3.0717249441e+00    0.3071695      0.21608  -7.00  0.001791258    1.480    0.324
        20 -11.4242    167.7243    221.8450   7.9502644514e+01   5.0807502186e+00    0.7990854    0.5613962 -17.17  0.002614307    1.654    0.395
        21  -9.0502    145.7267    196.9673   8.0207621565e+01   1.2898363064e+01    0.3336843    0.2304672 -36.69  0.001316913    1.609    0.378
        22  -9.5239    143.9117    190.9057   7.9611733626e+01   1.4371085406e+01    0.7061933    0.2556183 -44.23   0.00265754    3.037    0.671
        23  -9.6411    140.2636    185.3889   7.9498717478e+01   1.6083289569e+01    0.2796212    0.2527514  75.93 0.0002565073    1.253    0.202
        24  -9.2728    111.3452    244.5161   9.3816388945e+01   9.4562120100e+00    0.1628261    0.1343504  16.91 0.0004184882    1.326    0.246
        25  -8.3967    134.9603    187.5506   8.1065009074e+01   1.6543791124e+01    0.2453817    0.1897696 -73.78 0.0006731615    1.596    0.374
        26 -16.5715     80.3764    223.0998   9.8096992711e+01   1.7652436798e+01    0.9970646    0.7396814 -72.23  0.006131089    1.479    0.324
        27  -8.8472      1.8481    183.0765   1.1276926305e+02   3.5129001580e+01    0.1925016    0.1453182 -84.67 0.0006213087    1.195    0.163
        28  -8.9607    164.5380    181.4741   7.3484233539e+01   1.2681825325e+01    0.2914277    0.1288338  39.48   0.00121093    2.173    0.540
        29 -12.0293    194.2847    230.5843   7.5741639059e+01  -3.0394355823e-02    0.7825454    0.4786366 -55.88  0.004217932    2.710    0.631
        30 -10.8352    120.2198    232.1382   9.0604059140e+01   1.0345569930e+01    0.3644819    0.2966633  -2.96  0.001329278    1.524    0.344
        31 -10.6635    158.7853    165.0000   7.1606815994e+01   1.6916863031e+01    0.7611068    0.5127937  83.55  0.003053537    2.981    0.665
        32  -8.6138    150.3021    158.0558   7.2123025345e+01   1.9912609942e+01    0.4859694    0.2622766  60.48  0.001784468    2.944    0.660
        33  -9.1510    155.1066    166.9792   7.2806908460e+01   1.7190179329e+01      0.20872    0.2062288   7.61 0.0005474961    1.045    0.043
        34  -8.8899    144.6325    161.7643   7.4167516629e+01   2.0191651501e+01    0.3964777    0.1923725  34.72  0.001216376    2.183    0.542
        35  -8.5437    167.4666    159.8547   6.8696404965e+01   1.6338793542e+01    0.2501418    0.1940169  40.51 0.0005086124    1.292    0.226
        36  -9.0983    158.0268    157.3432   7.0239207852e+01   1.8606588946e+01    0.3877026    0.2627656  66.08  0.001112966    2.096    0.523
        37 -10.9246    125.5437    230.1906   8.9259326261e+01   9.9160296486e+00    0.2849854    0.2574305  52.14 0.0005932734    1.132    0.117
        38 -10.1708      2.7673    150.6068   1.1056118925e+02   4.2714491581e+01    0.6197824    0.2966889 -85.60  0.003092863    1.800    0.445
        39  -8.4331    139.1907    232.9426   8.6798288491e+01   7.4559064737e+00    0.2040192    0.1526286  20.35 0.0004105116    1.304    0.233
        40  -8.8593      9.9302    152.0867   1.0872491941e+02   4.1814867717e+01    0.1946717    0.1642909 -88.60 0.0006719112    1.058    0.055
        41 -12.1611    176.7480    223.4103   7.7969370756e+01   3.5082835095e+00    0.8166802    0.5503656 -41.33  0.004903499    1.644    0.392
        42  -8.8957    149.1146    146.3225   6.9952025344e+01   2.2611474764e+01     0.413728    0.2187557 -64.91  0.001430343    3.174    0.685
        43  -8.0212    132.4316    232.3465   8.8104375782e+01   8.5394821405e+00    0.1808284    0.1191852 -45.43 0.0008258566    1.781    0.438
        44  -8.3315    143.3405    143.2722   7.0648938281e+01   2.4397265446e+01    0.1488767    0.1183331   2.48 0.0003172382    1.610    0.379
        45  -8.5665      2.9841    143.0070   1.0994150000e+02   4.4555689221e+01     0.207602    0.1273374 -48.21  0.001133794    1.834    0.455
        46  -8.3362    162.4765    139.9729   6.5550625872e+01   2.1294312622e+01    0.2301164    0.1421766 -43.54  0.001030308    1.586    0.370
        47 -10.1505      2.4822    132.4260   1.0923687180e+02   4.7198975780e+01    0.6377769    0.2528548 -82.81  0.002816379    2.222    0.550
        48 -10.4827    154.1985    217.8053   8.1632505400e+01   7.7855315787e+00     1.087682    0.4867719  41.04  0.004265508    2.026    0.506
        49  -9.0614    158.5874    134.8137   6.5248611138e+01   2.3137667791e+01    0.3459285    0.2112414  39.55 0.0008550696    1.710    0.415
        50  -9.3762    134.7795    223.0093   8.6401903446e+01   9.8168821645e+00     0.251703    0.1853165 -46.04 0.0009951331    1.555    0.357
        51  -8.6546    153.4318    131.1354   6.5566196119e+01   2.4958179008e+01    0.2735574    0.1952699  86.23 0.0007794154    2.166    0.538
        52  -8.9755    132.5149    220.4197   8.6530196163e+01   1.0620249622e+01    0.2197735    0.1818664  40.91 0.0005761582    1.082    0.076
        53 -10.3358    202.0131    216.3574   7.2101908742e+01   9.5361632709e-01     0.371742     0.174879  35.09  0.001903437    1.967    0.492
        54 -10.9216    121.5619    126.3362   7.2300117573e+01   3.2503471563e+01    0.5406194    0.4362303  13.80  0.002605022    1.543    0.352
        55  -9.4004     34.4061    117.7720   9.7333629977e+01   4.8270193773e+01     0.268884    0.1160405 -62.29  0.001053791    1.974    0.493
        56  -9.4438    108.2843    121.2936   7.4745901284e+01   3.6273457331e+01    0.2361459    0.2202573 -28.14 0.0004652435    1.157    0.136
        57 -10.3507     31.6588    121.9768   9.8882459963e+01   4.7474092606e+01    0.4114213    0.2431926 -17.63  0.001805406    2.699    0.629
        58 -10.8139    109.2155    113.5157   7.2595939688e+01   3.7910372715e+01    0.4655595    0.3800856 -29.17  0.002285575    1.388    0.279
        59  -8.1640    168.1646    113.3436   5.8074496790e+01   2.5477428162e+01    0.3047077    0.1908293 -65.81  0.001231342    2.248    0.555
        60 -10.0450     82.0213    113.1460   8.0689033699e+01   4.2988113541e+01    0.2772734    0.2231504 -75.85 0.0008052901    1.311    0.237
        61 -10.5731     94.0196    111.5376   7.6579341327e+01   4.1268150436e+01    0.3829191    0.2538333 -50.63  0.001741372    1.465    0.318
        62 -10.3495     94.3931    106.8639   7.5300948713e+01   4.2308812763e+01    0.3975323    0.2858518  11.26  0.001743431    1.977    0.494
        63 -11.3759     74.0875    106.8925   8.1789704548e+01   4.5821082868e+01    0.5999812     0.441306 -54.08  0.002979152    1.290    0.225
        64 -11.0128     79.2580    104.2984   7.9459366512e+01   4.5602781768e+01    0.6055732    0.3069001 -53.99  0.001300474    1.880    0.468
        65 -10.3996     50.2172    105.4203   8.9634106512e+01   4.9604079112e+01    0.4127517     0.264106  63.24  0.001332849    1.970    0.492
        66 -12.3240     60.4723    109.0077   8.6842271370e+01   4.7343116879e+01     1.164922    0.5199552  28.70  0.004551081    2.544    0.607
        67 -10.4604    204.9057    245.3464   7.5999730974e+01  -3.4131917723e+00    0.3477391    0.2965412 -77.79  0.002335934    2.403    0.584
        68  -8.1340      1.8449    106.2055   1.0690576136e+02   5.3751510165e+01    0.1813743    0.1265635 -53.73 0.0008490028    1.342    0.255
        69  -8.7281    240.5456    104.4176   4.3952176659e+01   1.2490248883e+01      0.29034    0.1702084 -12.33  0.001255625    2.881    0.653
        70  -9.8079     40.2428    103.1515   9.2733565947e+01   5.1351838622e+01    0.3812471    0.2372076  13.66  0.001508394    2.027    0.507
        71  -7.9976     63.7906     95.3896   8.2522207629e+01   5.0211682623e+01    0.1900894    0.1412824  16.52 0.0007908836    1.605    0.377
        72  -9.4072    146.2985    222.0303   8.3869036207e+01   8.2563157317e+00    0.4367323    0.2138032 -47.31  0.001590225    2.304    0.566
        73  -9.7844    151.7441     72.8338   5.0611596412e+01   3.6901190830e+01    0.3868972    0.2085518 -57.61  0.001487741    2.335    0.572
        74 -10.2491    157.1813     68.6507   4.8297404719e+01   3.6329705960e+01    0.3640182    0.2683163  37.97  0.001758986    1.586    0.369
        75  -9.2601    143.1178     63.4834   4.9633078743e+01   4.0591390328e+01    0.2764876    0.2270468  54.27 0.0006719374    1.217    0.178
        76  -8.7065    144.0330     59.6752   4.8266452856e+01   4.1008031875e+01    0.2422718    0.2133512 -43.48 0.0005077296    1.140    0.123
        77 -11.6586    161.7330     56.2390   4.3829290659e+01   3.7256371241e+01    0.6932865    0.6612002  79.92  0.004025456    1.065    0.061
        78 -11.5176    161.2854     49.6404   4.1965407327e+01   3.8368244181e+01     1.194812    0.4396025  52.19  0.004380299    2.721    0.633
        79 -12.1822    172.0335     47.9993   3.9752052362e+01   3.5991820233e+01      1.11412    0.7991116  35.83  0.005551045    1.794    0.442
        80 -10.6073    165.1012     42.8651   3.9345993945e+01   3.8409263377e+01    0.5711212    0.3973926 -49.03  0.001564885    1.396    0.284
        81  -7.5561    218.6966     51.6618   3.4642709739e+01   2.4744258556e+01    0.1223092    0.1034579  15.04 0.0007038852    1.671    0.401
        82  -7.9112    114.1526     49.1152   5.1700005998e+01   4.9870996911e+01    0.1880277    0.1638232 -67.49  0.001011397    1.254    0.202
        83  -7.4506    231.2869     47.3089   3.2336561343e+01   2.2694122832e+01    0.1124973   0.09972911  10.20 0.0003216086    1.573    0.364
        84  -8.4169    221.5329     40.0888   3.1621267617e+01   2.5698676868e+01    0.1929318    0.1103163 -38.88 0.0008558367    1.537    0.349
        85 -11.1833    181.3432    242.4860   7.9862713040e+01   4.5935880709e-02    0.4061237    0.3560095  80.23  0.002798097    1.883    0.469
        86 -10.2898    180.4983    182.9160   7.0454954461e+01   9.7049126189e+00    0.7090841    0.2619168 -46.86  0.002751562    2.905    0.656
        87 -10.7659    175.6160    241.3414   8.0776895242e+01   9.8604078988e-01    0.7172892    0.3420195  13.66  0.002871562    3.825    0.739
        88 -11.8592    172.0550    233.2625   8.0322346070e+01   2.6715436250e+00     1.113151    0.5996738  36.57  0.001189151    1.614    0.381
        89  -8.0399    160.2346     20.0596   3.3265583744e+01   4.2484154374e+01    0.1793996    0.1584593 -63.90 0.0003248303    1.090    0.082
