#   1 NUMBER                 Running object number                                     
#   2 MAG_AUTO               Kron-like elliptical aperture magnitude                    [mag]
#   3 X_IMAGE                Object position along x                                    [pixel]
#   4 Y_IMAGE                Object position along y                                    [pixel]
#   5 X_WORLD                Barycenter position along world x axis                     [deg]
#   6 Y_WORLD                Barycenter position along world y axis                     [deg]
#   7 A_WORLD                Profile RMS along major axis (world units)                 [deg]
#   8 B_WORLD                Profile RMS along minor axis (world units)                 [deg]
#   9 THETA_WORLD            Position angle (CCW/world-x)                               [deg]
#  10 FWHM_WORLD             FWHM assuming a gaussian core                              [deg]
#  11 ELONGATION             A_IMAGE/B_IMAGE                                           
#  12 ELLIPTICITY            1 - B_IMAGE/A_IMAGE                                       
         1 -14.6943    239.5267     94.6742   6.4882420482e+00   1.6355587074e+01     1.601183    0.9505431 -67.08  0.008371397    2.556    0.609
         2 -16.0250    229.5154    112.0398   1.1294609521e+01   1.5408022429e+01     2.728341     2.297028  87.51   0.01817876    1.628    0.386
         3 -16.5916    246.6662    110.8554   8.9604309988e+00   1.2972610119e+01      5.98952    0.8034556 -36.57   0.01781299    5.478    0.817
         4 -15.8231    248.5192    127.8913   1.2068523665e+01   1.0301088419e+01     1.277975    0.3217222 -35.14  0.005062782    3.190    0.687
         5 -14.4512    226.2735     89.0207   6.8032979012e+00   1.9360532298e+01     2.935853    0.6935165 -33.69  0.006013752    3.939    0.746
         6  -9.5142    196.6003     11.7881   3.5147985118e+02   3.5187241690e+01    0.1837191   0.08648104 -42.38 0.0009507823    1.712    0.416
         7  -9.0042    214.3102      7.3332   3.4933326300e+02   3.1970099700e+01    0.1026583   0.08943894  32.28 0.0007043064    1.675    0.403
         8  -9.5955      4.2336      2.8681   4.5543518012e+01   7.8883852590e+01    0.2480876    0.1777749 -22.38  0.001550212    1.259    0.206
         9  -8.9492    246.0900    224.0000   2.8972332007e+01  -2.1772980773e+00    0.2266645   0.08753331  27.90 0.0009791801    2.584    0.613
        10  -8.7844    242.4651    221.8946   2.9196743832e+01  -1.5856858407e+00    0.1531969    0.1236845 -10.12 0.0006560821    1.313    0.239
        11  -7.6846    134.5193    224.5298   4.9450194085e+01   1.0299981150e+01    0.1257091    0.1036428  11.41  0.000809178    1.046    0.044
        12  -8.0350    207.3648    223.6246   3.5122545403e+01   1.7745188989e+00    0.2020554   0.09154655  32.32  0.001123026    2.172    0.540
        13  -9.2633    250.1850    220.4410   2.7833084163e+01  -2.1395443293e+00    0.1945032    0.1496589   3.76  0.001232974    1.279    0.218
        14 -10.3641    211.7727    219.8726   3.3799756087e+01   1.8001465078e+00    0.2156495    0.1680943  -7.76 0.0003325362    1.081    0.075
        15 -15.5529    205.4273    148.3909   2.2328282892e+01   1.3421970944e+01     3.291989      2.71234  11.16   0.01629159    1.266    0.210
        16 -13.7436    218.1125    114.0272   1.3250270959e+01   1.6944139422e+01    0.8495128    0.4773802  61.00  0.001602625    2.544    0.607
        17 -14.9158    218.4601    140.5581   1.8679510351e+01   1.2716355742e+01     1.393737    0.6515434 -49.56  0.006322841    2.555    0.609
        18 -14.2831    213.4933    170.3260   2.5181562606e+01   8.7725498464e+00    0.8142383    0.7173194  26.45  0.004423145    1.359    0.264
        19 -14.8592    231.2761    167.8545   2.1924909995e+01   6.8264628318e+00     1.571288    0.6966771 -41.58  0.008130812    2.076    0.518
        20 -14.7010    223.8906    121.8587   1.4084516348e+01   1.4799185994e+01     1.495832    0.6054507  51.65   0.00683477    3.186    0.686
        21  -8.3197    196.9928    247.0244   4.0265588570e+01  -1.8867955613e-01    0.1405453    0.1242056  21.59 0.0005375054    1.584    0.369
        22 -14.4728    244.3946    170.4925   2.0484542536e+01   4.8556452974e+00     2.915599     0.707023  33.38   0.00371074    6.030    0.834
        23 -15.1689    239.4142    161.4549   1.9572422904e+01   6.7220091949e+00     1.247187    0.5513809 -48.05  0.005827962    2.984    0.665
        24  -9.6517    249.0703    244.0149   3.1438569610e+01  -4.7015263017e+00    0.1908786    0.1011511 -16.42 0.0009846378    1.488    0.328
        25 -16.2047    247.1536    149.9796   1.6405043514e+01   7.3679892132e+00     1.249182    0.6539646 -36.62  0.007400684    1.510    0.338
        26 -15.2888    240.3436    124.9251   1.2511777036e+01   1.1871807590e+01    0.7584088    0.3807915 -39.12  0.003966028    1.581    0.368
        27  -8.4692    210.4186    239.1520   3.6863725550e+01  -5.5669144466e-01    0.1327094    0.0946129 -38.75 0.0009408179    1.753    0.430
        28  -7.7183    194.4436    238.4910   3.9546477875e+01   1.1785098190e+00    0.1127279   0.08419688   0.53 0.0001897175    1.010    0.010
        29  -8.4953    201.6981    217.8755   3.5238192250e+01   3.1910466537e+00    0.1782238    0.1502607 -35.03 0.0007520172    1.506    0.336
        30  -7.2640    175.3085    216.3268   3.9895392461e+01   6.5395565882e+00    0.1260287   0.07997482  -7.18 0.0007038431    1.656    0.396
        31  -8.7995    177.9433    213.7234   3.8989454358e+01   6.6177899865e+00     0.274754    0.2092745  50.86  0.001673459    2.000    0.500
        32 -10.7182    196.1040    212.7832   3.5448876197e+01   4.5647755417e+00    0.2479491    0.2085258  -3.62 0.0002852386    1.144    0.126
        33 -10.2939    212.9547    204.5425   3.1185206815e+01   3.7772458099e+00    0.4762984     0.308564 -42.80  0.001288151    1.772    0.436
        34  -9.7014    208.5670    207.0128   3.2333170549e+01   3.9358369029e+00    0.2150418    0.1815528  23.87  0.000409531    1.426    0.299
        35  -9.2607    204.2078    205.2600   3.2808546508e+01   4.6993538224e+00    0.3351749     0.178103 -18.26 0.0003735041    2.031    0.508
        36  -8.7660    189.9695    206.0554   3.5507716618e+01   6.3084442573e+00    0.2303636    0.1766924  60.53  0.001178351    2.538    0.606
        37  -8.2083    186.2495    202.0011   3.5549104607e+01   7.4023382300e+00    0.1946461    0.1602792 -45.92  0.000356288    1.540    0.350
        38  -9.4325    196.7714    203.9718   3.3924659146e+01   5.7860013827e+00    0.5411834    0.3250926 -58.37   0.00258191    3.445    0.710
        39  -8.0743    195.4998    196.5481   3.2931813978e+01   7.0729120907e+00    0.1998588    0.1438193  34.06 0.0007588405    1.537    0.349
        40  -8.1796    167.3900    202.2436   3.9283066662e+01   9.8221020108e+00     0.165009    0.1180972 -50.18 0.0009550121    1.685    0.407
        41  -9.8315    160.2233    201.1364   4.0581069467e+01   1.0973071598e+01     0.256679    0.2167186  13.25 0.0002778879    1.070    0.065
        42  -8.1519    177.8463    197.8037   3.6476434532e+01   9.1681738414e+00    0.2066175    0.1687284 -70.36  0.001218705    2.060    0.515
        43  -7.5943    124.4834    198.5047   4.8105653152e+01   1.6410657159e+01    0.1343434    0.1185839  10.25 -1.002321e-05    1.045    0.043
        44  -8.7347      4.5241    196.5186   7.8505219456e+01   3.0660900585e+01     0.227972    0.1179572  54.78 0.0005690882    1.615    0.381
        45  -9.1946    185.3781    192.0058   3.4049553852e+01   9.1110830483e+00    0.3531446      0.27129 -23.95  0.002238096    1.169    0.144
        46  -7.9994    140.8934    194.5299   4.3721217802e+01   1.4857743035e+01     0.193429    0.1203075  28.78 0.0004893583    1.488    0.328
        47  -8.5692    138.8937    199.7198   4.4978796823e+01   1.4164133590e+01    0.3074482    0.1906544 -69.83   0.00141656    2.743    0.635
        48  -9.9665    172.7164    191.0939   3.6370159494e+01   1.0986427431e+01    0.2297932    0.2070693 -30.05 0.0003142835    1.235    0.190
        49 -10.2915    178.8922    189.6164   3.4893271193e+01   1.0384304308e+01    0.3574117    0.2096249 -50.09 7.602156e-05    2.031    0.508
        50  -9.7557    167.6378    184.8583   3.6330231672e+01   1.2788599367e+01    0.3153727     0.218667 -49.97 0.0003088694    1.646    0.392
        51  -8.7282    134.3925    183.1443   4.3364820326e+01   1.8026278670e+01    0.2990218    0.1370329 -60.74   0.00113446    3.174    0.685
        52  -8.5807    145.4901    179.5010   4.0181490106e+01   1.7070450503e+01    0.1362712    0.1235834   2.07 0.0008106136    1.003    0.003
        53  -8.5081    169.5200    178.1434   3.4753026110e+01   1.3711047655e+01    0.1930438    0.1218074 -40.37 0.0006644177    1.534    0.348
        54  -9.6753    163.8860    176.7052   3.5663304512e+01   1.4813038872e+01    0.2582533    0.1903337 -47.04  0.001440318    1.449    0.310
        55  -8.9953    245.4931    235.0467   3.0690167767e+01  -3.3979650833e+00    0.1747344    0.1481477  22.41   0.00130032    1.839    0.456
        56  -9.8635    142.7616    169.3656   3.8991492251e+01   1.9509137269e+01    0.3488162    0.1635504 -48.79  0.001472627    2.173    0.540
        57  -9.8846    158.1949    169.2739   3.5511013345e+01   1.7081629486e+01    0.2444055    0.2257035  46.39  0.001480239    1.277    0.217
        58  -8.4124    159.5093    164.4804   3.4317997738e+01   1.7791374698e+01     0.239052    0.1300933 -55.60  0.001030585    2.317    0.568
        59  -8.8116    128.4725    168.0535   4.2170760816e+01   2.2066520933e+01    0.2130009    0.1383695 -49.08  0.001026103    1.575    0.365
        60 -14.0388    249.8083    186.3597   2.2447567671e+01   2.1248072614e+00     1.083683    0.4546878 -24.65  0.005700704    2.272    0.560
        61  -9.2488    130.4971    158.0012   3.9793332142e+01   2.3892347495e+01    0.2224734    0.1399303 -47.89 0.0009238797    1.596    0.373
        62  -9.5890    146.1169    156.0057   3.5654836917e+01   2.1680235085e+01    0.3987089    0.1631582 -37.21  0.001443955    2.806    0.644
        63 -10.9617    148.5648    150.6311   3.4004280915e+01   2.2362289323e+01    0.4168579    0.3459839  62.24  0.001335434    1.501    0.334
        64 -10.2953    138.7825    146.8302   3.5519417784e+01   2.4864430122e+01     0.432559    0.2194735 -65.34  0.001412229    3.805    0.737
        65 -10.3209    133.1286    146.9987   3.6939080337e+01   2.5824893719e+01    0.3565648    0.2149396 -51.66  0.001029331    1.698    0.411
        66 -10.7693    155.2507    140.6507   3.0393285212e+01   2.3209512967e+01     0.503774    0.2268435 -42.08  0.001505766    2.129    0.530
        67 -10.4567    156.5995    134.7923   2.8812280630e+01   2.4140088592e+01    0.4304991    0.2347985 -47.93  0.001699951    1.812    0.448
        68  -9.2885    146.9199    142.7798   3.2737968902e+01   2.4268305000e+01    0.2350778     0.171735  68.94  0.001088027    2.003    0.501
        69  -9.7422    141.2704    142.2639   3.3956830309e+01   2.5390562066e+01    0.2635805    0.1767313 -42.95 0.0009495298    1.452    0.311
        70  -9.3861    159.7627    140.2754   2.9326844837e+01   2.2477157769e+01    0.2979872     0.185955 -34.06  0.001189205    1.599    0.375
        71 -14.1239    221.2721    150.9006   2.0278574234e+01   1.0698208331e+01     1.346764    0.5291864 -29.49  0.001562318    2.648    0.622
        72  -8.7350    152.5023    121.0218   2.6548324716e+01   2.7687867467e+01    0.2810028    0.1375056 -40.20  0.001130745    1.975    0.494
        73 -10.8338    166.3398    136.0200   2.7011043687e+01   2.2129780193e+01    0.5390346    0.3405342 -56.66  0.001565578    1.897    0.473
        74  -9.0181    167.0191    129.6891   2.5464244571e+01   2.3224662465e+01    0.2838325    0.1982356 -34.17  0.001103333    1.365    0.267
        75 -11.0657    164.0090    124.1791   2.4825254363e+01   2.4849937967e+01    0.5013383    0.4127565 -69.55  0.001071678    1.473    0.321
        76 -10.7877    152.7456    128.9971   2.8356486903e+01   2.6025961346e+01    0.5183649    0.2778487 -33.61  0.002146994    2.038    0.509
        77 -10.0474    150.4888    125.9591   2.8161366297e+01   2.7074115541e+01     0.390357    0.2276976 -44.02  0.001238464    1.634    0.388
        78 -10.4355    137.7611    136.9498   3.3649595982e+01   2.7162915785e+01     0.403733    0.2535639 -35.34   0.00181194    1.679    0.405
        79 -11.0884    143.4644    126.3996   2.9885347785e+01   2.8331850175e+01    0.6657637    0.4225966 -14.30   0.00262616    2.578    0.612
        80 -10.8656    128.7213    127.4659   3.3771492699e+01   3.0930433523e+01    0.4323097     0.392661 -25.79  0.002320055    1.118    0.106
        81  -9.6777    136.8472    125.1600   3.1187495589e+01   2.9871773545e+01    0.2232409    0.2074672 -71.72 0.0007239106    1.163    0.140
        82  -8.4050    169.7562    121.4230   2.3023093145e+01   2.4289730212e+01     0.186709    0.1349966  31.59 0.0009409895    1.568    0.362
        83  -9.5103    176.4220    119.5329   2.1295750839e+01   2.3386992485e+01     0.320385    0.2124065   0.41  0.001392087    2.468    0.595
        84  -9.6167    157.1649    119.2844   2.5117022154e+01   2.7125137216e+01    0.3456317    0.1782335 -51.65  0.001197504    2.079    0.519
        85 -10.3616    146.1355    117.1490   2.7053943317e+01   2.9733233078e+01    0.3618167    0.3077513  37.98  0.001295652    1.234    0.190
        86  -9.9898    146.8491    113.0013   2.5868499500e+01   3.0440057108e+01    0.4043452    0.2227129 -31.34  0.001622071    2.131    0.531
        87  -9.9837    139.9952    116.2319   2.8271536924e+01   3.1151511856e+01    0.2827727    0.2116093 -43.06  0.001129432    1.286    0.222
        88  -9.0431    133.6037    116.1615   2.9818514754e+01   3.2447932656e+01     0.221459    0.1379403 -35.73 0.0003200662    1.701    0.412
        89  -8.5108    152.4966    113.0462   2.4616608445e+01   2.9291404037e+01    0.2323563    0.1385509 -42.35  0.001031044    1.584    0.369
        90  -9.4690    176.7043    111.1367   1.9275857123e+01   2.4868730650e+01    0.2606236      0.22361 -31.89 0.0003374464    1.088    0.081
        91  -9.1530    167.6641    110.5645   2.0858946439e+01   2.6742122594e+01      0.26753    0.2337999  -3.78 0.0009234095    1.277    0.217
        92  -9.2314    161.3263    109.3163   2.1823696855e+01   2.8243985322e+01    0.2992844    0.1639784 -58.66  0.001175055    2.435    0.589
        93  -9.0824    107.9683    110.5036   3.5358937211e+01   3.8832643903e+01    0.2376225     0.153273  40.50  0.001027913    1.575    0.365
        94  -8.6331    154.5523    107.2269   2.2719294805e+01   3.0025308426e+01    0.3394321     0.137962 -39.50  0.001193407    2.385    0.581
        95  -8.7936    133.7658    107.4287   2.7563522591e+01   3.4280591616e+01    0.2111253    0.1451399  33.04 0.0009465236    1.653    0.395
        96  -8.1978    170.3198    106.2920   1.9303449804e+01   2.7009373645e+01    0.1395566    0.1106731   1.26 0.0003640342    1.605    0.377
        97  -8.6214    141.4368    104.0135   2.4825626753e+01   3.3390443072e+01    0.2350778    0.1418582 -43.12  0.001023476    1.587    0.370
        98  -8.8198    174.2074    101.8979   1.7498774753e+01   2.7031786774e+01     0.333173    0.1806862 -32.63   0.00145875    1.867    0.464
        99  -8.7775    130.6280    103.1495   2.7223376480e+01   3.5841702628e+01    0.2206295    0.1389332 -34.72  0.000805078    1.709    0.415
       100  -8.9576    150.6997    100.6627   2.1864050100e+01   3.2111125286e+01    0.3355187    0.2466659   6.84  0.001519633    2.011    0.503
       101  -8.1400    152.4943     97.4601   2.0639174129e+01   3.2352330269e+01    0.2007191    0.1413364  40.55 -3.319018e-05    1.568    0.362
       102  -9.0897    160.8090     98.5410   1.9210538533e+01   3.0394137133e+01    0.3367736    0.2045317 -32.38  0.001194322    1.704    0.413
       103  -8.0986    167.7763     98.9472   1.7958824760e+01   2.8873808971e+01    0.2872768    0.1684779 -32.05  0.001284975    1.754    0.430
       104  -8.8373    171.0351     96.2156   1.6660813177e+01   2.8697453011e+01    0.2935771    0.2293592 -63.56 0.0008338594    1.394    0.283
       105  -8.9745    182.9251     96.2682   1.4590760251e+01   2.6278743479e+01    0.3443989    0.1736296  62.03  0.001455873    2.573    0.611
       106  -8.3342    164.5092     93.5299   1.7192729076e+01   3.0542370667e+01    0.2846513    0.1356705 -34.99  0.001022688    2.103    0.524
       107  -9.4352    165.5083     89.9950   1.6082820571e+01   3.0969036138e+01    0.2789545    0.2272044  63.85 9.271249e-05    1.342    0.255
       108  -8.3463    179.1877     84.0759   1.2162280730e+01   2.9111283000e+01    0.3397762    0.1528843 -40.40 0.0009827672    1.964    0.491
       109  -9.3159    181.9970     89.4735   1.3065363548e+01   2.7624256129e+01    0.2850165    0.2410381  24.54  0.001569869    1.448    0.310
       110  -8.5434    158.5667     89.8435   1.7374840292e+01   3.2482834788e+01    0.2883383     0.137211 -35.79  0.001142628    2.095    0.523
       111  -9.2300    142.7111     87.7670   2.0129318471e+01   3.6340582079e+01      0.30528    0.2353459 -45.01 0.0007772931    1.238    0.192
       112  -8.0154    151.3468     86.8486   1.8020834008e+01   3.4608375432e+01    0.2127392    0.1333366 -30.65 0.0006585973    1.731    0.422
       113  -7.9395    174.4906     86.5053   1.3569822449e+01   2.9682461855e+01    0.1419625    0.1272043 -50.76  0.000810495    1.022    0.022
       114  -9.2380    184.7425     80.5478   1.0389053494e+01   2.8539156465e+01    0.4294365    0.2520681 -52.96  0.001965118    1.708    0.414
       115  -8.5330    158.1185     80.6956   1.4980469362e+01   3.4228865444e+01    0.2741675    0.2201483  14.72 0.0008954853    1.664    0.399
       116  -8.1141    143.3166     79.3220   1.7589798329e+01   3.7795884306e+01    0.1472693    0.1187795   8.89 0.0004707585    1.663    0.399
       117 -15.3995    231.2404    130.7086   1.4861879825e+01   1.2338559508e+01    0.8990793    0.7374815  33.80  0.006162265    1.464    0.317
       118  -8.7496    150.3828     76.8062   1.5399972771e+01   3.6650755706e+01    0.2548387    0.2327902  20.89 0.0005346173    1.280    0.218
       119  -9.3724    183.4710     74.6210   9.0730459221e+00   2.9756208100e+01    0.2800553     0.233917  24.92  0.000408597    1.541    0.351
       120  -8.6225    179.9512     72.0525   8.9377042481e+00   3.0911199286e+01    0.3444224    0.1803531 -35.53  0.001569618    1.765    0.433
       121 -10.3626    189.9481     73.9317   7.9577149705e+00   2.8514504226e+01    0.2472052    0.2151043 -33.47 0.0003079919    1.147    0.128
       122 -10.2176    193.5455     72.2461   7.0392871639e+00   2.8035380137e+01    0.6082639    0.2808324 -27.51 0.0005675679    2.486    0.598
       123  -8.5773    208.0921     76.0596   6.0740314717e+00   2.4578588581e+01    0.2665224    0.1794923  50.21 0.0008629104    1.780    0.438
       124  -7.5913    134.3071     75.3059   1.8402099761e+01   4.0597258275e+01    0.1465373    0.1197925  10.93 0.0002897076    1.607    0.378
       125  -9.5870    201.8170     73.5226   6.2617831086e+00   2.6179116557e+01    0.2965928    0.1921039 -22.68  0.001098827    1.760    0.432
       126  -9.6988    200.5434     66.7405   4.7788688908e+00   2.7438248985e+01    0.2330777    0.2277411  43.30 0.0009521598    1.244    0.196
       127  -8.1565    181.6742     66.4782   7.2256386165e+00   3.1411610063e+01    0.2389413    0.1150013 -36.34 0.0008617308    1.876    0.467
       128 -15.9533    232.0941    177.3890   2.3501657056e+01   5.3602372522e+00     3.285561     2.297845 -33.45   0.02213584    1.280    0.219
       129  -8.0340    131.2993     63.3318   1.5363958443e+01   4.3455838226e+01    0.1464732     0.118289  13.73 0.0005782623    1.647    0.393
       130 -15.8098    232.6119    141.9536   1.6877958299e+01   1.0460210373e+01     1.280866     0.727591 -23.97  0.007133374    1.676    0.403
       131  -8.1576    192.9436     59.9472   4.0339271376e+00   2.9988062387e+01    0.2257308     0.136584 -60.05  0.001131714    1.710    0.415
       132  -8.7150    207.7747     52.5956   5.3661810095e-01   2.7970483831e+01    0.1900496    0.1843547 -33.58 0.0004325674    1.243    0.196
       133  -7.4374    183.6954     60.6448   5.4148528291e+00   3.1855546128e+01    0.1306057    0.1061316  10.35 2.770328e-05    1.715    0.417
       134 -10.1428    219.5061     51.1976   3.5905875157e+02   2.5860297389e+01    0.3537403    0.1866282  52.45  0.001857246    2.397    0.583
       135  -9.4717    216.8930     46.6909   3.5826052218e+02   2.6946564365e+01     0.285035    0.1612577 -28.70  0.001223645    1.739    0.425
       136  -8.1070    151.3064     44.3536   5.5535174686e+00   4.1647918066e+01    0.1388794    0.1093528  23.92 0.0007041969    1.715    0.417
       137  -9.3521    212.7345     28.4079   3.5433855469e+02   3.0005491662e+01    0.1875358    0.1482029  -7.66 0.0009199173    1.728    0.421
       138  -9.9756    227.0247     16.3239   3.5064573677e+02   2.8555645505e+01    0.1657097    0.1290445 -63.18  0.001174314    1.088    0.081
       139  -9.2606    218.7074    225.9927   3.3563484555e+01   2.6474120587e-01    0.2626617    0.2367753  87.41  0.001804569    2.761    0.638
       140 -15.5989    244.0311    137.1131   1.4401445157e+01   9.5992643016e+00    0.8228849    0.4336721 -44.89  0.004626077    1.806    0.446
       141 -12.7097    233.8256    224.0238   3.0841592030e+01  -1.0085455597e+00     0.275203    0.1903232  -8.75 0.0005390892    1.061    0.057
