#   1 NUMBER                 Running object number                                     
#   2 MAG_AUTO               Kron-like elliptical aperture magnitude                    [mag]
#   3 X_IMAGE                Object position along x                                    [pixel]
#   4 Y_IMAGE                Object position along y                                    [pixel]
#   5 X_WORLD                Barycenter position along world x axis                     [deg]
#   6 Y_WORLD                Barycenter position along world y axis                     [deg]
#   7 A_WORLD                Profile RMS along major axis (world units)                 [deg]
#   8 B_WORLD                Profile RMS along minor axis (world units)                 [deg]
#   9 THETA_WORLD            Position angle (CCW/world-x)                               [deg]
#  10 FWHM_WORLD             FWHM assuming a gaussian core                              [deg]
#  11 ELONGATION             A_IMAGE/B_IMAGE                                           
#  12 ELLIPTICITY            1 - B_IMAGE/A_IMAGE                                       
         1 -13.4762    221.7629      7.1301   3.5841861463e+01   2.8835109427e+01     1.251042     1.037404  48.37   0.00501302    1.467    0.318
         2 -14.3212    195.1419     38.1612   4.6845219493e+01   3.1634789990e+01     3.022961     1.782947  21.69   0.01223763    2.846    0.649
         3 -10.1332     79.0362     14.7645   6.1363933557e+01   6.4039415371e+01    0.4328313    0.2497337  77.06  0.001328231    2.970    0.663
         4 -10.0908    189.4993     14.7517   4.0550415862e+01   3.5734657654e+01     0.276936    0.1990905 -49.01 0.0007407558    1.279    0.218
         5  -9.9621     66.8011      2.3856   5.8668696090e+01   6.8290884310e+01    0.2041323    0.1095681  44.99   0.00095447    1.740    0.425
         6  -8.0505     87.3167    237.3212   1.0993983306e+02   1.6420512574e+01    0.1017307   0.08170889   4.86 0.0003278113    1.662    0.398
         7 -19.5119     13.3705    145.3305   1.2040460690e+02   4.2942407960e+01     18.55341     4.563525 -83.87   0.06486268    3.988    0.749
         8  -9.5593     58.6701    229.0529   1.1503874500e+02   2.1158656590e+01    0.1378983    0.1121159  62.72 0.0003431618    1.142    0.125
         9  -9.4375     39.8928    223.7098   1.1850915436e+02   2.4124295982e+01    0.1719515    0.1142405  46.94 0.0006847092    1.132    0.117
        10  -9.9917    161.9897    223.2414   9.3860316480e+01   8.6066173257e+00     0.164391   0.07972001  34.64 0.0008942758    1.645    0.392
        11  -8.5286     76.3305    223.4230   1.1105361730e+02   2.0058860902e+01    0.1089095   0.09028719  48.87 0.0001685428    1.074    0.069
        12  -9.4046     53.9563    221.4397   1.1551903580e+02   2.3017994570e+01    0.3196101    0.1046278  47.31  0.001530631    2.273    0.560
        13  99.0000     57.9919    220.1313   1.1460238908e+02   2.2797965293e+01    0.3734834    0.1628338  38.34   0.00206351    1.736    0.424
        14  -9.0126     81.1583    220.4451   1.0981302276e+02   1.9979281802e+01    0.2077006   0.09796632  31.03 0.0009703851    1.880    0.468
        15  -7.3729     48.7303    217.4203   1.1635277643e+02   2.4318680451e+01    0.2555979    0.1667056  11.38  0.001509917    2.243    0.554
        16  -9.9522     27.5397    214.8895   1.2060385031e+02   2.6967535341e+01    0.1902164    0.1399506  48.81  0.001384582    1.093    0.085
        17  -9.8022    184.4938    212.9573   8.8226153518e+01   6.8440289239e+00    0.1593988    0.1120486 -33.28 0.0009648059    1.608    0.378
        18  -9.7350     56.5290    209.5374   1.1418728139e+02   2.4907581913e+01    0.2808644    0.1447855  76.98  0.001269986    2.234    0.552
        19 -10.1719     28.8844    209.7616   1.2009175040e+02   2.7798210911e+01     0.161506    0.1092911  52.77 0.0004060085    1.119    0.106
        20 -10.1329    150.2070    208.4965   9.4188843193e+01   1.2434162742e+01    0.2594244    0.1741063   0.02   0.00144774    1.977    0.494
        21  -9.3311     42.5970    208.9045   1.1713882607e+02   2.6563780692e+01    0.2185879    0.1083302  56.44 0.0003417117    1.688    0.408
        22 -11.3298     65.4009    205.2150   1.1192902865e+02   2.4683900004e+01    0.3904084    0.1931705 -85.82   0.00180132    2.523    0.604
        23  -8.7248     93.7456    205.4463   1.0572427425e+02   2.1015777469e+01    0.1986836    0.1483231 -10.85 0.0008617728    2.038    0.509
        24  -8.7466     96.5043    202.0508   1.0475823494e+02   2.1261750647e+01    0.2071677    0.1183829 -57.19 0.0009972885    2.036    0.509
        25 -10.9865    193.0827    195.3283   8.3916391920e+01   7.9840080707e+00    0.8831292    0.5132337 -61.47  0.003379509    5.592    0.821
        26 -12.6891     53.8106    198.1920   1.1396339227e+02   2.7406533781e+01    0.4779615     0.275629 -49.89   0.00263977    2.337    0.572
        27 -11.9112    134.0603    196.5461   9.5884526710e+01   1.6785348692e+01    0.4033037    0.2715848 -68.53  0.002230627    2.099    0.524
        28  -9.7280     72.1393    249.8856   1.1373676289e+02   1.6258958122e+01    0.1508932    0.1099853  81.10 0.0006443179    1.548    0.354
        29  -9.5979     38.5941    199.2323   1.1743553254e+02   2.8860607092e+01    0.1676533    0.1105235  51.27 0.0003360978    1.197    0.165
        30  -9.5048     29.3113    204.9203   1.1976897581e+02   2.8683547237e+01    0.2820099   0.07790847  43.22  0.001153717    2.409    0.585
        31 -10.3246    127.8838    196.8721   9.7255790914e+01   1.7661997099e+01    0.1947626    0.1640627  12.44   0.00108479    1.259    0.206
        32  -8.3665     69.4170    199.4140   1.1054696657e+02   2.5308312127e+01    0.1476981    0.1138154 -59.48 5.910387e-05    1.545    0.353
        33  -9.0617     81.6319    194.5224   1.0730823212e+02   2.4696905695e+01    0.2707955    0.1683568  58.85  0.001513093    1.570    0.363
        34 -11.0573    126.9577    191.8231   9.6765695627e+01   1.8691123847e+01    0.2690992    0.1917441  36.68  0.001575068    1.202    0.168
        35 -11.0891    149.2847    187.8533   9.1368289218e+01   1.5898406693e+01    0.3331274    0.3004979  79.12   0.00126326    1.426    0.299
        36  -8.9441     96.5284    190.5236   1.0344745362e+02   2.3432846532e+01      0.12941    0.1077251  49.83 0.0002311719    1.045    0.043
        37  -9.9876     72.1777    245.0880   1.1342338082e+02   1.6994292409e+01    0.2901964    0.1369093  56.93  0.001706708    2.003    0.501
        38  -9.5708     93.5464    186.0027   1.0360145181e+02   2.4740760550e+01    0.3048335    0.1870222  53.03  0.001309738    1.550    0.355
        39 -10.9523     98.8403    181.3019   1.0176910755e+02   2.4912738676e+01     0.377048    0.2811796   2.44  0.001644283    1.873    0.466
        40 -10.5590    123.2741    186.5635   9.6843983515e+01   2.0209671829e+01    0.2602275    0.1070588  40.01  0.001136125    2.075    0.518
        41 -11.1890    143.6560    178.3978   9.1077590099e+01   1.8442720150e+01    0.4250832    0.2352048 -44.05  0.001429726    2.014    0.503
        42 -10.1359    188.8179    177.1202   8.1608295053e+01   1.1261799302e+01    0.3551165    0.3344062 -28.64  0.002332004    1.306    0.234
        43  -9.1996    149.3609    177.0257   8.9611622899e+01   1.7747279231e+01    0.1700535    0.1619886 -17.27 0.0004360334    1.147    0.128
        44  -9.9754    126.8226    176.4069   9.4533600307e+01   2.1547242539e+01    0.1977899    0.1177569  26.86 0.0009538694    1.758    0.431
        45  -9.8598     55.6098    174.2809   1.1154319965e+02   3.2161623681e+01    0.3008951    0.1737618  56.47  0.001547951    1.583    0.368
        46  -9.6868     84.0096    173.5573   1.0438595924e+02   2.8637911382e+01    0.1855136    0.1680463  81.64 0.0003319197    1.116    0.104
        47 -10.2293     45.7666    172.9942   1.1388831137e+02   3.3566782873e+01    0.3479522    0.2552004  38.66  0.001273283    1.280    0.219
        48 -10.6749    138.4525    170.3095   9.0898433913e+01   2.0780005054e+01    0.4162965    0.2309499  30.47  0.001391392    1.799    0.444
        49 -10.0470    240.4818    169.4907   7.1314135072e+01   4.4066447003e+00     0.182129    0.1103597  48.17 0.0009901632    2.211    0.548
        50  -9.4455    187.8424    162.8050   7.9148079840e+01   1.3624574497e+01    0.3019737    0.2106123 -50.15  0.001289109    1.816    0.449
        51 -11.7876     94.3005    151.4660   9.8631854755e+01   3.1922481496e+01    0.6522538    0.5596667 -17.62  0.003673718    1.464    0.317
        52 -10.8621    133.8389    145.6132   8.7480378558e+01   2.6409749344e+01     1.154458    0.3133342 -54.88  0.003029161    5.793    0.827
        53  -9.6396    186.9254    151.6872   7.7133852818e+01   1.5564227666e+01    0.2205997    0.1544254  21.42  0.001168627    1.472    0.321
        54  -8.7106    112.5248    150.5068   9.3713773632e+01   2.9154316032e+01     0.140451    0.1312723  48.87 0.0001353137    1.001    0.001
        55  -9.5653    174.8804    149.1878   7.9027315010e+01   1.8157300935e+01    0.1992072    0.1889678  49.96 0.0006539241    1.220    0.180
        56  -8.4755    109.6165    147.8171   9.3986304289e+01   3.0228042034e+01    0.1852139    0.1351124 -72.29 0.0003326331    1.589    0.371
        57 -10.9357    106.0507    137.7032   9.3070100878e+01   3.3071942475e+01    0.5191183    0.3438874 -32.43  0.002369614    1.976    0.494
        58 -10.6000    105.9255    130.7608   9.1745058965e+01   3.4659624824e+01    0.3953057    0.3284967 -67.90  0.001159425    1.260    0.206
        59 -11.6381     94.0604    137.5625   9.6344994661e+01   3.5116754005e+01    0.2720418    0.2585053 -34.40 0.0004041633    1.177    0.151
        60  -9.6355    136.0022    128.8570   8.3440850091e+01   2.9442396143e+01     0.322922    0.1781634 -46.69  0.001380651    1.863    0.463
        61 -10.5927    114.0426    129.0658   8.9175768289e+01   3.3577174234e+01    0.3366042    0.2990808  -1.06  0.000897232    1.305    0.234
        62  -8.3832     98.6281    130.4865   9.3733137076e+01   3.5989345932e+01    0.1423309    0.1352993  86.22 0.0001074017    1.036    0.035
        63  -9.2212    160.9803    127.9876   7.7399058283e+01   2.4649323303e+01    0.2296937    0.1865298 -86.10  0.001145481    1.724    0.420
        64 -10.3667    101.4068    124.8522   9.1806697272e+01   3.6809683495e+01    0.2749697    0.2378133 -21.64 0.0005335025    1.371    0.271
        65 -10.9876    120.4227    122.6780   8.6067487118e+01   3.3788183121e+01    0.5272132    0.3559673 -16.12  0.002183296    2.362    0.577
        66 -10.1242    135.0896    120.3629   8.1725993414e+01   3.1391081688e+01    0.5128379    0.1461666 -45.80  0.001553613    3.563    0.719
        67  -9.4313    109.5113    118.3784   8.8096962423e+01   3.6820902454e+01    0.2418198    0.2321571 -85.49 0.0001971119    1.043    0.041
        68 -10.0649    231.3904    113.6597   6.1268662860e+01   1.3316141577e+01    0.2541636    0.2204065 -10.96 0.0008385229    1.038    0.037
        69  -9.0725    167.7295    112.6962   7.2293206434e+01   2.6108753561e+01    0.2865063    0.2131699 -79.15  0.001298593    2.058    0.514
        70 -10.0012    134.6316    104.8040   7.7982682966e+01   3.4736140219e+01    0.7499822     0.143545 -45.73  0.001804003    5.339    0.813
        71 -11.6032    117.9555    109.7055   8.3676592754e+01   3.7132991659e+01    0.7686318    0.5348274  70.55  0.003167507    1.937    0.484
        72  -9.4802    205.4612    110.1356   6.4519258450e+01   1.8752249195e+01     0.286852    0.1918865  36.29 0.0009689425    1.605    0.377
        73  -9.2822     64.3534     99.8406   9.8269319919e+01   4.8849923948e+01    0.2514029    0.1902165  47.98  0.001290365    1.356    0.263
        74 -11.9512     49.2402    249.9157   1.1800043331e+02   1.8764317169e+01     0.175141    0.1379824  46.11  0.000484253    1.144    0.126
        75  -9.0814     44.3175    229.8751   1.1794204142e+02   2.2580772867e+01     0.150561   0.08824896  66.97 0.0009847343    1.546    0.353
        76  -8.5695    155.7747     82.4107   6.6714493174e+01   3.4369300162e+01    0.2072908    0.1416889  41.05 0.0004589477    1.553    0.356
        77  -8.6856    184.4655     77.4916   5.9709477003e+01   2.8497069870e+01    0.1460186    0.1380123 -23.10 0.0002331657    1.035    0.034
        78  -9.4135     65.6800     70.6076   9.0306941031e+01   5.5818350029e+01    0.2898226    0.2125769  54.24  0.001426343    1.545    0.353
        79 -11.3643    244.9265    244.9733   8.2733664446e+01  -4.2053782690e+00    0.3048137     0.134536  34.45  0.001972086    2.007    0.502
        80  -7.8638     84.2298    245.6906   1.1116810322e+02   1.5492291525e+01    0.1034528   0.06428742  56.86 0.0006823288    1.485    0.327
        81 -10.2846    250.3275    236.9992   8.0809777562e+01  -4.0695819759e+00    0.1445925   0.09870259   2.13 0.0004674185    1.088    0.081
        82  -9.6509    167.9214    232.8018   9.3978682627e+01   6.5277561225e+00    0.2064705    0.1415836  33.29 0.0007604032    1.180    0.152
        83 -12.5353    179.5750     52.2257   5.3180538986e+01   3.3541640993e+01    0.7556134     0.679343  -3.47 0.0008169633    1.222    0.181
