#   1 NUMBER                 Running object number                                     
#   2 MAG_AUTO               Kron-like elliptical aperture magnitude                    [mag]
#   3 X_IMAGE                Object position along x                                    [pixel]
#   4 Y_IMAGE                Object position along y                                    [pixel]
#   5 X_WORLD                Barycenter position along world x axis                     [deg]
#   6 Y_WORLD                Barycenter position along world y axis                     [deg]
#   7 A_WORLD                Profile RMS along major axis (world units)                 [deg]
#   8 B_WORLD                Profile RMS along minor axis (world units)                 [deg]
#   9 THETA_WORLD            Position angle (CCW/world-x)                               [deg]
#  10 FWHM_WORLD             FWHM assuming a gaussian core                              [deg]
#  11 ELONGATION             A_IMAGE/B_IMAGE                                           
#  12 ELLIPTICITY            1 - B_IMAGE/A_IMAGE                                       
         1 -13.8867    212.8540      3.3753   4.6043251568e+01   3.0728970192e+01     1.629441    0.7891117  61.71   0.00566523    1.956    0.489
         2 -15.1067    189.7661     31.9951   5.7475977496e+01   3.3703693166e+01     2.994907     1.734468  20.70   0.01150091    2.591    0.614
         3 -13.0860     42.3366      4.0031   8.5795671075e+01   7.0435020118e+01     0.500575    0.2942212  35.29  0.001823716    1.858    0.462
         4  -9.9178     71.8131    229.7587   1.2261841243e+02   2.1366178827e+01     0.139563   0.08226223  58.19 0.0009681305    1.274    0.215
         5 -16.9211     66.6795    248.3503   1.2465806033e+02   1.9186800321e+01     8.143891     2.359209  33.35   0.02792805    7.371    0.864
         6 -12.7095     40.0770    213.3497   1.2701530420e+02   2.7799213879e+01    0.2692443    0.1254455  53.32  0.001743677    1.594    0.373
         7 -10.5601     43.9938    210.2481   1.2614720043e+02   2.7900327598e+01    0.2398805   0.09289596  55.02 0.0009661755    1.999    0.500
         8 -10.6437     40.0673    207.8104   1.2669390256e+02   2.8755797990e+01    0.1917759   0.09033241  51.44 0.0008266784    1.606    0.377
         9 -12.1702     72.9397    212.3645   1.2111946937e+02   2.4061509495e+01    0.2180451    0.1491762  60.74 0.0003671693    1.120    0.107
        10 -10.1874     76.7486    207.1101   1.1998794405e+02   2.4463670845e+01    0.2940985    0.1813174 -71.73  0.001139904    1.737    0.424
        11 -12.7232     55.9504    211.7995   1.2412843431e+02   2.6258653608e+01    0.4388871    0.2114369  45.86 0.0008931591    1.639    0.390
        12 -12.2040     63.9457    207.6506   1.2238612760e+02   2.6005619235e+01    0.3492681    0.3130219  45.25  0.001976334    1.436    0.304
        13 -12.7672     60.5887    204.4134   1.2275582327e+02   2.6984329234e+01    0.2694671     0.223056 -73.39 0.0005927755    1.445    0.308
        14 -12.2683    136.1363    210.3090   1.0926879754e+02   1.5199629321e+01    0.2916299    0.1604671 -60.18  0.001642181    2.343    0.573
        15  -9.8686    163.1810    203.8531   1.0341341893e+02   1.1706120524e+01    0.1762131    0.1425278  51.12 0.0003764376    1.145    0.127
        16 -11.2168     45.4155    202.2937   1.2538751002e+02   2.9136814506e+01    0.2487186    0.1266388  62.68  0.001567186    1.609    0.378
        17 -12.4175    155.4467    198.6552   1.0411991222e+02   1.3790227644e+01    0.5976976    0.3329028 -71.12  0.002601987    3.818    0.738
        18 -10.7612     95.3526    200.4898   1.1585616410e+02   2.3045817326e+01    0.2649527    0.1721771  75.55  0.001024718    1.595    0.373
        19  -9.3617     88.0554    202.4839   1.1744718129e+02   2.3733232126e+01    0.1738453   0.09452139  43.69 0.0006315428    1.548    0.354
        20 -10.7054    209.8596    199.3066   9.4341970831e+01   4.3525143257e+00    0.1757649    0.1643656 -23.37 0.0005646489    1.359    0.264
        21 -12.1752    193.3116    192.7455   9.6196982191e+01   8.0540207213e+00    0.6728618    0.4170305 -50.85  0.003267701    2.257    0.557
        22 -10.3667     82.3483    195.1706   1.1783335001e+02   2.5817221938e+01    0.2474159    0.1919851  38.63  0.001690491    1.410    0.291
        23 -12.9705     70.4435    190.4435   1.1971301189e+02   2.8270187265e+01    0.5961826    0.4912122 -84.22  0.003137704    1.248    0.199
        24 -10.2391     71.9513    179.9948   1.1840439722e+02   3.0045802290e+01    0.2657886    0.1317827  71.04 0.0005289306    2.380    0.580
        25 -11.1659     97.6202    190.4934   1.1433567246e+02   2.4484693190e+01    0.3103998    0.1973427  65.61  0.001840516    1.513    0.339
        26 -12.6957    110.6311    188.5956   1.1151244620e+02   2.2844873003e+01    0.5127184    0.3337813   7.47  0.002143354    4.268    0.766
        27 -11.9783    145.3577    179.5769   1.0325728373e+02   1.8614332990e+01     0.329832    0.2534473  17.87  0.001896163    1.642    0.391
        28 -11.4035     99.5183    180.8017   1.1281275608e+02   2.5980030103e+01    0.2291107    0.1874903  56.85  0.000528762    1.058    0.055
        29 -12.0450    138.2646    170.4777   1.0327716209e+02   2.1463562576e+01    0.4878944    0.2467428  28.66  0.001982316    2.905    0.656
        30  -9.9319     50.7165    174.1654   1.2222930229e+02   3.3810525101e+01    0.1537409    0.1222193  83.58 0.0006567125    1.089    0.081
        31 -11.6918    195.2986    168.7232   9.1626057951e+01   1.1093032674e+01     0.329227    0.2936826  47.28 0.0006100425    1.188    0.158
        32 -10.9026    191.1725    161.0814   9.0953328664e+01   1.3038255041e+01    0.2992058    0.2112769 -50.50  0.001590791    1.764    0.433
        33 -10.1119    141.8791    158.8870   1.0056754529e+02   2.2912906171e+01    0.2020144    0.1776573  58.65  0.000424604    1.066    0.062
        34 -12.7866     97.2885    154.9655   1.0982219836e+02   3.1381722100e+01    0.5780283    0.4286397 -35.54  0.003208353    1.904    0.475
        35 -11.1845    189.3161    155.3363   9.0182480108e+01   1.4299320165e+01    0.3460416    0.3056671 -32.53  0.001270918    1.242    0.195
        36 -11.8291    134.0000    143.9893   9.9582184956e+01   2.7226607593e+01    0.8760118    0.2812988 -56.91  0.002662532    4.636    0.784
        37 -10.4227    174.8807    149.1231   9.1799022489e+01   1.8212891070e+01    0.2118354    0.1876055  67.98 0.0005944827    1.266    0.210
        38 -11.2564    143.6243    146.2037   9.7854086442e+01   2.4956695944e+01    0.2282599    0.1788712  49.54 0.0008275064    1.180    0.152
        39 -12.0005    108.2885    140.1618   1.0486180307e+02   3.2642234034e+01    0.4995119    0.3125918 -34.74    0.0023125    2.333    0.571
        40 -12.4996     96.5800    140.2746   1.0769058208e+02   3.4553549832e+01    0.2544042    0.2389625 -84.41   0.00035554    1.109    0.098
        41 -11.1956    105.9095    130.6722   1.0371138364e+02   3.5051038158e+01    0.3728494    0.2803928 -80.14  0.001142276    1.446    0.308
        42 -11.3798    103.1843    126.4935   1.0359713666e+02   3.6412260919e+01    0.2827996    0.2359858 -28.17 0.0006865806    1.530    0.346
        43 -12.1866    116.3173    129.9761   1.0101966749e+02   3.3358272886e+01    0.5470634    0.3962023  17.90  0.001473528    1.982    0.495
        44 -10.5004    160.7256    127.7553   9.0228916143e+01   2.4963128186e+01    0.2906565    0.1768998 -64.28   0.00117561    2.489    0.598
        45 -11.3016    135.7066    122.3867   9.4740661705e+01   3.1202815565e+01    0.4423696    0.1934646 -55.05  0.001625972    2.734    0.634
        46 -10.4561    110.6663    119.2009   1.0022873093e+02   3.6666818770e+01    0.2215742    0.1833077  59.33 0.0005750211    1.195    0.163
        47 -12.4357     66.0989    114.7098   1.1122109517e+02   4.4627933802e+01    0.4547631    0.2812793 -83.28  0.001613509    1.766    0.434
        48 -11.4333    119.8512    110.7141   9.5998515981e+01   3.6755070688e+01    0.4619793    0.2372191  63.86  0.001608979    3.239    0.691
        49 -10.2467    205.6762    110.1205   7.6932699657e+01   1.8062583394e+01    0.2791692    0.2037462  40.87 0.0006261594    1.341    0.255
        50 -10.1731    168.0136    112.7634   8.5104743461e+01   2.6147068712e+01    0.2655254    0.2074985 -69.50 0.0008804263    1.627    0.385
        51 -10.7793     31.8572     96.1703   1.1807423238e+02   5.2589544791e+01    0.1781796    0.1412143  86.59 0.0002935568    1.172    0.147
        52 -10.1888     41.7831     91.9087   1.1435575381e+02   5.2623540391e+01    0.1829597    0.1474302 -57.02 0.0005495981    1.172    0.146
        53 -10.0267    198.7794    222.7962   9.9805471752e+01   3.3787889389e+00     0.169743     0.124485  29.55 0.0005254669    1.099    0.090
        54 -13.6402     50.4139    218.4601   1.2553255956e+02   2.5778307782e+01    0.5407426    0.1643589  56.65  0.002686276    2.796    0.642
        55 -11.4446    167.6253     67.7434   7.2704459682e+01   3.4258524967e+01    0.6209754    0.3690307 -78.22  0.001979129    3.726    0.732
        56 -10.6006     81.2520    220.7434   1.2030597236e+02   2.1589630271e+01    0.3280638    0.1319558  36.13  0.001687411    2.524    0.604
        57 -17.5512     29.0133    242.6062   1.3023593222e+02   2.4258432933e+01     6.893521      3.51285 -62.89   0.04904776    2.656    0.624
        58 -13.6033    175.1044     46.8191   6.4638906314e+01   3.5597529718e+01    0.7359452     0.632686   2.36 0.0008457222    1.267    0.211
        59 -11.8169     69.7276    218.9319   1.2219812229e+02   2.3372651300e+01    0.3654919    0.1578685  57.77  0.002088262    1.959    0.489
        60 -19.1577     16.0233    105.9614   1.2389924666e+02   5.1658871549e+01      15.3202    0.8185859 -73.31   0.02877313   14.673    0.932
