#   1 NUMBER                 Running object number                                     
#   2 MAG_AUTO               Kron-like elliptical aperture magnitude                    [mag]
#   3 X_IMAGE                Object position along x                                    [pixel]
#   4 Y_IMAGE                Object position along y                                    [pixel]
#   5 X_WORLD                Barycenter position along world x axis                     [deg]
#   6 Y_WORLD                Barycenter position along world y axis                     [deg]
#   7 A_WORLD                Profile RMS along major axis (world units)                 [deg]
#   8 B_WORLD                Profile RMS along minor axis (world units)                 [deg]
#   9 THETA_WORLD            Position angle (CCW/world-x)                               [deg]
#  10 FWHM_WORLD             FWHM assuming a gaussian core                              [deg]
#  11 ELONGATION             A_IMAGE/B_IMAGE                                           
#  12 ELLIPTICITY            1 - B_IMAGE/A_IMAGE                                       
         1 -15.8015    227.5684     14.5666   5.8542317957e+01   2.7527796927e+01     5.143291     2.327981  83.59   0.02439345    2.226    0.551
         2 -12.1696    160.7739      9.7574   6.5063607555e+01   4.3553247482e+01    0.2620742    0.1992793 -49.28  0.001069488    1.450    0.310
         3 -12.2070    148.4935      8.6633   6.6599227236e+01   4.6530038731e+01     0.244629    0.2044322 -73.00    0.0012455    1.308    0.235
         4 -11.4997    138.3077      8.0319   6.8076380387e+01   4.8937084516e+01     0.171827    0.1606765  58.51 0.0007839752    1.099    0.090
         5 -12.0680    152.8994      3.8082   6.4561881272e+01   4.5933479728e+01    0.4084816      0.19578 -51.45  0.001906714    2.633    0.620
         6 -11.2315    143.7197      4.3761   6.6110380194e+01   4.8009698621e+01    0.2144552     0.145886 -41.58  0.001098359    1.691    0.409
         7 -11.3680    155.8898     17.1543   6.7845733567e+01   4.3978618588e+01    0.2060071    0.1663228 -83.04 0.0009614934    1.296    0.229
         8 -10.1054    224.7215    249.9609   1.0867763728e+02  -1.1060244026e+01    0.1879775    0.1652299 -41.67  0.001001742    1.512    0.339
         9 -10.7151    209.4940    249.3834   1.1141942485e+02  -8.6694220714e+00    0.2804815    0.2467221   0.12  0.001922484    1.126    0.112
        10 -10.3236    139.9626    249.3068   1.2489418479e+02   2.7841726628e+00    0.2576679     0.183285 -43.02  0.001493552    1.734    0.423
        11  -9.7056    132.3955    246.7602   1.2604466439e+02   4.5032295874e+00    0.1629526    0.1214255 -43.84 0.0009091963    1.663    0.399
        12 -10.0563    243.0694    236.0519   1.0296838063e+02  -1.1812606831e+01    0.1926179    0.1616862 -60.38  0.001211964    1.984    0.496
        13 -10.4351    250.1950    245.7004   1.0337268350e+02  -1.4106788227e+01    0.2120088    0.1478474 -22.14 0.0009392619    1.339    0.253
        14 -10.8452    246.6473    240.8539   1.0316630802e+02  -1.2977191307e+01     0.292208    0.2246907 -50.36  0.001386516    1.966    0.491
        15  -9.9839    112.6330    246.1940   1.2984985788e+02   7.8648399833e+00    0.1678897    0.1158798 -50.95 0.0009568835    1.755    0.430
        16  -9.3479    151.4913    245.5048   1.2209728038e+02   1.5037598298e+00    0.1304303    0.1119133  43.44 -4.178478e-05    1.010    0.010
        17 -10.7407    225.2239    242.9196   1.0740896103e+02  -1.0151263954e+01    0.2587806    0.2286492 -13.79  0.001202157    1.206    0.171
        18 -10.3579    103.7281    243.5920   1.3127923075e+02   9.7893060167e+00    0.2150927    0.1531776 -53.62  0.001223979    1.675    0.403
        19 -10.2209    201.7302    242.1120   1.1171224543e+02  -6.3562692362e+00    0.2589845    0.1984595 -51.48   0.00154693    1.675    0.403
        20  -9.9675    169.0967    242.1424   1.1810692955e+02  -9.1823049809e-01    0.2014523    0.1676158  17.17 0.0009087053    1.250    0.200
        21 -10.0744    239.9607    240.3683   1.0427876539e+02  -1.1964006192e+01    0.1999483    0.1642657 -42.95 0.0008710471    1.605    0.377
        22  -9.8870    214.1066    240.7298   1.0912054781e+02  -8.1216618968e+00    0.1915882    0.1693036 -35.10 0.0007883486    1.340    0.254
        23  -9.9731    134.6476    240.5013   1.2475870529e+02   5.2669275252e+00    0.2060364    0.1248648 -56.10  0.001074532    1.880    0.468
        24  -9.9736    219.4914    239.7922   1.0794722494e+02  -8.8232267020e+00    0.2015296    0.1194154 -41.86 0.0007526996    1.899    0.474
        25 -10.4665    183.3828    239.2233   1.1482000899e+02  -2.8585629701e+00    0.2754672    0.2424601 -53.80  0.001746341    1.374    0.272
        26 -10.0624    148.1809    239.8010   1.2194079753e+02   3.0788256634e+00    0.1759269    0.1529702  12.45  0.001072983    1.339    0.253
        27  -9.8356    117.5281    240.4937   1.2818151517e+02   8.1420447752e+00    0.1312459    0.1108439  58.96 0.0006991664    1.003    0.003
        28 -10.6140    158.9314    237.7296   1.1946936480e+02   1.5921785009e+00    0.3209717    0.2274031 -52.89  0.001799016    1.630    0.386
        29 -11.3036    230.4336    236.0623   1.0526904940e+02  -9.9528315322e+00    0.3294385    0.3056255 -65.85  0.001551577    1.640    0.390
        30 -11.1859    204.9353    234.9145   1.0989104518e+02  -5.7595028287e+00    0.3678595    0.3096236 -51.04  0.001896075    1.497    0.332
        31 -11.2017    190.8789    234.6010   1.1258501063e+02  -3.3664921538e+00    0.4475679    0.3207426 -51.23  0.002525978    1.693    0.409
        32 -10.6703    176.7717    235.1000   1.1547194044e+02  -1.0380511105e+00    0.3898043    0.1852984 -41.78   0.00178253    2.384    0.581
        33 -10.0816     90.5066    236.9851   1.3311187326e+02   1.3161160728e+01    0.1664417    0.1021163 -41.53 0.0008105371    2.578    0.612
        34  -9.9363    139.1111    236.1162   1.2324501706e+02   5.3180852789e+00     0.198754    0.1791185  23.31  0.001221942    1.241    0.194
        35 -11.9093    231.2413    162.8877   9.0900020910e+01   2.1710168934e+00    0.7970642    0.6438068  -9.89  0.004346053    1.338    0.252
        36 -11.5145    236.0587    228.9435   1.0297984130e+02  -9.7619932806e+00    0.4255823    0.3277304 -40.39  0.001620398    1.503    0.334
        37 -12.5181    227.9090    221.9416   1.0322383258e+02  -7.4398477385e+00     1.509044    0.4160132 -46.27   0.00483886    5.059    0.802
        38 -12.4802    242.7059    150.4315   8.6239013576e+01   2.3236242771e+00     1.710859    0.8693525 -16.82  0.004984553    5.362    0.814
        39 -11.2695    248.3714    233.2425   1.0152732015e+02  -1.2177805037e+01    0.4532815    0.3682378  60.66  0.002800806    2.119    0.528
        40 -11.6818    238.6469    166.1842   9.0271158132e+01   2.0871204970e-01     1.062098     0.441221 -27.81  0.003578168    3.540    0.718
        41 -12.4279    216.0711    187.3082   9.8834015389e+01   4.6991396049e-01     1.881328    0.5039597 -33.90  0.004495809    6.763    0.852
        42 -11.6303    224.6040    181.3917   9.5994643537e+01  -5.4736857719e-03     1.122213     0.513588 -22.65  0.003474879    4.418    0.774
        43 -11.2918    225.4672    172.0851   9.3903858984e+01   1.5441013601e+00     0.481205    0.3308145 -18.01  0.001963852    1.679    0.404
        44 -12.0135    238.4151    219.3588   1.0081030969e+02  -8.6836744829e+00    0.5669831    0.3444974 -33.25  0.001959219    1.584    0.369
        45 -12.5339    217.3036    209.6626   1.0296293731e+02  -3.6971563047e+00     1.810059    0.4514523 -40.85  0.005925233    4.046    0.753
        46 -12.0375    231.6715    176.3771   9.3647505440e+01  -3.7399791258e-01     1.542301    0.4518878 -33.19  0.004336024    4.863    0.794
        47 -11.8309    247.4327    226.0274   1.0040261898e+02  -1.1021221647e+01    0.4119379    0.3647605  21.13  0.001522101    1.263    0.208
        48 -12.9679    229.6162    196.3023   9.8046693433e+01  -3.5211369560e+00     1.782769    0.7907234 -26.71  0.006735148    3.054    0.673
        49 -11.6131    224.3424    191.5346   9.8095021667e+01  -1.7773724541e+00    0.6152309    0.4289154   0.95  0.003078537    1.770    0.435
        50 -11.6801    232.9613    212.1186   1.0046555926e+02  -6.6953684501e+00    0.5455989    0.3392653 -18.40  0.001977903    1.771    0.435
        51 -12.9583    246.0974    162.7487   8.8260723821e+01  -5.0585151971e-01     1.894071    0.5608193 -34.64  0.006020627    3.774    0.735
        52 -11.5207    250.1139    199.7802   9.5013584129e+01  -7.4368206110e+00    0.4749727     0.222219 -37.52  0.001932652    1.967    0.492
        53 -13.0158    247.8335    215.7848   9.8452671751e+01  -9.5700253657e+00     1.090801     0.371658 -40.03  0.004557789    2.865    0.651
        54 -12.2585    241.3073    178.6327   9.2370835044e+01  -2.4674987043e+00    0.8988811     0.360592 -39.27  0.003698024    2.283    0.562
        55 -11.8115    240.2940    207.6095   9.8268504435e+01  -7.1441025251e+00    0.6163439    0.3460117 -49.38  0.002552492    2.259    0.557
        56 -11.9744    236.4173    199.3315   9.7381629346e+01  -5.1718528517e+00    0.9091272    0.3740685 -27.66  0.003369001    3.225    0.690
        57 -12.3739    237.2121    187.9722   9.4993397918e+01  -3.3843383061e+00     1.254302    0.3325766 -45.10  0.003963713    4.159    0.760
        58 -11.9195    242.8158    200.1860   9.6387395888e+01  -6.3511078120e+00    0.5638549    0.3231317 -31.31  0.001783036    1.643    0.392
        59 -12.6357    245.1190    191.0502   9.4187376783e+01  -5.2209321701e+00     0.859341    0.5561274 -45.22  0.004569523    1.622    0.383
        60 -11.6557    249.6252    183.8710   9.1969385210e+01  -4.7572562231e+00    0.5401438    0.2797217 -37.99  0.001822737    1.743    0.426
        61 -11.7509    247.7613    176.4866   9.0803192119e+01  -3.1944178549e+00    0.6280411    0.3296626 -31.06  0.002928127    1.846    0.458
        62 -11.2417    216.0734    233.0573   1.0743576969e+02  -7.2737810361e+00     0.379678    0.3219384 -29.88  0.001876633    1.271    0.213
        63  -9.8824    170.4229    234.3228   1.1662328901e+02   1.9597042116e-01    0.2276551    0.1284207 -41.60 0.0009449408    2.019    0.505
        64  -9.0355    165.3277    233.3197   1.1749479563e+02   1.2614053920e+00    0.1336191    0.1011585   6.49 0.0007047249    1.684    0.406
        65  -9.9529    144.8630    231.9249   1.2145960297e+02   5.1046610067e+00    0.2017955    0.1804928  19.01  0.000898975    1.250    0.200
        66  -9.6607    133.3948    231.7958   1.2379652602e+02   7.1259942361e+00    0.1764756    0.1251083 -43.13 0.0009469962    1.702    0.413
        67  -9.7285    122.5018    232.4997   1.2612784059e+02   8.8558149122e+00    0.1338076    0.1163332  57.74  0.000810656    1.014    0.014
        68  -9.8634    100.0000    231.9836   1.3063602710e+02   1.2676540624e+01    0.2011351   0.07233506 -60.92 0.0008057977    2.966    0.663
        69 -10.0767    113.3955    229.8031   1.2763196230e+02   1.0924605898e+01    0.1807325    0.1215768 -49.45  0.000959114    1.749    0.428
        70  -9.6199    173.8090    228.6327   1.1501700987e+02   6.0520743026e-01    0.1816156    0.1648577   7.77 0.0007997962    1.138    0.121
        71  -9.5716    152.3909    228.7824   1.1943218820e+02   4.3691711982e+00    0.1783486    0.1273859 -38.03 0.0008158361    1.662    0.398
        72 -10.4842    211.7042    227.0101   1.0721326720e+02  -5.6171649936e+00    0.3006659    0.1943382 -28.61  0.001009844    1.630    0.387
        73  -9.7619    184.5099    227.4527   1.1265491675e+02  -1.0650367804e+00    0.2489033    0.1326354 -44.05  0.001046199    2.058    0.514
        74  -9.2247    138.4782    228.4675   1.2226329444e+02   6.8835822025e+00    0.1355156    0.1204953  50.50 9.328595e-05    1.020    0.020
        75 -10.3710    223.0772    226.3549   1.0492776205e+02  -7.3572391161e+00    0.2634005    0.1822945 -28.61 0.0009384126    1.441    0.306
        76 -10.4801    198.8783    226.3430   1.0959904652e+02  -3.3571922194e+00    0.2703842    0.2157029 -37.14  0.001048094    1.347    0.258
        77 -10.2270    190.4958    225.3523   1.1109384271e+02  -1.7456293944e+00     0.310647    0.2032115 -31.22  0.001295841    1.709    0.415
        78 -10.1464    162.9836    226.6871   1.1691532518e+02   2.8761852756e+00    0.2387892    0.1909927 -10.67  0.001319999    1.576    0.366
        79 -10.5599    205.8657    224.8667   1.0796744341e+02  -4.2968836206e+00    0.3047369    0.2118071 -39.67  0.001119246    1.534    0.348
        80 -10.9892    216.8541    222.8650   1.0548371681e+02  -5.7999966323e+00    0.3685555    0.2566773 -48.99  0.001574731    1.750    0.429
        81  -9.5351    129.3070    224.3664   1.2357162811e+02   9.2976128808e+00    0.1318576    0.1083287  -8.44 0.0007036857    1.750    0.428
        82 -10.1826    180.3505    222.4453   1.1264390459e+02   5.5044028608e-01    0.2537118    0.1643744 -45.57  0.001166941    1.691    0.409
        83 -10.2945    148.0200    222.4677   1.1935340146e+02   6.3548888335e+00     0.258686    0.1940545 -33.80  0.001380915    1.631    0.387
        84  -9.0104    135.6615    223.6699   1.2213481143e+02   8.3204901902e+00    0.1341245    0.1085014   0.42 0.0007051888    1.737    0.424
        85 -10.2656    185.9599    220.6689   1.1119452311e+02  -1.3001397260e-01    0.2991534    0.1976835 -41.93  0.001449003    1.628    0.386
        86  -9.7417    174.5135    222.0202   1.1376684951e+02   1.6702752890e+00    0.1959154    0.1358981 -44.36  0.001026955    1.575    0.365
        87  -9.2828    140.4811    221.4812   1.2078594710e+02   7.8990468881e+00    0.1375316    0.1248197  49.36 7.703806e-05    1.031    0.031
        88 -11.0203    202.3297    218.1028   1.0745320224e+02  -2.5574844277e+00    0.4480059    0.2635544 -42.08  0.002237398    1.797    0.444
        89  -9.6996    204.5597    212.2728   1.0594423889e+02  -1.9393672663e+00     0.237498    0.1242088 -30.42 0.0008039357    2.223    0.550
        90 -11.0537    193.4211    218.0154   1.0921661698e+02  -9.8280447005e-01    0.4105386    0.2603111 -41.66  0.001654512    1.675    0.403
        91 -10.6413    210.6942    217.8052   1.0575591543e+02  -3.9423772796e+00    0.3469052    0.2140236 -34.55  0.001129193    1.665    0.399
        92 -10.2476    209.8692    211.8736   1.0482331520e+02  -2.7958686841e+00    0.3448664    0.2140746 -22.41  0.001672217    1.891    0.471
        93  -9.6474    158.4324    218.7737   1.1656637819e+02   5.1880261055e+00    0.1869835    0.1315443 -35.75 0.0009497717    1.667    0.400
        94  -9.8988    179.1597    216.3573   1.1183013296e+02   1.8712715901e+00    0.2316811    0.1881561 -25.16 0.0008330877    1.355    0.262
        95 -10.4475    170.7971    215.8036   1.1346969124e+02   3.4981571174e+00    0.3377089    0.1961977 -39.35  0.001510021    1.926    0.481
        96  -9.7484    185.4935    214.9193   1.1027253790e+02   9.8832732035e-01    0.1987299    0.1359767 -42.46 0.0006560757    1.557    0.358
        97  -9.4416    165.4462    215.4847   1.1453604058e+02   4.5391737161e+00     0.138563    0.1280893  31.98 0.0001078703    1.034    0.033
        98  -9.6669    143.3182    215.3201   1.1920828792e+02   8.6225384719e+00     0.136617    0.1109165  -0.43 0.0004946969    1.663    0.399
        99  -9.9546    200.1566    210.2724   1.0645085872e+02  -8.0857119443e-01     0.238185     0.178094 -25.56 0.0008054074    1.408    0.290
       100  -9.9327    186.3290    210.4930   1.0930088941e+02   1.6493826690e+00    0.2322207    0.1636859 -18.88 0.0009426253    1.752    0.429
       101 -10.4018    176.8776    209.8505   1.1114543163e+02   3.5089891417e+00    0.3317142    0.2097259 -41.34  0.001466293    1.689    0.408
       102 -10.4722    192.9132    209.2053   1.0771632128e+02   6.8678915907e-01    0.3206505    0.2068805 -44.83  0.001303191    1.645    0.392
       103 -10.7488    206.0030    207.0358   1.0467805701e+02  -1.2743411774e+00    0.3197778    0.2485898  -1.66  0.001111391    1.402    0.287
       104  -9.7350    183.2298    206.5664   1.0922095082e+02   2.9552672709e+00      0.24135    0.1703384 -19.08  0.001172759    1.776    0.437
       105  -9.1032    156.3043    206.3238   1.1489557879e+02   8.0469096862e+00    0.1411658    0.1127132  -2.07 0.0006133144    1.640    0.390
       106 -10.8563    197.9124    202.8611   1.0550824266e+02   9.3846372993e-01    0.4367397    0.2577935 -27.84   0.00174097    2.010    0.503
       107  -9.5763    139.6593    204.6709   1.1824380518e+02   1.1498590652e+01    0.1430624    0.1147386  -3.12 0.0007051544    1.740    0.425
       108 -10.1367    186.7462    202.4950   1.0773000382e+02   3.0735190478e+00     0.264168    0.1946364 -42.14  0.001096788    1.411    0.291
       109 -10.0066    160.8759    210.0883   1.1457140151e+02   6.4367552768e+00    0.2501357    0.1968182 -38.03  0.001274369    1.400    0.286
       110  -9.5748    172.9992    203.0189   1.1071745050e+02   5.5588828233e+00    0.1705028    0.1670258  -9.66  0.000640235    1.060    0.057
       111 -11.2130    210.2817    200.2115   1.0252476100e+02  -8.2192767082e-01     0.394252    0.3048647 -48.64  0.001409226    1.437    0.304
       112  -9.5944    192.8244    201.8167   1.0634682824e+02   2.0700783591e+00    0.1844247    0.1694037 -79.71 0.0007720168    1.331    0.249
       113  -9.9478    164.6393    201.5237   1.1223406650e+02   7.4446142388e+00    0.2715607    0.1754083 -19.97  0.001139809    2.414    0.586
       114 -10.5514    202.2035    196.5359   1.0341878964e+02   1.3190256525e+00    0.3225382    0.2412713 -27.78   0.00118098    1.378    0.274
       115  -9.4796    191.3007    197.3269   1.0579855092e+02   3.2050387386e+00    0.1450222    0.1092066  -1.54 0.0005111212    1.639    0.390
       116  -9.7777    176.4619    196.5271   1.0876155734e+02   6.1870981228e+00    0.2524092     0.133769 -35.08  0.001027825    2.231    0.552
       117 -10.2507    184.4563    195.3703   1.0684627256e+02   4.8832267420e+00    0.3167954    0.2238099  -9.11  0.001320125    1.952    0.488
       118 -10.4258    209.3262    193.6982   1.0143676051e+02   5.3255974099e-01    0.3158096    0.2247848 -21.35 0.0009418844    1.532    0.347
       119  -9.8453    194.0644    193.9605   1.0457194324e+02   3.3278298330e+00     0.222715    0.2081182  -4.00 0.0009284866    1.041    0.039
       120  -9.8896    205.1440    190.2904   1.0159167755e+02   1.9391975908e+00    0.2528113    0.1788645 -29.91  0.000760472    1.450    0.310
       121 -10.2378    198.9219    190.1651   1.0282468932e+02   3.1344655687e+00    0.3061426    0.2018937 -34.65  0.001053102    1.553    0.356
       122  -9.6028    161.6180    191.2255   1.1097042056e+02   1.0154147206e+01    0.2077437    0.1373519 -37.94 0.0009486557    1.671    0.402
       123  -9.7744    185.4093    189.7783   1.0555012689e+02   5.8041108586e+00    0.2049188    0.1350078 -32.00 0.0009174842    1.674    0.403
       124  -9.8218    178.9688    189.2171   1.0680722658e+02   7.1717757676e+00    0.2659226    0.1852296 -30.12   0.00115516    1.623    0.384
       125  -9.7629    172.4638    190.0188   1.0836548872e+02   8.2819006548e+00    0.2232723    0.1444771 -45.02 0.0008451185    1.592    0.372
       126 -10.2378    210.2260    188.4321   1.0020661337e+02   1.3399464010e+00    0.2637664    0.1890401 -35.85 0.0008689279    1.366    0.268
       127  -9.8868    193.1584    187.1403   1.0340299758e+02   4.8238801620e+00     0.231681     0.191657  -1.49  0.001122159    1.347    0.258
       128  -9.9850    166.4789    185.0208   1.0869290010e+02   1.0505319151e+01    0.2143425    0.1277043 -24.85 0.0008102989    2.595    0.615
       129 -10.8817    203.4233    182.6309   1.0038619807e+02   3.7226635076e+00    0.3274421    0.2468661 -20.89   0.00111393    1.445    0.308
       130 -10.7867    211.2107    181.2436   9.8547912817e+01   2.5040581114e+00    0.4106518    0.2488821 -28.43  0.001473655    1.815    0.449
       131 -10.0864    183.6044    182.0594   1.0438139566e+02   7.7131913887e+00    0.2853085     0.181456 -31.55  0.001072188    1.780    0.438
       132  -9.6686    197.2140    181.7919   1.0147834201e+02   5.0868708491e+00     0.204782    0.1675296  -8.47  0.000869952    1.361    0.265
       133  -9.7722    176.6001    180.2255   1.0551334904e+02   9.4902032494e+00    0.2133538    0.1394603 -35.04 0.0009513626    1.664    0.399
       134 -10.3457    191.0103    178.4265   1.0207021210e+02   6.9778028430e+00    0.2949365     0.201892 -28.14  0.001365041    1.638    0.389
       135 -10.2356    205.0955    175.8803   9.8650566573e+01   4.7076264360e+00    0.3179887    0.2019548 -35.28  0.001004475    1.577    0.366
       136  -9.7902    215.0000    176.0554   9.6730432949e+01   2.7679197409e+00    0.3011579    0.1577415 -32.70 0.0008831982    2.023    0.506
       137  -9.8882    215.5381    172.5032   9.5881211021e+01   3.3397905516e+00    0.2375623    0.1768841 -32.40 0.0007731248    1.299    0.230
       138 -10.0355    197.8074    175.7166   1.0009595366e+02   6.1718166141e+00    0.2630583    0.1942379 -29.56  0.001179582    1.411    0.291
       139 -10.1270    101.0098    176.0047   1.2225772348e+02   2.4982663164e+01    0.2086059    0.1902186  86.82            0    1.009    0.009
       140 -10.1448    210.5029    174.5291   9.7291343973e+01   3.9202690038e+00    0.2767313    0.1981724 -38.04  0.001174506    1.347    0.257
       141  -9.7562    182.4734    175.0351   1.0317314873e+02   9.3854729971e+00    0.2309975    0.1459056 -42.94 0.0009230069    1.587    0.370
       142  -9.6792    192.5398    172.4658   1.0050154026e+02   7.8777013267e+00    0.2707031    0.1366514 -33.07  0.001025722    2.327    0.570
       143  -9.2388    187.6697    171.6654   1.0135566756e+02   9.0274859026e+00    0.1555941    0.1180648  -1.40 0.0007052123    1.728    0.421
       144 -10.0973    205.1035    168.2739   9.7038256680e+01   6.1991021481e+00    0.2658987    0.1969926 -28.00  0.001246101    1.403    0.287
       145 -10.9176    218.9467    166.9483   9.4049112410e+01   3.7432835235e+00    0.4397546    0.3049481  -7.71  0.001683202    1.947    0.486
       146 -10.1620    221.4832    160.8993   9.2272717261e+01   4.4061702627e+00    0.3070419     0.205428 -23.20 0.0009158743    1.695    0.410
       147  -9.5635    212.0566    168.4825   9.5706539452e+01   4.7860256845e+00    0.2082094    0.1428761  41.00 0.0006999685    1.512    0.339
       148  -9.7196    179.0000    167.9841   1.0243109158e+02   1.1575916832e+01    0.2536815   0.08563348 -45.24 0.0008036159    2.951    0.661
       149 -10.0327    191.7817    164.1011   9.8864869483e+01   9.7443670125e+00    0.2936074    0.2071378 -23.29  0.001324139    1.687    0.407
       150  -9.7623    199.4899    163.9069   9.7230808293e+01   8.2027932031e+00    0.2328777    0.1430338 -40.89  0.001028659    1.585    0.369
       151  -9.3536    184.5237    164.5013   1.0048789848e+02   1.1164718271e+01    0.1516362    0.1451641  -8.65 0.0008094432    1.062    0.058
       152 -10.6121    213.1177    161.7386   9.4049670826e+01   5.8885390733e+00    0.3763356    0.2503758 -27.56  0.001430475    1.625    0.385
       153 -10.1530    205.3859    160.4712   9.5293341313e+01   7.6927113099e+00    0.3202944    0.2460493 -14.93  0.001179509    1.527    0.345
       154  -9.6790    153.3755    160.8243   1.0667035263e+02   1.8488836909e+01    0.2280838    0.1424813 -38.07 0.0009009222    1.754    0.430
       155 -10.6437    226.7896    155.9846   9.0229002729e+01   4.3106347857e+00    0.4530233    0.1946112 -34.75  0.001336484    2.409    0.585
       156 -10.6051    228.4623    151.0029   8.8844288844e+01   4.9279334691e+00    0.5488603    0.1893047 -34.51  0.001768691    3.332    0.700
       157 -10.2540    221.4849    151.4922   9.0224710033e+01   6.2107194209e+00    0.2897926    0.2158583 -12.25  0.001082776    1.648    0.393
       158 -10.0355    216.1447    155.3269   9.2069651768e+01   6.5350998294e+00    0.2671568    0.1895894 -30.19 0.0009400963    1.428    0.300
       159  -9.7505    197.0159    155.9985   9.5997978073e+01   1.0323254315e+01    0.2450372    0.1865332  -6.26  0.001130405    1.710    0.415
       160  -9.9616    238.6499    139.8580   8.4644372423e+01   5.0333160804e+00    0.2740996    0.1623386 -29.92 0.0007324398    1.776    0.437
       161 -10.5923    233.0992    152.7544   8.8397429084e+01   3.7036759125e+00    0.4069879    0.2102357 -32.43  0.001410634    1.990    0.498
       162 -11.2715    234.9633    145.4852   8.6496614848e+01   4.7012396222e+00    0.5094899    0.3096368 -26.75  0.001598462    1.845    0.458
       163  -8.9203    211.6695    154.6706   9.2784188118e+01   7.5671705131e+00    0.1523798    0.1155423  -1.21 0.0007051642    1.715    0.417
       164  -9.7113    215.4624    147.9384   9.0564971971e+01   8.1185100345e+00     0.233051    0.1381923 -39.94   0.00102752    1.589    0.371
       165 -10.2498    223.5113    145.4845   8.8527342169e+01   6.9613826946e+00    0.3213618    0.2293386 -15.62  0.001273011    1.762    0.432
       166  -9.8452    208.1945    143.9785   9.1065086584e+01   1.0412447589e+01    0.2505118    0.1715018 -15.93  0.001074071    2.001    0.500
       167 -10.1411    230.0660    139.7786   8.6096391246e+01   6.7357844020e+00    0.3380493    0.1876224 -36.45  0.001476895    1.711    0.416
       168  -9.5962    224.4847    139.0323   8.6916574218e+01   8.0037376723e+00    0.2274205    0.1351128 -38.63 0.0006969398    1.571    0.363
       169  -9.5984    218.6098    137.1758   8.7561605295e+01   9.5729397863e+00    0.2177671    0.1333927 -31.09 0.0009465883    1.741    0.426
       170 -10.9072    234.4379    134.1238   8.4096798141e+01   6.9271063903e+00    0.3826808    0.2282012 -39.76  0.001789395    1.521    0.342
       171 -10.3713    248.7551    134.2460   8.1787855101e+01   4.1282239731e+00    0.3906703    0.1650544 -38.13   0.00133573    2.134    0.531
       172 -10.7670    247.8597    128.6412   8.0723913172e+01   5.3095139801e+00    0.3755638    0.2633297 -27.67  0.001218746    1.495    0.331
       173 -10.3450    249.1942    123.2686   7.9361313775e+01   6.0194876547e+00    0.2721704     0.227137 -32.18   0.00118351    1.172    0.147
       174 -10.5473    242.2218    132.7874   8.2516961742e+01   5.6430771065e+00    0.3442712    0.2261462 -25.54  0.001233994    1.711    0.416
       175  -9.3145    225.5546    132.5034   8.5263591992e+01   9.0344936410e+00    0.1462073    0.1337119 -33.89 0.0007335911    1.066    0.062
       176 -10.8089    243.7210    138.9558   8.3608753603e+01   4.2264487433e+00    0.3898697    0.2542588 -31.28  0.001178694    1.504    0.335
       177 -10.8055    240.4769    125.3661   8.1176113087e+01   7.3466782979e+00    0.4561256    0.2525396 -28.79  0.001957872    2.093    0.522
       178 -10.8615    247.8804    117.8430   7.8388358689e+01   7.2472796605e+00     0.355667    0.1871552 -36.61   0.00160646    1.775    0.437
       179 -11.5362    240.3596    110.9934   7.8027461481e+01   9.9858445989e+00    0.4939575     0.219246 -36.11  0.001986068    2.214    0.548
       180 -10.8609    241.5146    106.0032   7.6752270252e+01   1.0643079889e+01    0.4207377    0.2320504 -41.07  0.001953139    1.621    0.383
       181  -9.1051    238.3132    120.3161   8.0408053265e+01   8.7070840162e+00    0.1379657    0.1112831  -2.82 0.0004155368    1.643    0.391
       182  -8.9129    248.6865     97.6437   7.3901753581e+01   1.0644304795e+01    0.1321651    0.1083582  -3.39 0.0007044375    1.740    0.425
       183  -8.9855    247.6805     92.3031   7.2885616084e+01   1.1766410736e+01    0.1419843   0.09515813 -68.58  0.000702713    1.628    0.386
       184  -9.1937    241.6973     92.6572   7.3785880020e+01   1.2947009405e+01    0.1314992    0.1105353  -1.29 0.0007039278    1.680    0.405
       185  -9.3064    248.2090     74.0134   6.8891570813e+01   1.4693404360e+01    0.1988655    0.1501939 -51.97 0.0008957325    1.147    0.128
       186 -10.9112    249.0849     63.7184   6.6610795033e+01   1.6134359896e+01    0.5240386    0.2059147 -32.65  0.002031731    3.088    0.676
       187 -10.7275    191.2984    247.8717   1.1464841023e+02  -5.5477998378e+00    0.2935059    0.2750981 -53.68  0.001996809    1.350    0.259
       188 -10.4209    242.1649    247.6073   1.0512002193e+02  -1.3251740836e+01    0.2194197    0.1741251 -15.05 0.0008947589    1.196    0.164
       189 -10.5742    176.0059    246.3260   1.1738276515e+02  -2.7773663060e+00    0.3111944    0.1914735 -41.27  0.001690355    1.874    0.466
       190  -9.7301    156.3970    247.7343   1.2144573055e+02   2.9007638749e-01    0.1595865    0.1227156 -35.65 0.0007384886    1.579    0.367
       191 -10.6250    232.9949    246.6291   1.0660838416e+02  -1.1816199914e+01    0.2611338     0.203865  25.68  0.001140187    1.169    0.145
       192  -9.7613    163.4123    246.6742   1.1991007283e+02  -7.1596370453e-01    0.2187047    0.1281555 -55.23   0.00112487    2.118    0.528
