#   1 NUMBER                 Running object number                                     
#   2 MAG_AUTO               Kron-like elliptical aperture magnitude                    [mag]
#   3 X_IMAGE                Object position along x                                    [pixel]
#   4 Y_IMAGE                Object position along y                                    [pixel]
#   5 X_WORLD                Barycenter position along world x axis                     [deg]
#   6 Y_WORLD                Barycenter position along world y axis                     [deg]
#   7 A_WORLD                Profile RMS along major axis (world units)                 [deg]
#   8 B_WORLD                Profile RMS along minor axis (world units)                 [deg]
#   9 THETA_WORLD            Position angle (CCW/world-x)                               [deg]
#  10 FWHM_WORLD             FWHM assuming a gaussian core                              [deg]
#  11 ELONGATION             A_IMAGE/B_IMAGE                                           
#  12 ELLIPTICITY            1 - B_IMAGE/A_IMAGE                                       
         1 -12.0301     68.9852    145.3660   1.0676340851e+02   3.7567452742e+01     1.298663    0.6067661  82.33  0.005340678    3.498    0.714
         2 -12.6103    213.0275     19.7281   4.4305208174e+01   2.8357045300e+01     1.669967    0.9819454  18.38  0.007052084    2.176    0.541
         3 -12.6844    200.7167     32.5911   4.9765478222e+01   3.0159248969e+01     1.417129     1.093993  19.41  0.006532636    1.418    0.295
         4 -10.8520     12.2559     17.8390   1.0194003972e+02   7.2176630607e+01    0.3993419    0.1339503 -61.13  0.001798985    2.223    0.550
         5  -8.2399     32.6737      8.3297   8.5620115390e+01   7.2172937032e+01    0.1197009    0.0970183 -77.12 0.0007050774    1.705    0.414
         6  -8.8907     16.2077      1.6155   9.2097893118e+01   7.5258351243e+01    0.1526476    0.1092323  -1.35 0.0009494685    1.687    0.407
         7 -12.0812     99.2123    248.3540   1.1020023068e+02   1.7242386297e+01      1.24541    0.2855627  38.66  0.005940279    3.374    0.704
         8 -12.0113    116.5808    245.3289   1.0727156331e+02   1.5440029094e+01     1.164408    0.3207597  34.04  0.004382921    5.666    0.824
         9 -12.2593     76.5326    248.0124   1.1369423194e+02   1.9965524715e+01     1.678038    0.3109839  40.11  0.008083368    3.427    0.708
        10 -10.4639     65.2477    241.0321   1.1507327962e+02   2.2148447642e+01    0.2659424    0.2649905 -20.39  0.001010598    1.707    0.414
        11 -10.4967     61.8410    248.5919   1.1598600362e+02   2.1535308049e+01    0.7251686    0.1556866  51.04  0.003862326    2.996    0.666
        12 -11.0531     55.1068    239.3910   1.1658757294e+02   2.3483766019e+01    0.5158144    0.1781645  49.92  0.003099796    1.878    0.467
        13  -9.7772     51.4488    250.1071   1.1763748776e+02   2.2452567954e+01    0.3442947   0.08975323  47.39  0.002116327    2.213    0.548
        14 -12.0815     42.2175    208.8250   1.1721391807e+02   2.9341016841e+01    0.5925909    0.4876476 -46.60  0.004874005    2.058    0.514
        15 -13.4994     51.3713    198.8151   1.1501492226e+02   2.9955441391e+01     2.027054      1.13853  74.40    0.0140009    1.621    0.383
        16 -10.2551     86.1129    224.2535   1.1063028063e+02   2.1979463142e+01    0.2277515    0.1528045  85.49  0.001103865    1.655    0.396
        17 -10.6382     82.6371    223.0577   1.1113069052e+02   2.2575170860e+01    0.2942657    0.1636737  66.58  0.002045912    1.740    0.425
        18  -9.1213     50.3486    224.2953   1.1661426343e+02   2.6124180630e+01    0.2089516     0.119138  74.30   0.00159175    1.579    0.367
        19  -8.9376    173.3269    221.3134   9.5858415081e+01   1.0395296805e+01    0.1059102   0.06744004  22.16 0.0003441239    1.667    0.400
        20  -8.1278     76.6517    234.8291   1.1289745528e+02   2.1671350761e+01     0.121295   0.07630382  81.76 0.0008840979    1.709    0.415
        21 -10.3405     73.9764    219.2823   1.1234145229e+02   2.4165826949e+01    0.4090568    0.1754971  62.14  0.002416654    2.302    0.566
        22 -15.4554      6.7041    203.4822   1.2315776864e+02   3.3604651944e+01     10.91557     1.900739 -84.39   0.03026972    5.745    0.826
        23  -8.7927     58.8799    228.3169   1.1541701699e+02   2.4608450374e+01    0.1534852   0.09930917  74.33 0.0005808633    1.397    0.284
        24  -7.2650     96.2595    201.3361   1.0698118141e+02   2.4012985662e+01   0.09035631   0.08254617  10.85 0.0001674018    1.577    0.366
        25  -9.7044     28.2631    196.9791   1.1912269046e+02   3.2681980379e+01    0.1704592     0.146925  85.45 0.0006273005    1.382    0.277
        26  -8.6492    193.7718    192.2664   8.8634899430e+01   1.0489875321e+01    0.2116607     0.118991  43.14  0.001280081    1.466    0.318
        27  -8.1096     96.5527    190.9875   1.0593576287e+02   2.5588347916e+01    0.1469673    0.1056965 -73.49  0.001024965    1.586    0.369
        28 -12.6451      7.6431    250.0741   1.2413044244e+02   2.6684159083e+01     0.492022     0.284149  32.19  0.000466819    1.983    0.496
        29 -10.3729     67.6030    180.5428   1.1058616179e+02   3.1142121570e+01    0.3013872    0.2467742 -31.03  0.001327002    2.065    0.516
        30 -10.2712     72.3480    175.1560   1.0915377873e+02   3.1494921010e+01    0.2491443    0.2237906 -43.86 0.0009369251    1.612    0.380
        31  -7.6282     99.5383    180.5001   1.0425895758e+02   2.6879832618e+01    0.1165431   0.09229041  57.96  0.000346692    1.027    0.026
        32  -9.4419    103.3962    172.6012   1.0257851046e+02   2.7650788492e+01    0.3801116    0.1543562  61.45  0.001419485    4.198    0.762
        33  -8.6770    194.9188    168.3375   8.4601391027e+01   1.3122118852e+01    0.1766192    0.1691101   4.22 0.0009041264    1.248    0.198
        34  -9.1819     95.9784    169.4892   1.0372060101e+02   2.9276262938e+01    0.1831079   0.09894618  43.57  0.001026834    1.576    0.365
        35  -8.7433     90.3114    166.6283   1.0456138251e+02   3.0597494859e+01    0.1269705    0.0765122  69.08 0.0001949565    1.776    0.437
        36 -11.6306     68.8152    161.4572   1.0856031296e+02   3.4459077565e+01    0.3579203    0.2738801 -48.68  0.001102199    1.771    0.435
        37  -9.3800    102.7052    241.1194   1.0914222667e+02   1.7695734232e+01    0.2328421    0.1520398 -56.98  0.001872689    2.153    0.536
        38  -8.9151     32.7380    165.1143   1.1653522937e+02   3.7887567298e+01    0.1904381    0.1135947  54.60 0.0009627078    1.327    0.247
        39  -9.3201     32.2930    156.9638   1.1609182862e+02   3.9492696278e+01    0.1584159     0.118908  78.36 0.0006233577    1.074    0.069
        40 -12.9558      2.3976    247.1383   1.2483286437e+02   2.7532475062e+01    0.6683406    0.2966375 -78.75  0.003906068    2.480    0.597
        41  -8.1254     38.7817    146.3021   1.1383831610e+02   4.0940624347e+01    0.2273731   0.06688019  41.61  0.001047035    2.696    0.629
        42 -10.6333     89.4127    142.2750   1.0163209023e+02   3.5319875231e+01    0.2388632    0.2292681 -70.25 0.0005589734    1.248    0.199
        43  -8.9738     85.1658    144.3871   1.0290413347e+02   3.5528143616e+01    0.3032357    0.1513898  56.97  0.001228879    2.036    0.509
        44  -9.2113    102.5596    141.3811   9.8482017929e+01   3.3462106547e+01    0.4161778    0.2855262 -23.19  0.002031798    2.739    0.635
        45  -7.6567     79.5245    139.5362   1.0356040030e+02   3.7303951843e+01    0.1254186    0.1053375  71.75 0.0008089609    1.022    0.021
        46  -8.4011    111.3026    131.7119   9.4863631385e+01   3.3889302490e+01    0.2444847    0.1913355  -1.68 0.0009494919    2.021    0.505
        47  -8.3500    105.9196    131.1714   9.6027418425e+01   3.4904937824e+01    0.2120027    0.1645553  72.08  0.001224234    1.313    0.239
        48  -9.2888     98.5920    128.0997   9.7244693878e+01   3.6725320867e+01    0.2519125    0.2220079 -29.03  0.001143313    1.475    0.322
        49 -10.5970     81.6673    164.9274   1.0618561850e+02   3.2111151305e+01     0.412936    0.3292189  35.39 0.0007224072    1.408    0.290
        50  -8.3360    125.6680    127.3466   9.0747244943e+01   3.2178901027e+01    0.1406785    0.1019632  80.39  0.000704951    1.764    0.433
        51 -11.0556    116.2553    230.6774   1.0612705204e+02   1.7260803165e+01    0.4030629    0.1984369  44.01  0.002704649    1.445    0.308
        52  -8.1787    107.7687    120.0641   9.3552970314e+01   3.6808210911e+01    0.1740415    0.1664418  88.93 0.0002229028    1.076    0.070
        53  -9.0964     83.4665    231.9346   1.1160263182e+02   2.1249728281e+01    0.1775245   0.09081492 -81.06  0.001133859    2.561    0.610
        54 -10.5145     91.4516    233.2133   1.1038576367e+02   2.0104223510e+01    0.2882025    0.1652656  75.51  0.001822334    2.058    0.514
        55  -7.8387    167.5319    112.5135   7.8478131015e+01   2.6479260257e+01    0.1387793    0.1332366  36.48 0.0004484457    1.043    0.041
        56  -8.8383    119.9969    111.0152   8.8710641318e+01   3.6401435340e+01    0.1697012    0.1618043  85.09 0.0008970396    1.022    0.022
        57  -7.9922    205.5439    110.4721   7.0928188536e+01   1.8719398132e+01    0.1390087    0.1234072  11.93  1.77086e-05    1.020    0.019
        58 -10.3288    152.8588    227.1590   9.9815496105e+01   1.2673778801e+01    0.2160318    0.2034826 -74.27  0.001928544    1.466    0.318
        59 -10.7580     86.8781    159.0528   1.0439580309e+02   3.2471246346e+01    0.5006667    0.4068834 -23.19  0.001247268    1.984    0.496
        60  -9.0528    134.5946    103.2474   8.3432682688e+01   3.5034457208e+01    0.2736101    0.1361349 -48.00  0.001137285    2.087    0.521
        61  -8.2795     33.2880     99.6295   1.1045710744e+02   5.1576422130e+01    0.1316749   0.07717162  73.26 0.0007021537    1.712    0.416
        62  -9.5453    245.9988     96.1670   6.1331044252e+01   1.2190306927e+01    0.3101661   0.09549466 -39.29  0.001064309    3.778    0.735
        63 -10.3602    109.1760    228.8462   1.0713846348e+02   1.8424426005e+01    0.3153157    0.1871325  42.71  0.002303025    1.254    0.202
        64  -7.9289     74.5099     84.5456   9.5129084663e+01   4.9936983437e+01    0.1371438    0.1220043 -81.83 6.564225e-05    1.036    0.035
        65  -8.0944    158.4761     80.4640   7.1992186168e+01   3.3915540460e+01    0.1495908    0.1428522  11.60 0.0002015384    1.047    0.045
        66  -9.6276    147.7103     51.8612   6.5242438714e+01   4.1324779082e+01    0.4639398    0.3179871 -78.25  0.001915533    2.157    0.536
        67 -11.0862    186.9431     48.5910   5.6857862592e+01   3.1742657346e+01     1.417215    0.4206015 -35.30  0.004527023    2.955    0.662
        68 -10.5491    139.4999    239.9502   1.0321280899e+02   1.3064294781e+01    0.2153719    0.1599578   8.43  0.001656446    2.001    0.500
        69 -11.1096    191.7006     39.7491   5.3292784450e+01   3.1651244923e+01    0.5122691    0.4356763  -3.82  0.001157588    1.185    0.156
        70 -11.6000    126.7841    230.3870   1.0437773941e+02   1.5891608875e+01    0.7967389    0.4283523  67.33  0.004695185    2.795    0.642
        71  -9.3638    149.1102     45.1684   6.2587280508e+01   4.2024970454e+01    0.3404321    0.2686298 -73.63 0.0005638131    1.544    0.352
        72 -10.2404    101.8066    227.4271   1.0824532044e+02   1.9565858217e+01    0.3928594    0.1840219  63.73  0.002274374    2.596    0.615
        73 -10.1059     96.3626    224.8930   1.0895572881e+02   2.0603779185e+01    0.2625175    0.1653144  75.37  0.001399446    1.778    0.437
        74 -11.3856    135.5001    230.1821   1.0293759129e+02   1.4732470182e+01     0.441011    0.2462702  37.87  0.003060513    1.402    0.287
        75  -9.3637    168.2023    226.0269   9.7225191769e+01   1.0624723251e+01    0.1487558    0.1126209  72.16  0.001087022    1.984    0.496
