#   1 NUMBER                 Running object number                                     
#   2 MAG_AUTO               Kron-like elliptical aperture magnitude                    [mag]
#   3 X_IMAGE                Object position along x                                    [pixel]
#   4 Y_IMAGE                Object position along y                                    [pixel]
#   5 X_WORLD                Barycenter position along world x axis                     [deg]
#   6 Y_WORLD                Barycenter position along world y axis                     [deg]
#   7 A_WORLD                Profile RMS along major axis (world units)                 [deg]
#   8 B_WORLD                Profile RMS along minor axis (world units)                 [deg]
#   9 THETA_WORLD            Position angle (CCW/world-x)                               [deg]
#  10 FWHM_WORLD             FWHM assuming a gaussian core                              [deg]
#  11 ELONGATION             A_IMAGE/B_IMAGE                                           
#  12 ELLIPTICITY            1 - B_IMAGE/A_IMAGE                                       
         1 -14.7834     16.3774    164.3435   1.4860876796e+02   3.8568458896e+01      6.29756     1.649059  88.18   0.02124938    5.648    0.823
         2 -12.2755      2.2071     42.2615   1.4072944914e+02   6.7474365094e+01     1.716489    0.1579933 -71.07  0.004397193    6.901    0.855
         3 -12.6883      2.9589     21.0980   1.3496738378e+02   7.2293870515e+01     2.242534    0.3110619 -46.65   0.00780001    3.973    0.748
         4 -13.3424    190.1829     27.0555   7.3835555715e+01   3.4411558407e+01     1.301647     1.157471  47.06  0.006462408    1.163    0.140
         5 -13.6110    203.7573      8.5111   6.6749706934e+01   3.2897483147e+01     1.614926     1.046929  35.85  0.008211096    1.778    0.438
         6 -12.3715      2.3392      7.8768   1.3049672453e+02   7.5188329945e+01     1.168538    0.4521575 -52.13  0.005868677    1.852    0.460
         7 -11.5130     12.6991    241.4958   1.5240372772e+02   2.5239930619e+01    0.5943289    0.1790217  73.25  0.003178697    3.600    0.722
         8 -10.3423    139.5023    250.0016   1.3108957129e+02   1.0519544907e+01    0.2148735    0.1062574  43.00  0.001380401    1.649    0.394
         9  -9.7752    127.2147    250.3938   1.3324408546e+02   1.1973638206e+01     0.151419   0.06991022  41.43 0.0007791126    1.639    0.390
        10  -9.8025     67.2881    250.2198   1.4357831291e+02   1.8820590968e+01    0.1417485    0.1359974 -35.75   0.00095467    1.508    0.337
        11 -10.2419     30.4059    250.1389   1.4976687232e+02   2.2431023709e+01    0.3215252   0.08481207  44.12  0.001916887    2.258    0.557
        12 -10.9966     34.7931    244.9858   1.4883813799e+02   2.2781426866e+01    0.4157095    0.3966601 -67.00   0.00403725    1.525    0.344
        13 -10.1291      1.7942    239.8231   1.5415033693e+02   2.6371252351e+01       0.3201    0.1253663  89.33  0.001879393    2.497    0.600
        14 -11.2847      2.4446    248.6331   1.5423781364e+02   2.5014956877e+01    0.4628199    0.2038512 -66.84  0.003292761    2.880    0.653
        15 -10.5800      7.4408    249.2491   1.5345860092e+02   2.4526209585e+01     0.204865    0.1150091  41.49 0.0008450849    1.329    0.247
        16  -9.4058     83.0208    243.9966   1.4045060599e+02   1.7996314395e+01    0.1664269   0.09133566  56.10 0.0009066163    1.699    0.411
        17  -8.4310     75.6866    244.3543   1.4176309982e+02   1.8753065360e+01    0.1065808   0.05648501  56.63 0.0007045101    1.735    0.424
        18  -9.8998     94.9840    241.6576   1.3815828723e+02   1.6964384255e+01     0.188117     0.132134 -84.96  0.001153954    1.860    0.462
        19  -8.9119     66.3264    242.9860   1.4331628624e+02   1.9952594387e+01    0.1341552    0.1026305  54.77 0.0004268895    1.093    0.085
        20 -13.7292      7.2923    209.5892   1.5239216339e+02   3.0803653306e+01     1.979281    0.6449757 -73.24  0.009047349    3.020    0.669
        21 -12.7221      3.5552    178.7529   1.5206855898e+02   3.6686382900e+01     1.796428    0.4555317 -79.79  0.006407458    3.480    0.713
        22 -13.8472     55.8866    213.3817   1.4336058830e+02   2.5686082818e+01     7.129125          nan  40.15   0.02214256    6.540    0.847
        23  -8.7295    152.5173    213.0248   1.2455295468e+02   1.3576682959e+01     0.135505    0.1140758 -37.70 8.400236e-05    1.450    0.310
        24  -9.7416     32.4717    207.0790   1.4752568557e+02   2.9082416050e+01    0.3361966    0.1017809  51.46  0.001717187    2.612    0.617
        25 -11.9598     24.1772    202.0394   1.4889137953e+02   3.0717067931e+01    0.4192381    0.1514887  49.96  0.001982671    2.108    0.526
        26 -11.2105     66.5601    200.3606   1.4026584237e+02   2.6768635075e+01    0.2622745    0.2008162 -47.43 0.0006967129    1.687    0.407
        27  -9.7195    191.6897    192.6799   1.1427653634e+02   1.0596200405e+01     0.368516    0.2394745 -63.64   0.00163694    4.467    0.776
        28 -11.5668     72.0859    192.1365   1.3839413243e+02   2.7606677995e+01    0.2226732    0.2105387 -60.70 0.0004942589    1.276    0.216
        29 -12.4812     41.8054    235.3651   1.4720745782e+02   2.3567349369e+01    0.2362855     0.230309 -80.75 0.0007584421    1.440    0.305
        30 -13.6415     47.5831    227.3831   1.4576568592e+02   2.4247850390e+01    0.7917016     0.515693  63.47  0.003819711    1.321    0.243
        31 -13.0113     68.6806    177.1637   1.3769087047e+02   3.0820696534e+01    0.4441398    0.2610207 -42.58  0.002062001    2.327    0.570
        32 -10.6117     81.3970    179.1941   1.3504862691e+02   2.8878814962e+01    0.2071587    0.1979361  69.27 0.0004105179    1.115    0.103
        33 -11.5833     88.3029    169.5570   1.3233045758e+02   2.9836345863e+01    0.5216292    0.5024117  45.27  0.003670015    1.103    0.094
        34  -9.1229    194.4077    157.9353   1.0752525901e+02   1.4915048280e+01    0.3048348    0.2166806 -78.03  0.001211214    4.533    0.779
        35 -10.7111     32.9020    156.0160   1.4415098933e+02   3.8895178848e+01      0.31536    0.1038898 -62.31  0.001441251    2.802    0.643
        36  -9.6400    100.2667    153.2921   1.2718391605e+02   3.1383960468e+01    0.2455639    0.2364179  18.69 0.0008689131    1.100    0.091
        37 -11.7756     88.9799    152.6910   1.2986709009e+02   3.3126494166e+01    0.2562525    0.2324463 -22.25  0.000534651    1.292    0.226
        38  -9.1475    235.6708    150.3404   9.8849782034e+01   9.0677722558e+00    0.1114467    0.0980188 -47.07 0.0007051596    1.740    0.425
        39 -12.3352     67.0609    143.8995   1.3421113781e+02   3.7869237628e+01    0.7293098    0.4513473  62.32  0.003760015    1.778    0.438
        40 -11.3283     57.7220    132.7131   1.3520791834e+02   4.1457604079e+01    0.7812477    0.3428172 -78.88  0.003195582    2.878    0.653
        41  -8.9437    103.0660    148.8177   1.2577773322e+02   3.1869741683e+01    0.2342654    0.1607372 -27.82 0.0009441514    1.953    0.488
        42  -8.3753    192.4052    144.4414   1.0515078981e+02   1.7242426968e+01    0.1323687    0.1160444   4.61 0.0001273673    1.044    0.042
        43  -9.5290    110.9506    137.7391   1.2185542823e+02   3.2890808592e+01    0.3622404    0.2373293 -19.80  0.001322662    2.337    0.572
        44 -11.0741     28.0480    138.5366   1.4391235095e+02   4.3114486478e+01    0.2786695    0.1421664  52.50   0.00149408    1.878    0.467
        45  -8.6250    173.9823    137.4803   1.0729968297e+02   2.1701040521e+01    0.1715862    0.1226465  67.28 0.0004342084    2.251    0.556
        46 -10.4131     98.3965    135.3195   1.2463325279e+02   3.5384045199e+01    0.2439389    0.2221522 -10.85 0.0005035508    1.234    0.190
        47 -10.1674    248.0224    249.6314   1.1352204904e+02  -2.6051890776e+00    0.2222296   0.06882602  34.64  0.001249561    2.472    0.596
        48  -9.1520    107.9155    124.3726   1.2000311795e+02   3.6173496640e+01    0.1866326    0.1638027  34.29 0.0003357272    1.133    0.118
        49 -10.4583     33.0000    119.0326   1.4053964693e+02   4.7125635613e+01    0.4831993    0.0633095 -71.26  0.001241125    6.812    0.853
        50  -9.0180     33.1825    228.6992   1.4842663729e+02   2.5420847648e+01    0.1567618    0.1031652  71.54 0.0005866424    1.345    0.256
        51 -10.3350    173.2530    222.2139   1.2196427488e+02   9.5112877773e+00    0.3024922    0.2003011  44.32  0.002008096    1.555    0.357
        52 -10.1493    168.1588    113.2738   1.0289359685e+02   2.6907270072e+01    0.3103498    0.2731748 -78.16 0.0009537501    1.540    0.351
        53  -8.9246    203.4570    111.4996   9.5602333186e+01   2.0061700659e+01    0.1425283    0.1213423   0.02 9.093749e-05    1.052    0.049
        54  -9.8020     34.4623     92.9841   1.3646546687e+02   5.3178434788e+01    0.4366647    0.2002734  45.03  0.002001811    2.407    0.585
        55  -8.8250    155.7028     75.6561   9.5218790017e+01   3.6069580819e+01    0.1577774    0.1146464   9.03 0.0007033974    1.670    0.401
        56  -9.9601     16.8831     66.2813   1.3855028292e+02   6.0983015200e+01    0.2347766     0.155332  38.04  0.001072709    1.743    0.426
        57 -10.4466      5.8389     62.8092   1.4261506746e+02   6.2434518877e+01    0.1881862    0.1822999 -40.84 0.0004925952    1.218    0.179
        58 -10.8381      1.8860     61.3565   1.4408155904e+02   6.2957295281e+01    0.3387106    0.1933652 -75.47  0.001303852    1.420    0.296
        59  -8.7097     32.6297     61.8634   1.3095038646e+02   6.0816143977e+01    0.1851739    0.1138826 -74.23 0.0005315665    1.662    0.398
        60 -11.0191      9.7353     54.5650   1.3949963294e+02   6.4210082557e+01    0.4381496    0.1415359  29.96  0.001891959    3.349    0.701
        61  -9.7685     98.7078    249.0225   1.3807422137e+02   1.5526929156e+01    0.1401103    0.1112346  44.14 0.0007144274    1.081    0.075
        62  -9.7238     81.5892    248.6033   1.4101647786e+02   1.7511310554e+01    0.2274088    0.1010148  57.31  0.001256748    2.379    0.580
        63  -9.7002     46.5892    248.8329   1.4701870272e+02   2.1104404720e+01    0.2186804   0.09699524  58.09 0.0009016369    1.927    0.481
        64  -9.8293    152.8628    248.8953   1.2868751198e+02   8.9929842555e+00    0.1596437    0.1127199  20.74 0.0005652279    1.251    0.201
