#   1 NUMBER                 Running object number                                     
#   2 MAG_AUTO               Kron-like elliptical aperture magnitude                    [mag]
#   3 X_IMAGE                Object position along x                                    [pixel]
#   4 Y_IMAGE                Object position along y                                    [pixel]
#   5 X_WORLD                Barycenter position along world x axis                     [deg]
#   6 Y_WORLD                Barycenter position along world y axis                     [deg]
#   7 A_WORLD                Profile RMS along major axis (world units)                 [deg]
#   8 B_WORLD                Profile RMS along minor axis (world units)                 [deg]
#   9 THETA_WORLD            Position angle (CCW/world-x)                               [deg]
#  10 FWHM_WORLD             FWHM assuming a gaussian core                              [deg]
#  11 ELONGATION             A_IMAGE/B_IMAGE                                           
#  12 ELLIPTICITY            1 - B_IMAGE/A_IMAGE                                       
         1 -15.7323    223.2761    178.2349   9.4863365581e+01   6.6015905391e-01      5.64345     4.636853  53.45   0.03130883    1.413    0.292
         2 -11.7754    212.3898     13.9199   5.9498803196e+01   3.0860416365e+01    0.4669013    0.1929508  49.90   0.00198825    3.100    0.677
         3  -9.4092    181.3164      5.0723   6.0853543622e+01   3.9000209156e+01    0.3135593    0.1575232 -84.79  0.001422607    2.413    0.586
         4  -9.5441    177.1316      2.1115   6.0623451940e+01   4.0257763277e+01    0.2250825    0.1729659  54.65   0.00142112    1.314    0.239
         5 -19.1077    220.2279     64.5743   6.9923364636e+01   2.2183989807e+01     8.284541     5.455791  65.83   0.03979886    1.501    0.334
         6 -13.0973     61.3444    142.3846   1.2593866231e+02   3.9181753178e+01     0.593145    0.5578572 -64.64  0.001007924    1.094    0.086
         7 -14.8041     72.2568    137.8377   1.2210148950e+02   3.8781552607e+01     1.853328     1.646653 -14.35  0.005062553    1.348    0.258
         8 -10.4027    124.7066    140.9831   1.0865001043e+02   2.8880400663e+01    0.2241898    0.1999173 -57.88 0.0005490872    1.095    0.087
         9 -11.2434    187.0256    137.8284   9.3236064940e+01   1.6102311284e+01    0.4118493    0.3202102  49.90  0.001987762    1.321    0.243
        10 -10.5936    173.5698    137.7990   9.6134381463e+01   1.9098789887e+01    0.4311146    0.2627523  56.56   0.00177189    1.812    0.448
        11  -9.8869    160.0648    214.9194   1.1489192347e+02   5.4872696962e+00    0.2029053    0.1896872  45.15 0.0004097758    1.024    0.024
        12  -9.5204    176.2544    190.4046   1.0691492981e+02   7.3127227075e+00    0.2014279    0.1349037  51.42 0.0003934209    1.559    0.359
        13 -11.4653      9.0761    131.0579   1.3823934771e+02   4.7121976439e+01    0.4573584     0.156364 -75.58  0.001871865    2.829    0.647
        14  -9.2686    192.2037    144.1708   9.3623935938e+01   1.3642421089e+01    0.1999795    0.1739284 -76.36 0.0003489501    1.284    0.221
        15 -10.0573    188.7772    129.6236   9.0935280945e+01   1.7422499260e+01    0.3329208    0.2270462 -48.25 0.0009254034    1.434    0.303
        16 -10.3994    116.0622    127.6236   1.0780566431e+02   3.3729615440e+01     0.266371    0.2108025 -65.61 0.0006249739    1.332    0.250
        17 -11.6343      1.8988    168.1375   1.4394507343e+02   3.9137464578e+01     0.292398    0.1657593 -69.02  0.001190393    1.398    0.285
        18  -9.0049    145.3069    168.6483   1.0954426596e+02   1.8249267197e+01    0.2399998    0.1905212 -77.73 0.0007749959    1.454    0.312
        19  -9.6004    229.7436    124.9935   8.2201151940e+01   9.4423141186e+00    0.1783427    0.1587281 -46.03 0.0004128077    1.027    0.026
        20  -9.7265    101.1440    125.0077   1.1126295828e+02   3.7156549221e+01    0.2870653     0.226263  29.23 0.0009921041    1.407    0.289
        21 -11.3111    205.1460    122.7495   8.6072770372e+01   1.5154305264e+01    0.3476271    0.2851742  40.36  0.001332889    1.337    0.252
        22  -9.4050    142.5807    165.8320   1.0961039992e+02   1.9447618678e+01    0.2572602    0.2071388  85.46 0.0006852769    1.461    0.316
        23  -9.2417    105.9637    118.3466   1.0830968705e+02   3.7814203104e+01    0.2034489    0.1935848  46.98 0.0005097445    1.092    0.084
        24  -9.4408     40.9553    118.5076   1.2733344957e+02   4.7284327035e+01    0.1692738     0.132312  28.28 0.0003811333    1.498    0.333
        25 -11.3986    200.2881    100.8743   8.1742099401e+01   2.0500670376e+01    0.5177925    0.3422492 -50.18  0.002002019    1.470    0.320
        26  99.0000    207.6050    102.9611   8.0933659984e+01   1.8424408017e+01     0.840666    0.4646501 -75.15  0.002675199    3.920    0.745
        27 -10.6808    206.9856    109.7780   8.2667306784e+01   1.7270914620e+01     0.394169    0.3728441 -31.63  0.001677175    1.136    0.119
        28 -11.5714    211.8866    113.9288   8.2766354252e+01   1.5376332130e+01    0.6523947    0.4097524 -56.52  0.002218353    1.688    0.408
        29 -11.1941    215.8276    112.0213   8.1628021908e+01   1.4867743031e+01    0.3469867     0.236536 -72.29   0.00120027    1.871    0.465
        30 -13.8783     39.3871    151.9789   1.3325315626e+02   3.9479909701e+01     1.180467    0.7549844 -62.75  0.004286995    1.327    0.246
        31 -10.6963    151.6568    142.6811   1.0233749284e+02   2.2842839900e+01    0.3789669    0.2749815 -67.76  0.001667658    1.618    0.382
        32  -9.8494    149.3590    163.7937   1.0757302953e+02   1.8524515922e+01     0.370701    0.2279093  70.25   0.00137046    2.559    0.609
        33 -10.5988    180.8612    148.8704   9.7102766188e+01   1.5113593801e+01     0.498368    0.2836112  49.09 0.0009252796    1.808    0.447
        34 -10.0986     85.3811     97.6833   1.0899788799e+02   4.6064673955e+01    0.2943776    0.2043482 -53.39 0.0008804658    1.430    0.301
        35 -10.4733    157.8750    161.8649   1.0516704178e+02   1.7186011628e+01    0.4726595    0.3011082  87.96  0.001633799    3.140    0.682
        36 -11.9295     21.9747    161.4030   1.3872552167e+02   3.8983703368e+01     0.460705    0.2130247  56.39  0.002182595    2.506    0.601
        37 -11.0093    147.5979    157.7850   1.0670327653e+02   2.0261077997e+01    0.5030503    0.3673656  58.93  0.001665067    1.479    0.324
        38 -10.4814     90.9605     44.5501   9.0860054819e+01   5.4744484423e+01     0.371651    0.1767272 -30.47  0.001624923    2.220    0.550
        39  -9.2028    179.5470     32.0373   6.7837457581e+01   3.6468250860e+01    0.2303605     0.156442  47.88 0.0006642643    1.557    0.358
        40  -9.5163    108.0844    157.5009   1.1645152031e+02   2.8111028938e+01    0.2335012    0.1919464 -60.60 0.0003761376    1.174    0.148
        41 -12.1248    237.7210     25.6908   5.9494305452e+01   2.3792484984e+01    0.2965355    0.1680233  68.33  0.001335548    1.662    0.398
        42 -11.3610    230.8620     26.2633   6.0274001994e+01   2.5223300117e+01    0.4210849    0.1826983  75.12  0.001794353    2.221    0.550
        43  -9.7262     91.7924    158.0773   1.2074611383e+02   3.0806549263e+01    0.2225549    0.1839719  89.10 0.0005586789    1.238    0.192
        44  -9.5856    169.4954     21.8210   6.6662138154e+01   4.0079248959e+01    0.2826556    0.1326268 -29.31 0.0008691723    2.456    0.593
        45  -9.6802    167.5677    187.3643   1.0821623733e+02   9.6543618268e+00    0.4759516    0.2518259  66.42  0.001432297    4.335    0.769
        46 -10.2604    182.8097    153.8215   9.7799659858e+01   1.3637883194e+01    0.2837496    0.2378638 -89.50 0.0003910717    1.440    0.305
        47  -9.8426    208.5059     20.0491   6.1260681028e+01   3.1049016380e+01    0.2201945    0.1438963  53.15  0.000916995    1.685    0.407
        48 -11.7079    247.2280    236.4021   1.0151234246e+02  -1.2630309628e+01     0.199093    0.1722827  -5.03 0.0002639482    1.163    0.140
        49  -9.8191    104.9930    153.0070   1.1634620747e+02   2.9756736772e+01     0.394656     0.197247 -76.02  0.001147056    4.244    0.764
        50  -8.9816     13.2969    234.3293   1.4671586899e+02   2.3749595364e+01   0.09975391   0.07751879 -63.78 0.0002991169    1.636    0.389
        51 -10.6451    166.0785    152.2568   1.0115960238e+02   1.7578759736e+01    0.3487599    0.2656454 -88.44 0.0005128558    1.750    0.428
        52  -9.9380     42.2330    246.9949   1.4256890246e+02   1.7864756851e+01    0.1452299   0.08288802 -78.87 0.0003752552    1.606    0.378
