#   1 NUMBER                 Running object number                                     
#   2 MAG_AUTO               Kron-like elliptical aperture magnitude                    [mag]
#   3 X_IMAGE                Object position along x                                    [pixel]
#   4 Y_IMAGE                Object position along y                                    [pixel]
#   5 X_WORLD                Barycenter position along world x axis                     [deg]
#   6 Y_WORLD                Barycenter position along world y axis                     [deg]
#   7 A_WORLD                Profile RMS along major axis (world units)                 [deg]
#   8 B_WORLD                Profile RMS along minor axis (world units)                 [deg]
#   9 THETA_WORLD            Position angle (CCW/world-x)                               [deg]
#  10 FWHM_WORLD             FWHM assuming a gaussian core                              [deg]
#  11 ELONGATION             A_IMAGE/B_IMAGE                                           
#  12 ELLIPTICITY            1 - B_IMAGE/A_IMAGE                                       
         1 -12.6200    246.2795     28.3136   3.4894867682e+02   2.4423668967e+01    0.7305003    0.3267669 -56.89  0.004359977    1.780    0.438
         2 -12.1137    248.0640     22.6966   3.4776582112e+02   2.4760015975e+01    0.5282227    0.2691993 -55.38  0.003450603    1.454    0.312
         3  -9.7254    227.3419      9.6031   3.4614548088e+02   2.9785843968e+01    0.1957276    0.1559451 -57.40 0.0006664949    1.137    0.120
         4  -9.9948      2.1719      2.7467   4.0934919639e+01   7.9327676004e+01    0.2903215   0.07530254 -48.88  0.001136645    3.624    0.724
         5  -9.4377    108.4865    240.4894   5.1911033124e+01   1.0069849032e+01    0.1236152    0.1022567  14.78 0.0008096147    1.064    0.060
         6  -9.3410    101.0047    250.3789   5.4565203425e+01   9.1905611683e+00    0.1680688    0.1258026  24.69  0.001097113    1.082    0.076
         7  -9.9379     37.7646    249.6382   6.8613822188e+01   1.5981744392e+01    0.1552028    0.1496183 -72.32  0.001161487    1.302    0.232
         8 -13.1592     54.4242    228.2009   6.3361114173e+01   1.8558877181e+01     3.513985    0.8308433 -69.50   0.01249244    4.558    0.781
         9 -15.0252     32.6273    180.8367   6.5395724387e+01   3.1821872397e+01     8.731683          nan  35.26   0.02380713    4.862    0.794
        10 -12.8493    126.6511    229.4492   4.6626772101e+01   9.8877013851e+00    0.5916587    0.3880278  20.45  0.003454024    1.346    0.257
        11  -9.5910     59.1256    231.0477   6.2447691762e+01   1.7466723196e+01    0.1971352    0.1732647 -77.29  0.001304796    1.309    0.236
        12 -12.8934    108.2961    228.8085   5.0651391225e+01   1.2216122512e+01    0.8406774    0.2504869  33.22  0.003375184    2.679    0.627
        13  -8.8567     71.9871    232.7449   5.9523949692e+01   1.5705694876e+01    0.1669021   0.09377193  27.36 0.0008710393    1.508    0.337
        14  -9.0966     42.3707    229.2483   6.6350638096e+01   1.9598631654e+01    0.1888234    0.1382818 -25.35   0.00108495    1.843    0.457
        15 -11.7066     87.2084    222.4928   5.4894397753e+01   1.5989907705e+01    0.5883842    0.3434837  38.15  0.003102197    1.491    0.329
        16  -9.5874     72.1497    224.1767   5.8710195060e+01   1.7420197940e+01    0.1805829    0.1576661  11.51 0.0003275477    1.181    0.153
        17  -9.7735    174.7656    223.0065   3.5872879820e+01   5.2847253212e+00    0.1469687   0.09038584 -39.81 0.0005878442    1.615    0.381
        18 -10.2838     47.0887    229.0688   6.5199403133e+01   1.9151963578e+01    0.2032975    0.1685035  73.90 0.0009467098    1.249    0.200
        19 -10.9893    163.9992    223.1877   3.7988184583e+01   6.4989151800e+00    0.2094422    0.1657479 -29.73  0.001392041    1.248    0.199
        20  -8.8096    132.2753    211.3530   4.2976477090e+01   1.2489511815e+01    0.1320261   0.09098494 -16.47 0.0007005034    1.643    0.391
        21  -9.8183     95.4869    208.5040   5.1274406481e+01   1.7846629718e+01    0.2191446     0.134233 -80.31 0.0008485183    2.315    0.568
        22 -13.0431     46.3743    172.1484   6.0478117669e+01   3.2573582501e+01        1.219    0.7965275  34.50  0.005992261    1.421    0.296
        23  -9.6418    210.7634    198.8161   2.5720288718e+01   4.8817821270e+00     0.182676    0.1333186   2.70 0.0004840869    1.279    0.218
        24  -8.9196    234.4819    190.9836   2.0760342193e+01   3.4104111191e+00    0.1607942   0.08709269 -36.20  0.000454548    1.500    0.333
        25  -8.7545     73.2766    191.6473   5.4987177747e+01   2.4467200790e+01    0.1461022   0.09843902  61.91 0.0007007133    1.645    0.392
        26  -9.8360    102.9057    239.0009   5.2994851100e+01   1.0979263961e+01     0.186604    0.1598919  23.06 0.0004960838    1.032    0.031
        27 -11.3736    108.1385    187.5399   4.5241306849e+01   2.0646156031e+01    0.3458692    0.2442443   4.86  0.001179644    1.679    0.404
        28 -10.6286     64.5795    184.5203   5.6552261634e+01   2.7275500288e+01    0.4765576    0.2469024 -89.56  0.001420566    2.731    0.634
        29  -9.3365     94.1737    182.7986   4.8170646416e+01   2.3709566266e+01    0.2777361    0.1965503 -80.97  0.001050953    1.749    0.428
        30 -15.7144      6.7687    139.6506   7.0433792717e+01   4.4999422187e+01     13.48007     3.691564  86.84   0.03682265    4.936    0.797
        31  -9.0143    108.5514    176.5376   4.3416823136e+01   2.3040725039e+01    0.1405397    0.1345486  15.53 6.357485e-05    1.011    0.010
        32 -10.9802    172.1132    174.0133   2.8439863778e+01   1.3966188868e+01    0.3967806    0.2923698 -26.98  0.001837405    1.279    0.218
        33 -10.9374     59.9351    173.6159   5.6586454475e+01   3.0570981392e+01     0.271773    0.2281451  70.33 0.0003356586    1.189    0.159
        34 -11.2204     88.5730    169.1659   4.7649005179e+01   2.7755308524e+01    0.5970698    0.4168219   9.11  0.002014343    1.747    0.427
        35 -11.1255    179.1154    165.1241   2.5452235246e+01   1.4557106113e+01    0.4333919     0.370466 -85.94  0.002577783    1.728    0.421
        36 -10.3058    110.4263    166.8137   4.1292779712e+01   2.4974279622e+01    0.2534956    0.2431163  40.30 0.0003808429    1.045    0.043
        37 -13.4815     57.2147    127.8483   5.0632720474e+01   4.3058773436e+01     1.933677     1.045622  84.79  0.002999542    2.949    0.661
        38 -12.6394     76.1964    149.9956   4.8190707683e+01   3.4413627887e+01     1.304897    0.6700452 -63.11 0.0004375442    1.981    0.495
        39 -11.8840     66.8583    156.8781   5.2202027610e+01   3.3967868290e+01    0.7824037     0.443422  56.39  0.001120281    2.010    0.503
        40 -13.4110     63.7692    144.7091   5.1285240861e+01   3.7604620709e+01     1.108445    0.7605456 -15.35 0.0007914494    2.061    0.515
        41 -12.4569     70.2135    145.2049   4.9270154550e+01   3.6549336513e+01    0.5560859    0.5139981 -71.40  0.001728681    1.079    0.073
        42  -9.3577    141.9012    163.6511   3.2953822272e+01   2.0628839024e+01    0.2555495    0.1821311 -68.35 0.0006950054    1.836    0.455
        43 -11.9410     61.7315    160.7804   5.4361838245e+01   3.3641811237e+01     0.525823    0.4396899 -75.06  0.002784645    1.207    0.172
        44 -12.1470     44.6892    157.4139   5.9325270745e+01   3.6640617496e+01     0.354481    0.2562231  65.47 0.0007105178    1.402    0.287
        45 -10.5920     33.7669    158.6050   6.2990920933e+01   3.7513381827e+01    0.2606011    0.1660237  36.25 0.0007298804    1.475    0.322
        46 -14.9295     14.0222    241.5792   7.3596367464e+01   1.9737618951e+01     1.185335     1.009731   5.53  0.006410404    1.422    0.297
        47 -10.3366    133.7038    147.2553   3.1668399394e+01   2.5511593825e+01    0.5856031    0.2127464 -56.08  0.001891586    3.390    0.705
        48 -10.2207    133.0000    141.0201   3.0540998283e+01   2.7004729345e+01    0.5595092    0.1743724 -55.00  0.001623727    4.046    0.753
        49 -10.3647     41.4271    146.7927   5.9085362595e+01   3.9882386398e+01    0.2641933    0.2379441  55.17 0.0005839144    1.063    0.059
        50 -10.5258    108.8950    145.2843   3.7682176269e+01   3.0283188937e+01    0.2807882    0.2690473 -41.47 0.0006550764    1.049    0.047
        51 -11.5495     83.9559    144.4231   4.4797999402e+01   3.4650020547e+01    0.6636557    0.4589084 -27.93  0.002915533    1.871    0.466
        52  -9.7635    100.9109    143.7626   3.9623890726e+01   3.2018389575e+01      0.24427    0.2091954 -54.43 0.0003822645    1.166    0.143
        53 -10.1965     36.7888    142.6562   6.0156831044e+01   4.1528687758e+01    0.3286618     0.223332 -75.77 0.0008009648    1.430    0.301
        54 -11.4602     48.5251    141.0527   5.5860153838e+01   4.0606460402e+01    0.5270018    0.2858579  43.15 0.0008920145    1.791    0.442
        55 -10.0244     42.1161    139.6499   5.7893633308e+01   4.1757996796e+01    0.3705007    0.2125786  58.93  0.001469031    1.923    0.480
        56  -9.5978    127.3068    137.6554   3.1231329528e+01   2.8781104837e+01    0.3078474    0.2026616 -70.79  0.001318323    2.033    0.508
        57  -9.8528    125.0721    133.8032   3.0959411046e+01   3.0059086717e+01    0.2951202    0.2161679 -57.19  0.000582748    1.389    0.280
        58 -10.1968    122.8076    130.0735   3.0712881713e+01   3.1326737087e+01    0.2891392    0.2410074 -80.87 0.0007917444    1.381    0.276
        59 -13.2561     18.9751    234.2942   7.2176319699e+01   2.0781576282e+01    0.4166476    0.2878497 -85.18 0.0006067379    1.563    0.360
        60 -14.5455      5.3956    228.3659   7.5128347972e+01   2.3183822693e+01    0.6583102    0.4618617  53.42  0.002371951    1.142    0.125
        61 -11.7085    102.6964    131.8617   3.6637512698e+01   3.4610428893e+01    0.9037567    0.5105706  15.84  0.002631228    3.112    0.679
        62  -9.5024     32.5227    133.4531   6.0502383556e+01   4.4521587025e+01    0.3558468    0.1726004  58.65  0.001130567    2.407    0.584
        63 -11.5482     86.2537    131.7972   4.1606939372e+01   3.7499924399e+01    0.2973431     0.289122 -50.29 0.0004299982    1.058    0.055
        64  -8.1495     39.2996    133.3010   5.8005830575e+01   4.3829692623e+01    0.1514397    0.1100009 -36.55 0.0003495836    1.582    0.368
        65 -10.6652     43.7554    131.4802   5.6112620321e+01   4.3812959280e+01     0.362721     0.164925 -64.37  0.001399272    2.060    0.515
        66 -11.1948     66.9307    127.0836   4.7058950321e+01   4.1845080371e+01    0.5625181    0.3522213  67.84  0.002269681    2.084    0.520
        67 -10.2025    219.7157    123.3078   1.0650789596e+01   1.5552893369e+01     0.680645    0.1910869 -49.56  0.002125093    5.108    0.804
        68 -10.1014     33.6052    127.5973   5.9305285316e+01   4.6034233737e+01      0.39287    0.2186009  57.60  0.001350513    1.987    0.497
        69  -9.9090    109.5054    126.0155   3.3387538402e+01   3.4765801848e+01    0.2815594    0.2189823  15.22 0.0008930656    1.589    0.371
        70  -9.7969    115.6444    121.1529   3.0558103963e+01   3.4737140376e+01    0.2196949    0.1991445  76.02  0.001148615    1.167    0.143
        71  -9.9477     96.4882    120.9944   3.6050806602e+01   3.8400014720e+01    0.2771888    0.2184876  16.39 0.0007028266    1.528    0.346
        72 -16.5708      5.7568    216.3988   7.4640234572e+01   2.5749452899e+01     2.462454     1.862575  57.28   0.01076183    1.091    0.084
        73 -10.8559     50.2290    119.0559   5.1590089708e+01   4.6405203139e+01    0.3798716    0.2552145  22.90 0.0004175284    1.599    0.375
        74 -11.1505     52.3606    114.8132   4.9957430509e+01   4.7269127005e+01      0.39373     0.281433  82.41 0.0004791646    1.630    0.386
        75  -9.3936    106.2028    116.0553   3.1984294943e+01   3.7755585582e+01    0.2200408    0.2063132 -21.82 0.0003699955    1.163    0.140
        76 -11.4977     23.5494    104.5957   5.9938268082e+01   5.3417584071e+01    0.5025817    0.3099521  49.95  0.001646311    1.716    0.417
        77 -10.9482     37.6705    104.7493   5.3903784544e+01   5.1895341108e+01    0.2858755    0.2428666  49.46 0.0003902702    1.199    0.166
        78  -9.5600     69.0196    101.7041   4.0661611740e+01   4.8158058886e+01    0.2163678    0.1990237  50.42 0.0004788738    1.089    0.081
        79 -11.1224     30.5852    100.1707   5.6093797574e+01   5.3937988328e+01    0.4742148    0.2518162  41.90 0.0008744596    1.930    0.482
        80 -10.6304     46.1763     91.3705   4.7323958697e+01   5.4384766369e+01     0.308915    0.2412544  50.05  0.001298077    1.338    0.253
        81  -9.0503    162.3409     88.2921   1.1724439166e+01   3.1928028018e+01    0.1346308    0.1124571   9.11 0.0002789623    1.651    0.394
        82 -10.3936     28.6259     79.7351   5.2720011468e+01   5.9607737756e+01    0.6828704    0.1764264  40.92  0.002016034    4.153    0.759
        83  -9.6005    101.9134     77.0859   2.2450561339e+01   4.7391007333e+01    0.2333433    0.1945565 -86.23 0.0005284732    1.320    0.243
        84  -9.6852     38.5566     76.0222   4.6848074325e+01   5.9357998225e+01    0.4332598    0.1344654  44.34  0.001272712    3.908    0.744
        85 -14.7070     10.0252    206.3475   7.3176777121e+01   2.7679783678e+01    0.8476627    0.5297967   6.58  0.002556565    1.944    0.486
        86  -9.2358     76.5108     67.0141   2.7498066133e+01   5.4932585290e+01     0.204877    0.1312609 -73.38 0.0005770061    2.355    0.575
        87 -11.9961    195.1262     62.3474   5.0985434036e-01   2.9407458794e+01    0.5784039    0.4070768 -88.59  0.003321023    1.553    0.356
        88 -12.8414    208.3759     55.2662   3.5745243780e+02   2.7827275865e+01    0.8428943    0.6274834 -52.46  0.003258122    1.068    0.064
        89 -13.3363    218.5140     48.0014   3.5491460928e+02   2.6896532383e+01    0.6483246    0.6260425  19.16  0.001313864    1.478    0.323
        90 -11.2168     13.5004     59.9725   5.6159804249e+01   6.6080645579e+01    0.2515546     0.206632  13.07 0.0005125612    1.255    0.204
        91 -10.0813     22.4221     47.2349   4.6718320792e+01   6.8242690514e+01    0.3181267    0.1190735  45.03  0.001098626    3.592    0.722
        92 -10.1084     18.9646     36.6907   4.4924299716e+01   7.0954585208e+01    0.1863437    0.1648553   8.41 0.0004985374    1.087    0.080
        93  -9.1804     44.6411    248.2419   6.6990523960e+01   1.5575468135e+01     0.144597    0.1063971 -59.80 0.0005597074    1.666    0.400
        94 -10.0335     36.0961    243.0389   6.8640763680e+01   1.7421109466e+01    0.2608335    0.2382981 -89.81  0.001358817    1.275    0.215
        95 -10.6462    125.1573    238.5871   4.8059006306e+01   8.4749667687e+00    0.1819174    0.1364267 -38.49 0.0006127508    1.460    0.315
        96  -9.4557     60.6844     21.1751   1.4112707061e+01   6.6396946266e+01    0.2337596    0.1725466  63.17 0.0006876892    1.358    0.264
        97 -11.2992     43.5634    239.2523   6.6698977165e+01   1.7435880888e+01    0.2718887    0.1789278  49.39  0.001043803    1.305    0.234
