#   1 NUMBER                 Running object number                                     
#   2 MAG_AUTO               Kron-like elliptical aperture magnitude                    [mag]
#   3 X_IMAGE                Object position along x                                    [pixel]
#   4 Y_IMAGE                Object position along y                                    [pixel]
#   5 X_WORLD                Barycenter position along world x axis                     [deg]
#   6 Y_WORLD                Barycenter position along world y axis                     [deg]
#   7 A_WORLD                Profile RMS along major axis (world units)                 [deg]
#   8 B_WORLD                Profile RMS along minor axis (world units)                 [deg]
#   9 THETA_WORLD            Position angle (CCW/world-x)                               [deg]
#  10 FWHM_WORLD             FWHM assuming a gaussian core                              [deg]
#  11 ELONGATION             A_IMAGE/B_IMAGE                                           
#  12 ELLIPTICITY            1 - B_IMAGE/A_IMAGE                                       
         1 -10.9895    184.8952     36.8450   6.3993715450e+01   3.4540266297e+01    0.7017026    0.4635998 -10.20  0.003444694    2.636    0.621
         2 -10.5195    190.2287     29.1947   6.1527257445e+01   3.4273697067e+01    0.6803433    0.4009461 -41.82  0.002902977    1.753    0.429
         3  -9.1202    211.2503      5.7317   5.4317997301e+01   3.2269984252e+01    0.3524657    0.1050485  63.05  0.001573609    2.829    0.647
         4  -7.2929    145.0607      5.0106   6.1626268648e+01   4.7036562249e+01    0.1481036    0.1153136  68.67  0.000426451    1.052    0.049
         5 -10.3271     83.6567    231.0456   1.2868058462e+02   1.4533547531e+01    0.5169343    0.3641053 -60.76  0.002472522    1.490    0.329
         6  -9.2435    243.3170    249.8129   9.8978201181e+01  -1.3949874377e+01    0.2579862    0.1514399  45.35  0.001418167    2.378    0.579
         7 -11.9282    232.6888    249.9411   1.0092499792e+02  -1.2586188213e+01    0.2554374     0.192079  28.84 0.0003954757    1.328    0.247
         8 -14.3192     10.9659    210.5923   1.4176513158e+02   2.8415634701e+01     4.283435     3.091045  66.94    0.0281381    1.217    0.178
         9 -13.5573     14.0941    239.8710   1.4330747881e+02   2.1704568585e+01    0.5691529    0.4803412  51.75   0.00153336    1.379    0.275
        10 -10.1476    144.8471    226.4274   1.1471261803e+02   5.3662416591e+00     0.272494    0.2626649 -22.97 0.0002616682    1.121    0.108
        11  -8.9150     96.1131    224.5073   1.2514884216e+02   1.4022489969e+01    0.3868216    0.1888414 -64.76  0.001241332    2.179    0.541
        12 -15.1531     25.0588    249.0144   1.4196048239e+02   1.8578620734e+01     1.739342     1.037729 -54.09  0.002696856    2.236    0.553
        13  -8.4388    122.0021    223.4735   1.1927525368e+02   9.9413266355e+00    0.3207565    0.2148502  47.67 0.0009696663    1.393    0.282
        14  -8.9652     79.8933    220.8551   1.2823873370e+02   1.7373415082e+01    0.2397196    0.1818203  84.69   0.00052426    1.280    0.219
        15  -7.9727     89.8663    220.1084   1.2593997414e+02   1.6000041310e+01    0.2171622    0.1658916  76.45  0.000911618    1.299    0.230
        16  -7.2824    221.0077    216.7219   9.7250843683e+01  -5.6305338814e+00    0.1597757    0.1109242  32.25 0.0008778599    1.449    0.310
        17 -10.2255     71.0532    211.6596   1.2904224996e+02   2.0806290704e+01    0.8915943    0.3253011  57.54  0.002237953    4.121    0.757
        18 -10.4997     63.7107    200.6739   1.2931121663e+02   2.4461225084e+01    0.8134763    0.4493261 -77.31  0.002570059    1.856    0.461
        19  -9.8642     70.5907    198.7065   1.2744784502e+02   2.3950682399e+01    0.9815876    0.4230971  62.37  0.003273947    3.753    0.734
        20  -7.4396     78.2008    212.3698   1.2752614349e+02   1.9578780187e+01    0.1950541     0.112274  50.33 0.0002894461    1.654    0.395
        21  -7.5204    146.5071    212.0819   1.1195150056e+02   8.0636760612e+00    0.1958452    0.1430122 -53.06 -0.0002518844    1.436    0.304
        22 -14.1169     57.7104    248.8206   1.3584312549e+02   1.4495208241e+01     3.590151      1.93281  38.04   0.01926471    1.840    0.457
        23  -8.6538     30.3698    205.6712   1.3731407216e+02   2.7491478974e+01     0.251552    0.1778224  34.15  0.001488416    1.651    0.394
        24  -9.5610     27.7220    201.8605   1.3751072675e+02   2.8678183671e+01    0.3627795    0.2543897 -78.41  0.001013868    1.201    0.168
        25  -9.7082     23.4991    201.4757   1.3838133693e+02   2.9225189754e+01    0.3111416    0.2163617 -63.09  0.001079367    1.407    0.289
        26  -9.3857    134.6622    232.3145   1.1784253726e+02   5.9262163540e+00     0.454832    0.2575378  17.27  0.001751612    3.124    0.680
        27  -8.8470    101.2744    201.8294   1.2067669198e+02   1.8367703639e+01    0.4833967    0.2830491  89.16  0.001882743    2.664    0.625
        28  -7.8080    135.7144    195.9336   1.1155433769e+02   1.3613579726e+01    0.2068753    0.1865981 -72.40 0.0004466976    1.139    0.122
        29  -7.7825     82.0307    194.7951   1.2417527297e+02   2.3173686500e+01    0.2533497    0.1433309  62.61  0.001070934    2.104    0.525
        30  -9.7790     72.8757    190.2872   1.2571409975e+02   2.5662959496e+01    0.6082537    0.4633869 -64.83  0.003275283    1.238    0.193
        31  -7.6491     51.9247    192.5479   1.3101704204e+02   2.8015253777e+01    0.1862572     0.129471  40.90  0.000459405    1.511    0.338
        32  -9.2393     57.4431    186.0623   1.2885159506e+02   2.8876810847e+01    0.6012109    0.2461843  55.26  0.002216691    3.088    0.676
        33  -7.6964     79.9897    183.9655   1.2300944610e+02   2.6144477100e+01     0.232402    0.1601581  74.76 0.0005160231    1.652    0.395
        34 -14.4883     13.5671    249.5268   1.4403191415e+02   1.9771013315e+01     1.322713    0.4513816  58.35  0.006296716    2.625    0.619
        35  -8.3146     31.9537    181.9991   1.3443409163e+02   3.2966524992e+01    0.3274747    0.1348299  45.57  0.001192564    2.477    0.596
        36  -9.0090    250.0839    177.5549   8.4541043914e+01  -3.2477309018e+00    0.3012433    0.1884067 -49.50  0.001443981    1.596    0.373
        37  -8.6738     22.5272    175.7710   1.3595036160e+02   3.5457361767e+01    0.3686247    0.2583313 -44.29  0.001466385    1.681    0.405
        38  -8.5531     18.9494    172.9575   1.3648574499e+02   3.6483564415e+01    0.2439503    0.2111038  23.47 0.0007504345    1.488    0.328
        39  -6.7840    164.2769    177.6201   1.0138559627e+02   1.2263062520e+01    0.1553851    0.1204033 -85.09 0.0002237039    1.708    0.415
        40  -8.5312     83.5685    175.1893   1.2066925885e+02   2.7765733968e+01    0.4678058    0.2642561 -35.31  0.001827224    2.621    0.618
        41  -8.7852     86.7812    170.1419   1.1896436231e+02   2.8512342919e+01    0.3460835    0.2790102 -32.64  0.001412302    1.487    0.328
        42  -8.3783      5.8453    175.1172   1.3976336840e+02   3.7130599198e+01    0.2198365    0.1696617  35.23 0.0009185224    1.564    0.361
        43  -8.0625     10.9980    174.5239   1.3852012448e+02   3.6830817178e+01    0.3072078    0.1251947  26.16  0.001421592    3.021    0.669
        44  -9.1327    239.0758    173.0947   8.5518645971e+01  -6.8016998313e-01     0.283835    0.1958695  46.68 0.0004368097    1.697    0.411
        45  -7.2777    122.8120    172.3454   1.1018848445e+02   2.1600852380e+01    0.2110151    0.1455187  29.92 0.0003353312    1.647    0.393
        46  -9.0973    240.0293    168.3610   8.4409234235e+01   3.4995744493e-02    0.2592462    0.2308269  29.06 0.0004671182    1.266    0.210
        47  -7.5836     20.2032    167.8136   1.3559768071e+02   3.7612243630e+01    0.1780422    0.1350141 -52.85  0.000978468    1.358    0.264
        48  -7.2938    194.1792    167.6152   9.2831717864e+01   8.5304830022e+00    0.2135783     0.140132  31.67  0.000958973    1.750    0.428
        49  -9.1487     94.6991    166.8316   1.1630016919e+02   2.8026868312e+01    0.2494623    0.2414132  77.03 0.0003769366    1.065    0.061
        50  -8.3542    160.9911    164.7827   9.9430801282e+01   1.5809411067e+01    0.2450841    0.2135461 -50.25 0.0002947693    1.124    0.110
        51  -8.8864    240.0274    163.5570   8.3443897239e+01   9.2588397563e-01    0.2508555    0.1989478 -51.96 0.0006309085    1.250    0.200
        52  -7.9560    249.4981    163.5005   8.1873468483e+01  -6.3390524419e-01    0.1343644    0.1138153 -37.82 -0.0002389908    1.017    0.016
        53  -9.9715    126.0727    232.2205   1.1968736340e+02   7.4060192345e+00    0.5996755    0.3778121 -69.72  0.002652483    1.939    0.484
        54 -10.0392    207.9541    161.1733   8.8727381772e+01   7.1917667344e+00    0.2527537    0.2504525  60.35 0.0003545135    1.101    0.092
        55  -7.8481     93.2720    161.9525   1.1574889619e+02   2.9486030166e+01    0.2164104     0.183307 -61.88 0.0005741941    1.117    0.105
        56  -7.3723     62.4975    162.5187   1.2402453666e+02   3.4063564929e+01    0.1438533    0.1283543 -74.08 -1.628372e-05    1.011    0.011
        57  -9.9869     82.1301    156.5286   1.1769278832e+02   3.2668599847e+01    0.4865289    0.2999768 -43.50 0.0008506267    1.725    0.420
        58  -8.1631     97.9096    155.8136   1.1330491820e+02   3.0218980766e+01    0.2870718    0.2054696 -35.04 0.0008521006    1.629    0.386
        59  -9.3764     53.0560    153.2259   1.2501699679e+02   3.7633489094e+01    0.3386836    0.1542379 -55.65  0.001439153    1.909    0.476
        60  -8.7713     31.8134    153.9203   1.3084305954e+02   3.9878785395e+01    0.2905042    0.1985055  24.36 0.0009726316    1.790    0.441
        61  -8.8537     93.9248    151.4099   1.1348228724e+02   3.2001852084e+01    0.2705458    0.2089572 -56.80 0.0003385229    1.224    0.183
        62  -8.7304     12.5480    151.9357   1.3561178858e+02   4.2131004520e+01     0.313262    0.1870468  19.05  0.001711766    2.189    0.543
        63  -8.7474     13.0488    146.9792   1.3485849607e+02   4.3284211916e+01    0.2606326    0.1765196  34.38 0.0009245265    1.736    0.424
        64 -10.2737     68.4101    143.7991   1.1904394709e+02   3.7921087567e+01    0.6621457    0.4170608  69.00  0.002450856    2.244    0.554
        65  -8.9379    227.3323    143.7997   8.1520332367e+01   6.9506455546e+00    0.2332206    0.2171119 -46.66 0.0002413155    1.051    0.049
        66  -7.4966    212.7463    142.3477   8.3780480763e+01   1.0057191791e+01    0.1467294    0.1074634 -67.15 0.0001954634    1.591    0.371
        67  -7.3461    155.7233    141.9847   9.5547659004e+01   2.2093015159e+01    0.2127371    0.1964587 -58.41  0.000386561    1.054    0.051
        68  -7.7723     55.6812    142.6651   1.2244013828e+02   3.9929635895e+01    0.1474097    0.1002404 -34.92 0.0007048966    1.699    0.412
        69  -8.9188     97.6023    140.1126   1.1006762421e+02   3.4144694847e+01    0.2625532    0.2550773 -36.58 0.0004299175    1.073    0.068
        70  -8.7186     10.4613    140.2884   1.3467523342e+02   4.5091515791e+01    0.3627628    0.1440362  24.46  0.001672429    3.019    0.669
        71  -7.5282    160.4007    137.5459   9.3427513847e+01   2.2084519888e+01     0.156185     0.147153 -65.49  0.000157034    1.037    0.036
        72  -8.5730     43.6704    131.0717   1.2378335346e+02   4.4216420226e+01     0.207521    0.1803351  54.88 0.0004361386    1.301    0.231
        73  -8.0101    112.1644    230.6045   1.2247498966e+02   1.0077161468e+01    0.2942543    0.1550366 -75.29  0.001101259    2.766    0.638
        74  -7.7228    103.3786    126.6564   1.0535127443e+02   3.6323579212e+01    0.2269055    0.1797664  81.75 0.0006897437    1.589    0.371
        75  -7.5237    183.4546    119.0360   8.4078432689e+01   2.0980434492e+01    0.2235676    0.1433546 -45.61 0.0003449616    1.488    0.328
        76  -7.7504    244.6576    117.7348   7.3369737632e+01   8.5869356693e+00    0.1226963    0.1054937  -1.69 0.0006979155    1.600    0.375
        77  -8.0894     53.4990    111.5505   1.1675330181e+02   4.7682245209e+01     0.138471    0.1227592 -43.86 0.0002497953    1.012    0.012
        78  -7.7574    242.9902    101.2324   7.0227311286e+01   1.1847013816e+01    0.1608572    0.1107956  62.50 0.0005179867    1.618    0.382
        79  -8.6181    169.2413     96.0350   8.1318777038e+01   2.8758469528e+01    0.2332831    0.2042973  64.30 0.0003444619    1.132    0.117
        80  -8.2039    131.9474     95.1259   8.9505025539e+01   3.7378476126e+01    0.2217192    0.1953287 -89.85  0.001151046    1.269    0.212
        81  -9.5683    225.4426     88.6977   7.0023376034e+01   1.7570951909e+01    0.2422317    0.2181403 -73.05 0.0002154981    1.074    0.069
        82  -8.1232    230.1580     84.9316   6.8573645142e+01   1.7233923808e+01     0.221135    0.1703008  33.66 0.0007812975    1.940    0.484
        83  -8.4742    158.5128     80.6904   7.9560813541e+01   3.4058898164e+01    0.2612608    0.1297104  54.87  0.001062591    1.964    0.491
        84  -8.4081    112.7381     77.0402   8.9368543590e+01   4.4887734858e+01    0.2264182    0.1984933  44.53  0.000683187    1.117    0.105
        85  -7.4557    212.3742     70.2769   6.7842645037e+01   2.3463256709e+01    0.1281377    0.1054592  34.83  0.000700648    1.695    0.410
        86  -7.7634    169.2175     69.7648   7.4633989276e+01   3.3417043448e+01    0.2083334    0.1797385  89.89 0.0004719702    1.131    0.116
        87  -7.8575    143.3613     58.9992   7.6817629073e+01   4.1116097790e+01    0.2981738     0.152157  35.88  0.001162322    2.697    0.629
        88 -10.1954    125.8696     55.2152   7.9581119614e+01   4.5621159352e+01    0.2411859     0.239778 -49.77  0.000311626    1.085    0.078
        89  -7.2497    137.2316     52.0447   7.6136400715e+01   4.3532371491e+01     0.163269    0.1159864 -33.24  0.000382196    1.543    0.352
        90  -8.6608    172.0804     48.5730   6.8753352899e+01   3.5946015551e+01    0.3148145    0.1839073 -70.90  0.001353576    2.271    0.560
        91  -8.8727    221.3788     40.1978   6.0301778243e+01   2.5953315614e+01    0.3107346    0.2113566 -42.74  0.001216402    1.508    0.337
        92  -8.9572    115.8949    243.0155   1.2337055226e+02   6.9013106748e+00    0.4355583    0.1887929 -59.60  0.001513951    2.598    0.615
        93  -7.6477    194.8219     32.8145   6.1779649116e+01   3.2787572107e+01    0.1757752    0.1265011 -77.61 -0.000430966    1.302    0.232
        94  -9.8869    249.4599    239.5383   9.6127662417e+01  -1.3260546725e+01     0.358754    0.2272437  11.66  0.000650691    1.584    0.369
        95  -7.2876    167.6163     23.4258   6.3136717374e+01   4.0112813918e+01    0.1251535    0.1065358  83.66 8.930458e-05    1.029    0.029
        96  -9.7199     88.0276    234.3596   1.2815353746e+02   1.3145040683e+01    0.3754907    0.3006002   7.93  0.002079052    1.862    0.463
