#   1 NUMBER                 Running object number                                     
#   2 MAG_AUTO               Kron-like elliptical aperture magnitude                    [mag]
#   3 X_IMAGE                Object position along x                                    [pixel]
#   4 Y_IMAGE                Object position along y                                    [pixel]
#   5 X_WORLD                Barycenter position along world x axis                     [deg]
#   6 Y_WORLD                Barycenter position along world y axis                     [deg]
#   7 A_WORLD                Profile RMS along major axis (world units)                 [deg]
#   8 B_WORLD                Profile RMS along minor axis (world units)                 [deg]
#   9 THETA_WORLD            Position angle (CCW/world-x)                               [deg]
#  10 FWHM_WORLD             FWHM assuming a gaussian core                              [deg]
#  11 ELONGATION             A_IMAGE/B_IMAGE                                           
#  12 ELLIPTICITY            1 - B_IMAGE/A_IMAGE                                       
         1 -12.2270    179.8143     49.1741   5.6680700329e+01   3.4035621244e+01     1.349728    0.8941733  30.51  0.004222245    1.953    0.488
         2 -12.0555    191.7269     37.9749   5.1478137513e+01   3.2546070852e+01     1.013159     0.837772 -52.00  0.003493063    1.189    0.159
         3 -12.3176    198.9504     30.3012   4.8297779935e+01   3.1698112049e+01    0.8320244    0.7360427 -18.85  0.001660078    1.277    0.217
         4 -11.4667    223.6475      4.6774   3.8966758359e+01   2.8528860073e+01    0.6013905    0.5013152  36.23  0.003030358    1.554    0.356
         5 -11.1962    218.0013      4.0080   3.9285592398e+01   2.9953750217e+01    0.4962503    0.4092765 -46.15  0.002556768    1.200    0.166
         6 -10.6609     50.2507      6.7672   7.4729229056e+01   6.8221003220e+01    0.3747572    0.1813559 -16.63   0.00181358    2.287    0.563
         7 -10.6307     61.2377      4.2617   6.9058082613e+01   6.6737808469e+01     0.348237    0.2201652  28.23  0.002030573    1.441    0.306
         8  -9.1173    156.9498    218.2341   1.0116666508e+02   7.1631104914e+00    0.2085002    0.1880724  72.60 0.0005943388    1.248    0.198
         9  -9.8921    140.4662    249.8623   1.0842128410e+02   4.8722845410e+00    0.3826363     0.162848  37.10   0.00190139    2.050    0.512
        10 -10.1791    128.9962    247.9840   1.1029185311e+02   6.9382613530e+00     0.272405    0.2501569 -56.54  0.002043187    1.399    0.285
        11 -10.0467    133.9733    245.3513   1.0908852292e+02   6.5720018751e+00    0.3123376    0.1818797 -38.69  0.001725372    2.587    0.613
        12 -19.4168      9.4018    138.3256   1.2397085042e+02   4.4864029881e+01     18.24284     2.744193 -75.80   0.05124445    6.216    0.839
        13  -8.6982     46.1019    191.0343   1.2060073201e+02   2.9475366170e+01    0.2031833    0.1128928  70.36 0.0008917247    1.699    0.412
        14 -10.0772    168.4577    221.8521   9.9455888371e+01   4.6038646601e+00    0.3821916    0.1802419 -46.13  0.001841642    2.516    0.602
        15  -9.6503     93.0829    218.4993   1.1386835584e+02   1.7535363005e+01    0.2534312    0.1959809 -84.61  0.001097513    1.307    0.235
        16  -8.6054     99.5659    180.8948   1.0779620043e+02   2.4200809030e+01    0.2130674    0.1795885  41.40   0.00059154    1.247    0.198
        17  -9.6181     58.5875    176.8375   1.1649305047e+02   3.1049208096e+01    0.2545338    0.2049059 -74.23 0.0004720972    1.198    0.165
        18 -10.5032     44.4499    173.3625   1.1926121173e+02   3.3538888360e+01    0.4699963    0.2529283  45.70  0.001686616    1.775    0.437
        19  -9.9692     41.3217    170.6711   1.1968325310e+02   3.4497147673e+01    0.2437861    0.1571202 -85.64 0.0007563873    1.337    0.252
        20  -9.6291    114.9099    172.9885   1.0305985949e+02   2.3336734229e+01     0.283874    0.2181224  81.08  0.001492838    1.421    0.296
        21  -9.6980    103.9454    172.4296   1.0551138331e+02   2.5339233940e+01    0.3697346    0.2389685  61.00  0.001814541    1.611    0.379
        22  -8.7196    186.6854    215.6513   9.4965422187e+01   2.4421127101e+00    0.1324124   0.09269411   8.65 0.0007047071    1.723    0.420
        23  -7.5538    103.5036    213.5137   1.1123443331e+02   1.6894215153e+01    0.1304508    0.1040112  63.37 -9.66534e-05    1.074    0.069
        24 -10.6067     94.1860    153.7410   1.0478065149e+02   3.1213149244e+01    0.6022429    0.4348039 -31.33  0.002109422    1.931    0.482
        25 -10.2620    113.7864    208.0666   1.0846529002e+02   1.6298651158e+01    0.3598728    0.2307282  87.84  0.001485526    2.036    0.509
        26  -9.6337    134.3042    146.5980   9.3463764836e+01   2.5547718287e+01    0.7892272    0.2161669 -54.91  0.002044106    4.914    0.797
        27  -9.7271    106.4441    138.7694   9.8840814216e+01   3.2632888952e+01    0.4908823    0.2991049 -33.01  0.002020058    2.314    0.568
        28 -10.6432     94.2218    139.0974   1.0210334577e+02   3.4660429858e+01    0.2839701    0.2575347 -36.33 0.0004298978    1.261    0.207
        29  -8.5815    110.4288    140.1799   9.8098536839e+01   3.1583787480e+01    0.2116142    0.1384944 -68.93 0.0009397162    1.701    0.412
        30  -9.2030     76.8161    133.9869   1.0578945070e+02   3.8602367932e+01    0.2257022    0.1998979  58.94 0.0005244365    1.166    0.142
        31  -9.9693    114.4247    129.8046   9.4833444434e+01   3.3260824467e+01    0.4017242    0.2603118 -46.55  0.001211001    1.539    0.350
        32  -9.2209    105.6861    130.8755   9.7385239845e+01   3.4626135776e+01    0.3506177    0.3010401  88.52  0.001502719    1.221    0.181
        33  -9.3832    101.5357    125.7913   9.7396571303e+01   3.6568295881e+01    0.2768815    0.2372534 -12.50 0.0006914808    1.466    0.318
        34  -8.0787    134.4967    125.4894   8.8636325006e+01   3.0236956674e+01    0.1534511    0.1507358 -73.56 0.0008105848    1.007    0.006
        35 -10.0126    119.9369    123.2973   9.1877257194e+01   3.3700890897e+01    0.4528816      0.29922 -13.78  0.001700229    2.790    0.642
        36  -8.5814    109.6580    118.9711   9.3612685813e+01   3.6687811661e+01    0.2120386    0.1834624 -55.69 0.0003350528    1.108    0.098
        37  -8.6394    167.7442    112.6249   7.7380429820e+01   2.5600893892e+01    0.3955939    0.2649988 -88.16  0.001453375    2.676    0.626
        38  -9.9058    120.0712    111.1728   8.8841684674e+01   3.6447313893e+01    0.4273795    0.2300598 -57.01  0.001654826    2.051    0.513
        39 -10.9560    115.2307    109.6288   8.9765887413e+01   3.7767600354e+01    0.6389375    0.4096619 -50.69  0.002835262    1.512    0.339
        40  -8.6983    206.1807    110.0716   6.8820224189e+01   1.7139781933e+01    0.3334716    0.2038918  42.44 0.0009404881    1.748    0.428
        41  -8.0441    134.4828    106.4717   8.3780267551e+01   3.4459552652e+01    0.1555879    0.1523924 -56.32 0.0005969245    1.006    0.006
        42  -9.2236    107.9136    203.5014   1.0908830342e+02   1.8145046440e+01    0.1971454    0.1138529  44.37  0.000945262    1.531    0.347
        43  -8.0986     98.7037    200.2872   1.1060634712e+02   2.0256520949e+01    0.1327528   0.08739306  68.49 0.0001822537    1.550    0.355
        44  -9.2725    193.4557    195.3899   9.0150020498e+01   4.4555185874e+00     0.546317    0.2566511 -58.83  0.001659529    5.895    0.830
        45  -8.5788     82.0942    195.3036   1.1350810241e+02   2.3805729489e+01    0.2167896    0.1804837 -47.70  0.001338899    1.551    0.355
        46  -8.8372    114.1985    195.2083   1.0663053221e+02   1.8774898487e+01    0.2137116    0.1508812 -12.03 0.0009610354    2.868    0.651
        47  -8.1990     66.7119     70.9960   9.4037383935e+01   5.4752631552e+01    0.1950516    0.1613028 -45.46 0.0004460245    1.091    0.084
        48  -9.2959    157.7571     59.8536   6.4236869568e+01   3.8010440172e+01    0.2738992    0.2380013  85.29 0.0003174072    1.260    0.206
        49  -9.8355    113.0585    248.1573   1.1319393779e+02   9.3393959580e+00    0.3346371    0.1800483  64.87  0.001660673    2.123    0.529
        50  -8.1932     93.2766    249.6097   1.1685589946e+02   1.1997595799e+01    0.1537345   0.09247513  37.86  0.000937844    1.605    0.377
        51  -8.6512    169.0617    236.0605   1.0139362624e+02   2.3377717100e+00    0.1819228    0.1498956  39.63 0.0004010074    1.046    0.044
        52  -8.2427    160.4477     53.9001   6.1783164633e+01   3.8289254385e+01    0.2257193     0.148907 -33.35 0.0004436588    1.535    0.348
        53  -8.3685     72.0249    231.0643   1.1907047768e+02   1.8183649642e+01     0.182332    0.1054073  66.92  0.000420834    1.559    0.359
        54  -9.0697     96.8731    190.3379   1.0970800112e+02   2.2606901506e+01    0.2329415    0.1818431 -63.22 0.0005334981    1.346    0.257
        55 -10.8533    158.7585    221.4023   1.0127597241e+02   6.3311242728e+00    0.3747278    0.1894499  34.23  0.001475485    1.887    0.470
