#   1 NUMBER                 Running object number                                     
#   2 MAG_AUTO               Kron-like elliptical aperture magnitude                    [mag]
#   3 X_IMAGE                Object position along x                                    [pixel]
#   4 Y_IMAGE                Object position along y                                    [pixel]
#   5 X_WORLD                Barycenter position along world x axis                     [deg]
#   6 Y_WORLD                Barycenter position along world y axis                     [deg]
#   7 A_WORLD                Profile RMS along major axis (world units)                 [deg]
#   8 B_WORLD                Profile RMS along minor axis (world units)                 [deg]
#   9 THETA_WORLD            Position angle (CCW/world-x)                               [deg]
#  10 FWHM_WORLD             FWHM assuming a gaussian core                              [deg]
#  11 ELONGATION             A_IMAGE/B_IMAGE                                           
#  12 ELLIPTICITY            1 - B_IMAGE/A_IMAGE                                       
         1 -12.6610    145.2863     60.0129   3.0394809595e+01   4.0379534948e+01     1.841583     1.429585 -83.97  0.006748384    1.339    0.253
         2  99.0000     32.5217     24.1714   5.5330394348e+01   7.2473879883e+01     1.902402     1.473105  78.94  0.006346392    1.942    0.485
         3 -13.5602     58.6842      3.9209   2.8459459309e+01   6.9859586034e+01     2.406738    0.7713649  70.79   0.00726797    4.365    0.771
         4 -14.6607    130.2263     86.0070   4.1154069479e+01   3.9228303365e+01     2.654365     2.215145  50.78  0.009966614    1.221    0.181
         5 -13.2153     64.4812     36.4346   4.4071883504e+01   6.3913876390e+01     2.143039     1.420641  46.40   0.01030026    1.413    0.292
         6 -13.5289     55.6662     22.3067   4.0774200484e+01   6.8208259727e+01     1.818383     1.188941  54.45  0.009041316    1.429    0.300
         7 -13.8351     36.3841     54.9773   6.6659546435e+01   6.5236583815e+01     1.431198     1.177751 -34.82  0.002313387    1.262    0.208
         8 -13.2096     72.7703     25.1669   3.5293995813e+01   6.3790915025e+01      1.48269    0.6726437 -53.63  0.001084119    3.221    0.690
         9 -11.9554     79.3229     22.4904   3.1791304325e+01   6.2548442647e+01    0.7995403    0.6299518 -73.26  0.002907638    1.420    0.296
        10 -14.1512     43.7674     74.8760   6.8846746734e+01   5.9248253142e+01     1.728535      1.35166 -10.07  0.004495966    1.533    0.348
        11 -14.4609      9.7502     69.1442   8.6518589179e+01   6.4287389229e+01      2.40319     1.930538  -9.13    0.0131804    1.304    0.233
        12 -13.0452    177.9769     76.0979   2.9415266764e+01   3.0499520808e+01     2.846795    0.4840851 -43.01  0.008057389    4.785    0.791
        13 -14.4585    192.7236     69.1729   2.5700277316e+01   2.8538559906e+01     2.271733     1.450645 -86.02    0.0117987    2.009    0.502
        14 -12.0083    211.0678     21.0566   1.2565000205e+01   3.1001660870e+01    0.3950248    0.3561663  73.28  0.002902658    1.389    0.280
        15 -14.4560    219.0389     59.0076   2.0517391420e+01   2.4914920940e+01     1.617803      1.39872 -68.71   0.01156131    1.163    0.140
        16 -10.6476    223.2545     30.5876   1.3929922947e+01   2.7606076621e+01     1.645518    0.5464282  80.43  0.007220254    3.798    0.737
        17 -12.3231    221.7850      8.9618   9.2750903444e+00   3.0196635745e+01    0.6766868    0.2317213 -45.47  0.003522828    1.993    0.498
        18 -13.2485    200.2490     45.9605   1.9280872394e+01   3.0210657143e+01     1.511902    0.9501308 -11.32  0.007579629    2.497    0.600
        19 -13.0592    192.9885     37.4732   1.7886004689e+01   3.2781187319e+01     1.008402    0.6969298 -55.72  0.006054746    1.216    0.178
        20 -12.3034    243.0275     21.7671   1.0961913758e+01   2.5057701784e+01      0.54737     0.415982 -81.79  0.003817131    1.368    0.269
        21 -12.5587    235.2399     47.6647   1.6752712903e+01   2.3471465224e+01    0.9280349    0.2739498 -53.81   0.00248242    3.616    0.723
        22 -12.8646    222.0599     38.8349   1.5822301455e+01   2.6870417646e+01    0.8097746    0.4029452 -67.08  0.001087886    2.153    0.535
        23 -13.5037    226.4088     21.4207   1.1748226862e+01   2.8036758500e+01    0.9440109    0.5512807  -8.32  0.004836824    3.116    0.679
        24 -14.0378    243.7132      8.0914   8.1858942678e+00   2.6336743565e+01     1.191812    0.3995941 -69.39  0.005845264    3.156    0.683
        25 -10.7803    189.5248     24.1910   1.4840966426e+01   3.5101699305e+01     1.490687    0.6332362 -82.64  0.006365767    2.934    0.659
        26 -12.0788    148.6090     40.1927   2.3842818289e+01   4.2545778978e+01    0.7281282    0.3456412 -40.57  0.003206167    1.938    0.484
        27 -11.0458    176.1207     24.0662   1.5945341457e+01   3.8082523536e+01    0.3198522    0.2038448 -27.00 0.0008346582    1.691    0.409
        28 -11.0256    103.0147     21.1575   2.5093752159e+01   5.6638994932e+01    0.4434758    0.2761402 -19.19   0.00206994    2.023    0.506
        29 -11.6511    201.9913     20.6860   1.3064431342e+01   3.2869537903e+01    0.5237467    0.2552209 -71.59  0.002690179    2.077    0.519
        30  -9.8213    202.8893     16.4316   1.1989146823e+01   3.3145772515e+01    0.4698282     0.205093 -67.78  0.002296344    2.285    0.562
        31 -13.0774    172.9658      7.5592   1.1685181415e+01   4.0574405660e+01    0.4993145    0.2679487 -21.72  0.001373034    2.165    0.538
        32 -12.5591     24.8694     39.3030   6.8258817814e+01   7.0428361991e+01     1.068735    0.8598509 -66.07  0.003080947    1.363    0.266
        33 -10.6778    150.1474     13.3248   1.5296922185e+01   4.5425982099e+01    0.2383673    0.1694005 -52.25  0.000628889    1.263    0.208
        34 -10.4555    170.6058     19.8225   1.5274537136e+01   3.9828004337e+01    0.4082982    0.2590633  -4.09  0.001982847    2.578    0.612
        35 -13.1775     60.1033     63.9677   5.7428271870e+01   5.9181781116e+01     1.489265      1.12501 -61.80  0.007144357    1.426    0.299
        36 -10.6866    131.3291     10.0193   1.6260695325e+01   5.0499507360e+01    0.4875697    0.3096758 -48.32  0.002555737    1.487    0.328
        37 -11.6091    115.8054     10.4635   1.8490583642e+01   5.4477461648e+01    0.4388321    0.3263671   4.59   0.00125476    1.863    0.463
        38  -7.8541    124.3820     10.1202   1.7164776119e+01   5.2279710367e+01    0.3620609    0.2525286  20.08  0.001816734    2.108    0.526
        39 -10.4697    109.6598     10.3772   1.9409637503e+01   5.6095605796e+01    0.2894249    0.2574559 -58.17  0.001410907    1.149    0.130
        40 -10.6706     94.0099     11.8973   2.2970485594e+01   6.0043310861e+01    0.2061714    0.1785099  72.02 0.0002949017    1.045    0.043
        41 -10.1295     88.3252     11.4986   2.4045872827e+01   6.1567459328e+01    0.2273554    0.1854942 -33.37  0.000945366    1.358    0.264
        42  -9.7199     44.8868      9.9246   3.8533683766e+01   7.2359721553e+01    0.1759651    0.1583864 -74.05  0.001049829    1.328    0.247
        43 -11.0593     26.7471      9.7667   5.0318724748e+01   7.5984429458e+01    0.2891524    0.2083708  22.38  0.001187839    1.412    0.292
        44 -11.8100    193.4466      7.3876   1.0349949870e+01   3.6053785904e+01    0.2391645    0.2048953 -79.27 0.0006988267    1.178    0.151
        45  -9.0233    156.4966      7.5257   1.2933854293e+01   4.4463798390e+01    0.1341377    0.1073323 -69.72 0.0008098732    1.035    0.034
        46 -11.0739      2.7741      6.1169   7.2493818321e+01   7.9847893550e+01    0.2681668    0.1909071   4.74 0.0008331038    1.314    0.239
        47 -10.5483    146.4431      5.7263   1.3249526919e+01   4.7101806506e+01     0.222814     0.175443  69.81 0.0008414735    1.293    0.227
        48  -9.5433    101.4617      6.5475   1.9166238475e+01   5.8623756452e+01    0.1393158    0.1204998  72.52 9.073054e-05    1.080    0.074
        49  -9.3903    101.4685      3.5141   1.7845952782e+01   5.8900260078e+01    0.1875731    0.1202685 -43.24 8.901971e-05    1.599    0.375
        50 -14.2678     11.8568     38.5779   7.7923026715e+01   7.1933617940e+01     1.973276      1.34262  87.41    0.0053505    1.873    0.466
        51  -9.2587    160.2382      5.2585   1.1959424991e+01   4.3783831286e+01    0.1078318   0.09498999  53.54 0.0003904417    1.411    0.291
        52  -9.9495    120.8024      4.8226   1.5648920464e+01   5.3716732045e+01     0.296081    0.1334398 -57.78   0.00124038    2.323    0.569
        53  -9.5243     97.6024      5.0625   1.9182418199e+01   5.9777088419e+01    0.1811861    0.1598561 -73.78 0.0005728638    1.107    0.097
        54 -13.0213     47.1610     55.3715   6.0725547218e+01   6.3465043250e+01     1.534572    0.7139224 -45.17  0.005216301    2.275    0.560
        55  99.0000    183.0379      3.4141   9.9349176997e+00   3.8705115358e+01    0.3541365    0.1574476 -58.56  0.001770248    1.902    0.474
        56 -10.9512    187.2027      1.3967   9.1854384923e+00   3.7981566154e+01    0.2189114    0.1178292  85.34 0.0004433717    1.754    0.430
        57 -10.1602    111.6899      3.7173   1.6408519557e+01   5.6196480293e+01    0.2909771    0.1903819 -82.73  0.001498925    1.438    0.305
        58 -11.6339    217.0969      2.4137   8.0363459432e+00   3.1736694400e+01    0.2727147    0.1816692  79.25  0.001098595    1.616    0.381
        59  -9.8674    207.4021      2.5828   8.4910884569e+00   3.3632500174e+01    0.1850781    0.1072758 -13.46 0.0009670756    2.447    0.591
        60 -10.0820    142.5745      2.8697   1.2673856421e+01   4.8331840386e+01    0.2619435    0.1841682  57.71  0.001466213    1.551    0.355
        61 -12.3512     86.4279      1.3677   1.9535070302e+01   6.3036980460e+01    0.5003557    0.1146963  70.18  0.001085113    3.606    0.723
        62 -10.2431    250.0679      1.4428   6.6613152239e+00   2.5906897475e+01    0.1309973   0.08583645 -77.48 0.0003556051    1.451    0.311
        63 -10.2713    249.9683     94.5359   2.4873134341e+01   1.5261997593e+01    0.2283477    0.1129013 -44.56 0.0009106635    1.636    0.389
        64 -10.1177    222.3183     95.3057   2.7958561908e+01   1.9379545407e+01    0.1135615   0.08800372  -4.96 0.0003977915    1.631    0.387
        65 -10.2521    206.5979     94.7837   2.9794506988e+01   2.2118769249e+01    0.1881103   0.09638278 -45.39 0.0009457259    1.707    0.414
        66 -11.3917    226.2973     97.6164   2.7972751981e+01   1.8412521735e+01    0.2453817    0.1947574  46.90  0.001684781    1.564    0.360
        67 -12.6046     56.3915     94.7306   6.8149144845e+01   5.2191934054e+01    0.4806882    0.3774166  64.08 0.0007096533    1.375    0.273
        68 -10.6505    172.9417     91.3586   3.3999148662e+01   2.9041562861e+01    0.2883974    0.2211308 -77.44   0.00141086    1.546    0.353
        69 -10.6078    168.2069     89.9355   3.4456421907e+01   3.0252747636e+01    0.3350401    0.2029025  58.52  0.001024187    1.808    0.447
        70 -10.3777     79.6278     90.9239   5.7842566470e+01   4.9051389040e+01     0.249836    0.2159792  18.24 0.0004018412    1.306    0.234
        71 -13.7303    195.1989     85.1463   2.9148875257e+01   2.5664461266e+01    0.7216775    0.6694151  56.71  0.002509652    1.248    0.199
        72 -10.5951     87.7163    114.6780   6.1054051230e+01   4.1685800137e+01    0.3046403    0.2236921  23.53 0.0007649976    1.528    0.346
        73 -11.4859    138.6762    112.6166   4.6115988286e+01   3.2082109768e+01    0.3118239    0.2453389  -1.26  0.001194427    1.692    0.409
        74 -11.8617    236.2400     37.7010   1.4609883880e+01   2.4467498432e+01    0.6617956    0.3433461 -76.16  0.003809783    2.221    0.550
        75  -9.0269    242.3270    112.2871   2.9049528297e+01   1.4000370240e+01    0.1070511   0.07826708  -7.88 0.0002601588    1.611    0.379
        76 -11.0514     62.9859    110.5076   6.9049559521e+01   4.6998597646e+01    0.2414971    0.1501946  32.63 0.0006483002    1.569    0.363
        77 -12.1545    209.3146     58.4168   2.1317487237e+01   2.6800110620e+01    0.3121771    0.2169458 -74.37  0.001674995    1.527    0.345
        78 -11.6581    215.3885     42.0094   1.7039233102e+01   2.7738348559e+01    0.2836174    0.2521698 -84.07 0.0004395151    1.236    0.191
        79 -10.7332     38.4679    109.5266   7.8885794900e+01   5.0633567922e+01    0.2806683    0.1186257 -56.66  0.001033484    2.261    0.558
        80 -10.7266    196.2772    107.8128   3.4094045578e+01   2.1915453736e+01    0.3458141    0.2419742 -53.39  0.001902684    1.457    0.314
        81 -11.3905    191.1740    101.9704   3.3571884034e+01   2.3769003640e+01     0.506564    0.1519861 -46.24  0.001791758    3.321    0.699
        82 -11.9402    161.7317    107.0833   3.9842850546e+01   2.8520769209e+01    0.4141917    0.2116353 -45.71  0.001815154    1.859    0.462
        83 -11.5606    234.1788     24.6545   1.2010091089e+01   2.6284532308e+01     0.285537    0.1791481 -37.33 0.0006658544    1.308    0.235
        84  -9.9706    217.8857    108.1567   3.1159091243e+01   1.8237961801e+01    0.1773433    0.1401412 -48.40 0.0002430209    1.200    0.167
        85 -12.0454    153.5758     97.3976   3.9078262968e+01   3.1970321183e+01     0.618655    0.5537691 -46.46  0.002205289    1.063    0.059
        86 -11.0862    153.1203    108.1860   4.1842783151e+01   3.0036047974e+01    0.2174186    0.2052495 -58.13 0.0005186244    1.043    0.041
        87 -10.2987    210.3333    105.7023   3.1642370150e+01   1.9835415106e+01    0.2084592    0.1898513 -75.81 0.0009072273    1.277    0.217
        88 -10.3947    183.1661    103.5025   3.5181995227e+01   2.5002870447e+01    0.2827614    0.2136341 -35.61  0.001366353    1.215    0.177
        89 -10.1936     87.0800     89.4371   5.4735837318e+01   4.7919410350e+01    0.2669559     0.220923 -29.79 0.0007418822    1.407    0.289
        90 -12.3903    223.6952     87.3667   2.6145242605e+01   2.0269901014e+01    0.4153868    0.3139468  25.32  0.002632925    1.872    0.466
        91 -12.9145    216.1091     83.3002   2.6131452690e+01   2.2130169986e+01    0.4249624     0.324531 -59.78  0.002754107    1.298    0.230
        92 -10.9244     55.0298     81.9747   6.5435319009e+01   5.5704827050e+01    0.2591897    0.2176533  35.24 0.0003115742    1.171    0.146
        93 -12.2422     52.4594     86.0486   6.7701972928e+01   5.5067980800e+01     0.539222    0.3179733 -24.25  0.001741004    2.756    0.637
        94 -12.2714     48.6803     85.3118   6.9250783278e+01   5.5831896224e+01    0.6072369    0.2340214  27.27  0.002040472    2.752    0.637
        95 -12.0101    236.1544     85.9183   2.4536868445e+01   1.8457667920e+01    0.4684936    0.2746119  82.17  0.002327989    2.762    0.638
        96 -12.0029    161.3278     84.8010   3.4366900882e+01   3.2584209342e+01    0.9608771    0.4964723  38.02  0.003858204    2.765    0.638
        97 -11.7762    168.6689     80.3737   3.1958837039e+01   3.1766939603e+01    0.3971061    0.3005402  84.38   0.00129707    1.518    0.341
        98 -11.2884    167.2812     76.6839   3.1233752688e+01   3.2671307073e+01    0.3030767    0.2479241  59.28 0.0006340176    1.308    0.236
        99 -11.4948    147.4356     83.4713   3.6665183952e+01   3.5852362579e+01    0.6167274    0.4162678 -48.70  0.002420886    1.423    0.297
       100 -12.9548     85.8176     72.9052   5.0075095661e+01   5.1933855730e+01     1.722672    0.4942462  44.12  0.005052808    3.412    0.707
       101 -11.9394     83.4412     83.7282   5.4350139153e+01   4.9995715682e+01    0.2955522    0.2900016  66.02 0.0002478721    1.038    0.037
       102 -10.6218     81.6853     79.3201   5.3639118076e+01   5.1374411360e+01    0.2113155    0.1893262   3.63  0.000330689    1.322    0.243
       103 -10.9604    250.1023     82.1120   2.2473234821e+01   1.6830382032e+01    0.2530376    0.1690076  -6.53  0.001174682    2.254    0.556
       104 -11.9793    222.2196     79.5476   2.4653368083e+01   2.1600594077e+01    0.2732219    0.1949607 -87.28  0.001703513    1.781    0.439
       105 -11.7401    166.1243     66.2738   2.8664898780e+01   3.4593658666e+01    0.7531556    0.5786441  56.79  0.004183305    1.405    0.288
       106 -10.0556    231.7161     78.5672   2.3477740429e+01   2.0146941548e+01    0.1437155    0.1083142 -86.77 0.0009574365    1.635    0.388
       107 -12.1762    249.9673     75.1092   2.1125999586e+01   1.7730574504e+01    0.2595716    0.1568127 -34.13 0.0004405995    1.309    0.236
       108 -10.6615    249.3875     68.7435   1.9930149250e+01   1.8608135093e+01    0.4172654    0.1825163 -28.39  0.002201855    2.192    0.544
       109 -10.3340    155.5065     76.5682   3.3236633301e+01   3.5271099331e+01    0.2690707    0.2290918 -83.26 0.0007671064    1.202    0.168
       110 -12.7817    218.3683     75.0476   2.4094284351e+01   2.2886729787e+01    0.3748349    0.2105091 -31.69  0.001755344    1.611    0.379
       111 -13.1680    243.1914     61.3199   1.8947407503e+01   2.0493603887e+01    0.7889188    0.6432479  62.73  0.001598053    1.580    0.367
       112 -11.9384    145.1950    103.3143   4.2336556525e+01   3.2596590616e+01    0.5221892    0.3384725  51.38  0.002296136    1.604    0.377
       113 -12.8656    202.5726     60.2466   2.2437341981e+01   2.7852709898e+01    0.7174364    0.4209165 -79.78  0.002122208    2.193    0.544
       114 -10.4752    232.3194     73.6831   2.2410026263e+01   2.0693250423e+01    0.1550416    0.1376321 -57.88 0.0004558496    1.165    0.142
       115 -11.7275    235.0666     70.8446   2.1570631073e+01   2.0611278798e+01     0.270752    0.2146338  26.61  0.001286888    1.844    0.458
       116 -13.1760    188.4520     57.9287   2.3467036158e+01   3.1023576862e+01     1.175822    0.7228267 -81.88  0.005993949    1.975    0.494
       117  -9.7855    151.0569     72.4882   3.2930605604e+01   3.6968025060e+01    0.2193633    0.1703497 -44.84 0.0005640361    1.224    0.183
       118 -13.5669     80.9314     41.8596   4.0105068074e+01   5.9171533492e+01     1.703192    0.6222226  56.63  0.005784666    2.760    0.638
       119 -12.0007    127.5318     58.5887   3.3487123821e+01   4.4891922230e+01    0.5214049    0.2943446  42.79  0.001731025    2.131    0.531
       120 -10.7460    180.9610     32.0703   1.7634676830e+01   3.6046635893e+01    0.2950132    0.2773975 -62.74  0.001322467    1.192    0.161
       121  99.0000    161.8223     47.4650   2.4095946918e+01   3.8382395030e+01    0.4115094    0.3519255  83.23  0.002441911    1.150    0.130
       122 -11.0749    168.3408     34.0124   1.9476317464e+01   3.8666947058e+01    0.5630971    0.3292312 -40.19   0.00255922    1.537    0.349
       123 -11.7767    160.8481     38.1208   2.1542954357e+01   3.9888977297e+01    0.5260793    0.2883159 -32.97   0.00230018    1.806    0.446
       124 -12.4883    172.8600     45.1914   2.2030446144e+01   3.6169263580e+01    0.6481057    0.5241881  38.86  0.003315516    1.627    0.385
       125 -11.3903    177.7174     38.0055   1.9541132959e+01   3.6026952171e+01    0.4027968    0.2867766  -2.28  0.001360595    2.212    0.548
       126 -10.3710    161.4807     58.4828   2.7249022975e+01   3.6843253930e+01    0.3100677    0.2136328 -61.95  0.001173194    1.443    0.307
       127 -11.0925    160.2720     54.0269   2.6180748630e+01   3.7790996072e+01     0.552145    0.3542914 -84.14   0.00204668    1.817    0.449
       128 -10.1426    107.5275     54.0686   3.6763826083e+01   5.0578659363e+01    0.5355783    0.2910804 -59.45   0.00207054    2.364    0.577
       129 -10.8636    248.1030     55.8410   1.7484398680e+01   2.0374093977e+01    0.2678867    0.2216188  62.52  0.002075768    1.591    0.371
       130 -10.5437     69.4949     54.8593   4.9876116357e+01   5.9286290098e+01    0.3630659    0.2753716 -89.38  0.001681107    1.747    0.427
       131 -11.3538    100.3374     54.5963   3.8950497064e+01   5.2240652527e+01    0.5731378     0.536149  53.16  0.001907708    1.106    0.095
       132 -11.4957     90.4556     51.0819   4.0650294784e+01   5.5259890028e+01    0.2539438    0.2216375  60.95 0.0005921906    1.080    0.074
       133 -10.4453    245.2230     50.0920   1.6541162856e+01   2.1518210238e+01    0.2770516    0.1980333  79.75 0.0002434386    1.676    0.403
       134 -12.4276    246.4256     41.8337   1.4807617889e+01   2.2281448502e+01    0.5579318    0.1892114 -51.17   0.00100315    2.413    0.586
       135 -11.2307     99.6207     47.7057   3.6586893691e+01   5.3625284221e+01    0.4136234    0.2915483  37.17   0.00192297    1.674    0.403
       136 -11.2618    143.8425     45.4308   2.6207001824e+01   4.2966971056e+01     0.472744    0.2945704  34.48  0.002058957    2.454    0.592
       137 -10.8338     36.2943    249.1253   9.1781687849e+01   1.7465903236e+01    0.1637612    0.1481873 -35.61  0.001212656    1.471    0.320
       138 -10.6400    187.3667     44.2555   2.0146346575e+01   3.3109550429e+01    0.3033246    0.2151591 -12.51  0.001126465    1.947    0.486
       139  -9.8694    182.9186     45.5022   2.0945626637e+01   3.3902923422e+01    0.1861822    0.1235687  77.16 0.0008303121    1.568    0.362
       140  -9.8435    121.1960     45.0040   3.0302922472e+01   4.8662400277e+01    0.2465228    0.1492399 -64.13 0.0007293542    1.945    0.486
       141  -9.9196    105.2199     43.4207   3.3452582700e+01   5.2936231515e+01    0.2273198    0.1757689 -47.04 0.0007104168    1.325    0.245
       142  -9.8711    136.9151     43.3978   2.6735396164e+01   4.4968598607e+01    0.3860724    0.1753746  68.81  0.001547034    2.241    0.554
       143 -10.1188     99.7613     41.5320   3.4160807724e+01   5.4608337811e+01    0.3895224    0.3294766 -51.05  0.002078608    1.218    0.179
       144 -10.6481    164.8654     38.8618   2.1252856198e+01   3.8848844416e+01    0.3678287    0.1995459 -62.54 0.0003882178    1.925    0.480
       145 -10.7362    132.2457     40.0670   2.6464168474e+01   4.6614165209e+01    0.3150316    0.2504183  63.49  0.001132902    1.242    0.195
       146  -9.8535    250.6491     36.5306   1.3503874876e+01   2.2193072904e+01    0.2494206   0.07526825 -33.79  0.001222102    2.433    0.589
       147  -9.6851    210.7423     36.9916   1.6262074365e+01   2.9239430030e+01     0.172387    0.1273477 -47.38 0.0004992832    1.091    0.084
       148 -10.8771    122.4546     33.5189   2.5992093328e+01   5.0011843878e+01    0.4078846    0.2101774 -51.56 0.0006355883    2.019    0.505
       149 -10.0237    104.2504     27.3915   2.7389005442e+01   5.5527305848e+01    0.3300045    0.1773564 -51.33 0.0009349897    2.015    0.504
       150  -9.5275    109.7589     35.9958   2.9531725483e+01   5.2915712761e+01    0.2012887    0.1813496 -72.35 0.0004872739    1.080    0.074
       151  -9.7249    111.9296     32.5265   2.7730965887e+01   5.2850552595e+01    0.6533501    0.2921766  67.34  0.001359817    2.158    0.537
       152 -11.0574    114.5285     27.9992   2.5475288906e+01   5.2787612090e+01    0.2477431    0.2050756  50.77 0.0001073001    1.295    0.228
       153 -10.4236    131.8965     33.7003   2.4380330644e+01   4.7582977127e+01    0.4043649    0.1842853 -64.49    0.0014184    3.169    0.684
       154 -11.2337     92.7308     33.0979   3.2652777636e+01   5.7676446461e+01    0.4311233    0.3265857  29.02  0.002130424    1.660    0.398
       155 -10.7251     74.7299     33.7151   3.8701701141e+01   6.2010552039e+01    0.3065469    0.2341342  56.24 0.0007639475    1.211    0.174
       156  -9.4547    240.8757     47.3741   1.6292539036e+01   2.2553969854e+01    0.1679909    0.1086532 -61.55 0.0008659929    1.412    0.292
       157 -11.7543     85.6934     28.6629   3.2742346234e+01   6.0094806348e+01    0.5374738    0.2496109  52.13 0.0008022116    1.980    0.495
       158 -10.4958    168.3915     26.5755   1.7380390750e+01   3.9565313669e+01    0.2568923    0.1764042 -58.61 0.0008910097    1.272    0.214
       159 -11.1021     20.8804     25.6753   6.5117268461e+01   7.3906965317e+01    0.4869853     0.302761  21.34  0.002453024    1.594    0.373
       160 -13.1642      4.9174     54.5887   8.7084164374e+01   6.8378295535e+01    0.9730477      0.67698 -65.35  0.002866484    1.347    0.257
       161  -9.4017    159.4830     26.4610   1.8295340835e+01   4.1681376133e+01    0.1338361    0.1165775 -73.07 5.868503e-05    1.042    0.040
       162 -10.8429    125.9824     44.6056   2.9179038136e+01   4.7520064468e+01    0.4773917    0.2947931 -56.85  0.001443766    1.701    0.412
       163 -10.9531    134.5141     25.1685   2.1071868478e+01   4.8008045633e+01    0.4740947    0.2452904  74.24  0.002135049    1.836    0.455
       164  -9.8991    162.3706     28.9970   1.8714863926e+01   4.0687652080e+01    0.1867894     0.144989 -50.86 0.0003764917    1.158    0.136
       165  -9.5165    123.3864     24.7805   2.2674623998e+01   5.0904865917e+01    0.1746624    0.1390937 -17.37 0.0004231461    1.545    0.353
       166 -10.0412    148.3908     23.7256   1.8752457986e+01   4.4702987341e+01     0.198942    0.1276314 -38.28  0.001027526    1.503    0.335
       167 -10.3475    150.8962     21.3095   1.7703817904e+01   4.4366559927e+01    0.2910182    0.1917478 -23.37 0.0007178084    1.761    0.432
       168 -11.2856    113.6080    246.2874   7.4139413224e+01   9.9417455535e+00    0.2733562    0.1900138 -25.74  0.001240893    1.667    0.400
       169 -10.8316     98.2273     21.9886   2.6500018373e+01   5.7781411593e+01    0.3887789    0.2168941  59.08   0.00150592    1.615    0.381
       170 -10.0787    180.5146    243.4949   6.0437816824e+01   3.2095493676e+00    0.1096179   0.08222768   5.62 0.0008101146    1.043    0.041
       171 -10.7975     88.1980    238.8254   7.9105500772e+01   1.4001683202e+01    0.1657948    0.1283252   3.67 0.0004912633    1.321    0.243
       172 -12.3199    116.1208     93.3303   4.6825664452e+01   4.0864301658e+01    0.5039722    0.3844337 -84.75 0.0004143056    1.637    0.389
       173  -9.8520    163.3005     20.9729   1.6288865393e+01   4.1410651187e+01    0.1748966    0.1431635 -54.88 0.0003338063    1.100    0.091
       174  -9.7533    115.8251     20.2709   2.2281017833e+01   5.3405273287e+01    0.2783641    0.1332224 -45.99  0.001188073    2.083    0.520
       175  -9.8335     21.0831     18.9249   6.1198545662e+01   7.5242705723e+01    0.4443877    0.2141886  22.86  0.001906531    2.305    0.566
       176 -10.4206    129.9339     19.2318   1.9680779918e+01   4.9874689752e+01    0.2165903    0.1622299 -81.28 0.0005597992    1.230    0.187
       177 -13.9431     67.1758     83.3111   6.0540996886e+01   5.3264471535e+01     1.454131     1.130238 -57.13  0.004404134    1.314    0.239
       178  -9.5727    139.2583     17.1701   1.7746225257e+01   4.7730524176e+01    0.2433905    0.1244859 -18.53  0.000551597    2.555    0.609
       179  -9.8488    192.3289     16.4652   1.2684105319e+01   3.5353390459e+01    0.2399636    0.1306861 -70.60 0.0009352902    1.714    0.417
       180 -10.1599    153.9067     15.9310   1.5724274772e+01   4.4227600136e+01    0.2395575    0.1825786 -41.91  0.001046574    1.275    0.216
       181 -12.4780    101.3833     77.6861   4.6476571101e+01   4.7457597631e+01     1.150342    0.7397584 -30.85    0.0048264    1.979    0.495
       182  -9.8608    121.4834     17.1519   2.0176761944e+01   5.2289564485e+01    0.2342486    0.1661455 -88.16 0.0005539459    1.320    0.242
       183 -11.1350     93.9763     16.1525   2.4904426166e+01   5.9583237494e+01    0.3491318    0.1867893  56.56  0.001582143    1.693    0.409
       184  -8.9264    103.2648     15.2851   2.2579176538e+01   5.7254449019e+01    0.1336633    0.1015293  41.91 0.0001721161    1.491    0.329
       185 -14.1388    116.4639     63.1027   3.7548161934e+01   4.6788070607e+01     1.257398    0.9384788  59.73   0.00239897    1.301    0.232
       186  -9.5721    159.9960     13.7532   1.4487580843e+01   4.2987446718e+01    0.1779473    0.1441108 -86.77 0.0002000764    1.115    0.103
       187 -13.0920     91.6034     66.9806   4.6081041324e+01   5.1903174595e+01     1.401042     1.065864  89.32  0.006485055    1.628    0.386
       188 -10.2977    187.2009     13.1042   1.2180332476e+01   3.6817793100e+01    0.2303685    0.1128561 -64.04 0.0006627381    1.856    0.461
       189  -9.1006    236.6833    146.2550   3.6024217744e+01   1.0128273454e+01   0.09742678   0.08066359 -51.75 0.0002100922    1.533    0.347
       190  -9.9295    152.8977    124.1156   4.5610567790e+01   2.7014390985e+01    0.1987145    0.1835432 -70.73  0.001142511    1.184    0.156
       191 -10.0187    219.7776    121.5264   3.3606911641e+01   1.5977685718e+01    0.1996774    0.1142643  40.43  0.001129645    2.116    0.528
       192  -9.9315     57.5897    120.1642   7.3046706160e+01   4.5235482855e+01    0.2227857    0.1362219 -52.30 0.0008888273    1.686    0.407
       193 -10.1381    181.4903    117.5816   3.8624132124e+01   2.2927045799e+01     0.391429    0.1136988 -43.18   0.00138169    3.135    0.681
       194 -13.0694     79.6688     59.1550   4.7487691576e+01   5.6192352280e+01     1.442752    0.5122932  42.06  0.004650888    2.963    0.663
       195 -13.1767     79.5422     50.5205   4.4190900660e+01   5.7923683002e+01    0.9343881    0.5624468  38.78   0.00400427    1.805    0.446
       196 -11.1399     96.0020    102.4935   5.5319646300e+01   4.3040128743e+01    0.3144333    0.2191952 -37.04  0.001385778    1.642    0.391
       197 -10.2635    165.0304    101.9719   3.7986224473e+01   2.8789406754e+01    0.2181828    0.2002771 -44.93 0.0007639449    1.016    0.016
       198 -12.2045     97.0705     91.0561   5.1847629687e+01   4.5469255757e+01     1.035037     0.573725  59.15  0.003915192    2.216    0.549
       199 -12.5008    106.0757     97.4893   5.0850778939e+01   4.2114563473e+01    0.5619661    0.3784947 -26.75  0.002182051    2.034    0.508
       200 -12.2565    106.5321     92.5605   4.9348077753e+01   4.3112029058e+01    0.7229815    0.2889073  44.54  0.001423003    2.477    0.596
       201  -9.8214    242.7895    101.1580   2.6865529016e+01   1.5425221591e+01    0.1613587    0.1201444 -10.22 0.0003636376    1.585    0.369
       202 -12.9609     85.8721     98.6230   5.7698488296e+01   4.5971302297e+01    0.7357541    0.4075168  32.50  0.002226016    1.971    0.493
       203 -10.3431     89.2949     93.9282   5.5239693152e+01   4.6413327312e+01      0.21419    0.1978547 -54.67 0.0002501571    1.110    0.099
       204 -11.3888     34.0139    100.4859   7.9299558217e+01   5.3631682348e+01    0.2793264    0.2588496  88.68  0.000540509    1.060    0.056
       205 -10.9302    158.9817     99.1915   3.8457483551e+01   3.0518948187e+01     0.245296    0.1897358 -50.21 0.0002971611    1.235    0.190
       206 -10.9136    170.5182     97.9034   3.6007940177e+01   2.8408453825e+01    0.3123671    0.2417959 -43.28  0.001546593    1.184    0.155
       207 -11.3495    199.7912     96.0439   3.0990857927e+01   2.3138366844e+01     0.295329    0.2062811 -53.07 0.0005350126    1.389    0.280
       208 -10.5026    203.6431    115.9922   3.4747379894e+01   1.9366637089e+01     0.300629       0.1866  66.73   0.00155193    2.443    0.591
       209 -13.5943     61.3629     91.3127   6.5179924992e+01   5.2273457185e+01    0.8408538    0.5660826 -73.92  0.002109021    1.709    0.415
       210 -11.5229     11.9697     97.3248   8.9168693995e+01   5.6447242319e+01    0.3280475    0.2621607 -56.86  0.001095377    1.233    0.189
       211 -11.0137     13.5188     93.5659   8.7972914654e+01   5.7385967277e+01    0.2404983    0.2176425  18.09 9.051354e-05    1.152    0.132
       212  -9.9599    232.7347     96.3372   2.6991367814e+01   1.7581301771e+01    0.1848006    0.1285096 -34.03 0.0002436051    1.172    0.147
       213 -12.0547     48.8131     95.2122   7.1566231337e+01   5.3196186269e+01    0.4436532    0.2720179  34.79  0.001297877    1.572    0.364
       214 -11.0764     90.7007    115.7045   6.0304666748e+01   4.0882107251e+01    0.2609967     0.215881  30.01 0.0002517076    1.243    0.196
