#   1 NUMBER                 Running object number                                     
#   2 MAG_AUTO               Kron-like elliptical aperture magnitude                    [mag]
#   3 X_IMAGE                Object position along x                                    [pixel]
#   4 Y_IMAGE                Object position along y                                    [pixel]
#   5 X_WORLD                Barycenter position along world x axis                     [deg]
#   6 Y_WORLD                Barycenter position along world y axis                     [deg]
#   7 A_WORLD                Profile RMS along major axis (world units)                 [deg]
#   8 B_WORLD                Profile RMS along minor axis (world units)                 [deg]
#   9 THETA_WORLD            Position angle (CCW/world-x)                               [deg]
#  10 FWHM_WORLD             FWHM assuming a gaussian core                              [deg]
#  11 ELONGATION             A_IMAGE/B_IMAGE                                           
#  12 ELLIPTICITY            1 - B_IMAGE/A_IMAGE                                       
         1 -12.5320    182.3535     45.1397   4.9595430377e+01   3.4146669157e+01     1.285807    0.9567786  32.51  0.004499234    1.626    0.385
         2 -12.8401    202.9923     13.9689   3.8619332223e+01   3.2904185888e+01     1.285728     1.021111 -48.53  0.005747842    1.233    0.189
         3  -9.8998    120.4602      9.1750   4.9120823723e+01   5.3474823690e+01    0.4992059    0.2960857  40.17  0.001654067    1.587    0.370
         4  -9.6198    235.7328     11.5691   3.5123179789e+01   2.5724230882e+01    0.2225071    0.1898611 -70.10   0.00077575    1.057    0.054
         5  -7.4491    247.3684      6.2742   3.3153951828e+01   2.3828622795e+01    0.1089328   0.08531905  50.83  0.000651648    1.675    0.403
         6  -9.6923      2.9844      4.5616   9.2472550630e+01   7.3764243761e+01    0.3155024   0.09747975 -38.29  0.001559961    2.454    0.592
         7  -8.9550    167.0719    225.0842   9.4730682470e+01   4.0057126340e+00    0.2220842    0.1817939 -39.12 0.0005228032    1.391    0.281
         8 -18.5153     39.1887    227.5183   1.2110624903e+02   2.2189353145e+01     5.038844      4.00077 -85.28   0.02383982    1.234    0.190
         9  -8.7285    158.3634    194.1903   9.1430611832e+01   1.1064994104e+01    0.1884951    0.1348593 -58.51 0.0005946173    1.687    0.407
        10 -10.6932      1.4243    194.0093   1.2630915073e+02   3.2797222462e+01    0.1568824   0.09273096 -83.22  0.000305549    1.367    0.268
        11 -10.0380    148.9882    192.4362   9.3206618354e+01   1.3091077346e+01    0.3035355    0.2744383  79.61  0.001019779    1.285    0.222
        12 -11.2280    144.7263    186.7479   9.3161987073e+01   1.5011362554e+01    0.6103953    0.4463812  56.27   0.00161286    1.502    0.334
        13  -8.8010    166.0169    185.0326   8.8049340490e+01   1.1452382120e+01    0.4408939    0.3004995 -89.99  0.001732756    3.180    0.686
        14 -11.5173    123.0639    184.0288   9.7735942585e+01   1.9439137897e+01    0.5599087    0.4080508  53.89   0.00123549    1.390    0.281
        15  -8.4898    192.9538    181.4697   8.1582300320e+01   7.1569648759e+00    0.1989053    0.1773979 -10.11 0.0001215897    1.063    0.059
        16 -10.5213    138.1828    176.5406   9.2815652262e+01   1.8352795724e+01    0.5704814    0.3517616 -76.50  0.002222034    2.803    0.643
        17  -8.5613    202.0376    211.0495   8.5337882366e+01   5.5437261722e-01    0.1900936    0.1628342  11.51  0.001181614    1.027    0.026
        18 -10.4107    244.4186    244.3237   8.3188833591e+01  -1.0202403092e+01    0.2383409    0.1735347 -19.88 0.0008173468    1.353    0.261
        19  -8.9345      1.7289    178.0932   1.2529597178e+02   3.6228364219e+01    0.1481424    0.1126409 -84.98 0.0001813695    1.101    0.091
        20  -8.7841    149.1417    177.2212   9.0375667040e+01   1.6174287214e+01    0.2118314    0.1924947  15.31 0.0003660722    1.110    0.099
        21  -9.1507    220.9164    175.7872   7.4892535477e+01   3.1479278632e+00    0.2357949    0.1825044 -27.06 0.0005293333    1.202    0.168
        22  -9.6880    186.5849    175.1794   8.1641530333e+01   9.5009784285e+00    0.3626606    0.3081872  33.24  0.001075105    1.151    0.131
        23 -11.6402    104.8444    173.4294   1.0035955939e+02   2.4909786612e+01    0.7008154    0.4751841  36.99  0.003461055    1.469    0.319
        24 -10.8706    111.3902    168.9931   9.7962070713e+01   2.4824979691e+01    0.5052675    0.3595207 -88.43  0.002020453    1.820    0.451
        25  -8.4236    159.7575    173.7516   8.7254489708e+01   1.4885579101e+01    0.3225506    0.2251313 -59.12   0.00151386    1.721    0.419
        26  -9.1342    157.4467    170.4829   8.7127703740e+01   1.6002683102e+01    0.2812594    0.2447742 -79.17  0.000846108    1.407    0.290
        27 -10.4939    133.6361    169.7781   9.2623681326e+01   2.0664691784e+01    0.5603698    0.3138914 -36.07  0.001719892    2.189    0.543
        28 -11.4833    129.9268    166.4255   9.2882296630e+01   2.2095850128e+01    0.6796915     0.491071 -36.03  0.002169474    1.544    0.352
        29 -10.6593    121.7982    172.6346   9.6042091014e+01   2.2177796079e+01    0.4636396    0.2437143  48.72  0.001397756    1.963    0.491
        30  -8.8788    203.0885    206.2120   8.4259430668e+01   1.1544073054e+00    0.2034031    0.1744343 -11.50 0.0003974313    1.122    0.109
        31  -8.8326    213.7901    216.4655   8.4024269158e+01  -2.1493160734e+00     0.226363    0.2087699  78.68  0.001101598    1.759    0.431
        32  -7.7554    185.2788    168.6662   8.0568159022e+01   1.0988385094e+01    0.1383189    0.1188414 -82.44 0.0003364966    1.608    0.378
        33  -8.5055      2.4005    164.9320   1.2426025139e+02   3.9130099671e+01    0.1929962    0.1444412 -20.92 0.0007502842    2.018    0.504
        34  -9.2733    203.9728    201.7846   8.3270842095e+01   1.7253221821e+00    0.2179934    0.1795597 -18.50 0.0004388911    1.176    0.149
        35 -10.6836     99.7742    135.7823   9.4553468400e+01   3.4697410943e+01    0.4233591    0.3178916  23.59 0.0003122485    1.530    0.347
        36 -10.9338    113.5509    152.1620   9.4219720553e+01   2.8364970636e+01    0.8430352    0.2978657  48.62  0.002642188    3.390    0.705
        37 -11.6385    110.6203    147.0670   9.3957150063e+01   3.0093208450e+01    0.7774875     0.552589 -40.26  0.002581292    1.497    0.332
        38  -9.9590     96.1898    155.4958   9.9433113470e+01   3.0548078167e+01    0.3358786    0.2984461 -76.21 0.0002867751    1.105    0.095
        39 -11.9127     99.8424    151.1019   9.7639339970e+01   3.0997843428e+01    0.9789011    0.7029665  86.62  0.003969982    1.790    0.441
        40 -11.1994     99.8252    143.1300   9.6070653568e+01   3.2917399020e+01    0.9955575    0.5280157  67.54  0.002505363    4.133    0.758
        41 -10.3812    147.0260    154.9864   8.6356094245e+01   2.1351485729e+01    0.6547263    0.4190087 -84.54  0.002267955    3.381    0.704
        42 -11.7512    134.1318    145.9036   8.7572797874e+01   2.5931930928e+01     1.584163    0.4263054 -52.33  0.004259301    4.295    0.767
        43  -8.9780    149.9552    147.6214   8.4024368189e+01   2.2375671165e+01    0.3344111    0.2111698 -55.65  0.001065889    1.766    0.434
        44  -9.8951    143.3435    145.7299   8.5220247449e+01   2.4133119826e+01    0.3344236    0.2616725  85.98  0.001527594    1.740    0.425
        45 -10.5162    119.4194    139.7048   9.0031964263e+01   3.0209184641e+01    0.6332248    0.3765661  67.69  0.002265692    2.892    0.654
        46 -10.1001    125.5409    140.4814   8.8584619748e+01   2.8855564718e+01    0.4092512    0.2882229  18.19  0.001786332    1.823    0.451
        47 -11.2201    109.7439    135.6159   9.1747271997e+01   3.2972283432e+01    0.6719503     0.617399 -80.27  0.002341891    1.134    0.118
        48 -10.4284    100.0370    128.3833   9.2853166909e+01   3.6432067093e+01    0.7007782    0.3462684  54.33  0.002515002    2.762    0.638
        49  -9.9643    191.9288    193.1189   8.4068126731e+01   5.2616194698e+00     1.004417    0.5274594 -63.58  0.002694036    7.439    0.866
        50  -8.7881    140.1848    128.5510   8.1975465802e+01   2.8617408334e+01    0.2577974     0.213952 -40.54 0.0003774723    1.194    0.162
        51  -9.9724    116.8646    128.2323   8.8091588872e+01   3.3382830028e+01    0.3333852    0.3142393  56.39 0.0009139489    1.100    0.091
        52  -9.4028    196.7359    127.7052   6.8882088778e+01   1.6583575554e+01    0.2503923     0.238309 -37.70 0.0003412554    1.068    0.064
        53  -9.4769    104.5056    123.8483   9.0525251500e+01   3.6721063720e+01    0.3633621    0.2938955 -82.43  0.001581048    1.477    0.323
        54 -10.0268      1.3458    200.1988   1.2666321218e+02   3.1497594211e+01    0.1582678   0.08374971 -82.12 0.0002342954    1.543    0.352
        55  -8.0248    111.6153    118.2008   8.7119257720e+01   3.6727666130e+01    0.2100336    0.1401357 -39.68 0.0002546248    1.518    0.341
        56  -8.4688    135.0000    113.9234   7.9597575651e+01   3.2958044159e+01    0.2663528   0.08856222 -44.82  0.000804933    2.960    0.662
        57  -7.9848    167.4731    112.9830   7.1399553647e+01   2.5964244543e+01    0.2207388    0.1328168 -62.02 0.0007568064    2.412    0.585
        58  -9.4610    117.7193    110.2525   8.3339646971e+01   3.7356903631e+01    0.3556731     0.267056  87.62  0.001540282    1.960    0.490
        59  -9.1157     86.4867    101.3134   9.0348752564e+01   4.5150802879e+01    0.3519345    0.2602126 -89.59   0.00159674    1.998    0.499
        60  -9.0499     64.6477     99.9265   9.7127760495e+01   4.8750430932e+01    0.2706231    0.2132865  37.86  0.001464366    1.404    0.288
        61  -9.3035     39.4800     97.8576   1.0519176516e+02   5.2146843452e+01    0.3045794     0.147992  41.77  0.001261095    2.466    0.595
        62  -8.1176      3.0428     96.2637   1.1717970571e+02   5.5161015698e+01    0.1583946    0.1381761 -64.51 0.0004955038    1.115    0.103
        63  -8.2060    230.5344    197.7992   7.7457266033e+01  -1.9603825527e+00    0.1606093    0.1174044 -39.57 0.0003322498    1.536    0.349
        64 -10.3270    103.3084     81.9141   7.9478009046e+01   4.6373321258e+01    0.2533519    0.2346855  26.81 0.0002600239    1.094    0.086
        65  -8.6245    199.4602     80.2435   5.6330620664e+01   2.4606929284e+01      0.36445    0.2295881 -24.72  0.001215255    1.796    0.443
        66 -10.1694    171.3881    196.7889   8.9066627945e+01   8.2443895560e+00    0.2508209    0.2432832 -42.86 0.0005420155    1.189    0.159
        67  -8.0641    174.7550     69.9534   5.7987234747e+01   3.2254987564e+01    0.1916124    0.1266156 -33.80  0.000424518    1.527    0.345
        68 -11.7017    167.2178     60.1802   5.6600979732e+01   3.5682398751e+01     0.847543    0.7327309   3.88   0.00239255    1.336    0.251
        69 -10.2614    249.3487    245.7401   8.2570907169e+01  -1.0995617415e+01    0.4181521    0.1969349 -28.35  0.002398719    2.068    0.516
        70 -11.2806    186.7911     38.8031   4.7156543647e+01   3.3900831029e+01    0.5426645    0.4469228  39.75  0.001373951    1.365    0.267
        71 -10.2393    183.8290     27.2822   4.4389919418e+01   3.6056221967e+01    0.3733138     0.312309 -37.46  0.002176658    1.254    0.202
        72  -8.0684    162.4601     27.4674   4.7610984576e+01   4.1338653520e+01    0.1383833    0.1273908  65.85 4.208219e-05    1.021    0.021
        73 -10.3138    233.6643    209.9788   7.9161555169e+01  -4.2332735224e+00    0.2367546    0.1971234   3.44 0.0003910614    1.075    0.070
        74  -9.0021     24.5431     22.1791   8.8552064230e+01   6.9150961867e+01    0.2154247   0.08042768  29.42   0.00102434    2.794    0.642
        75  -8.7051    129.9425     22.9642   5.2117016859e+01   4.9845381210e+01    0.2031837    0.1800418  38.66  0.001197134    1.060    0.056
        76  -8.0303    215.2478    234.0462   8.6746167571e+01  -4.8772896841e+00    0.1600829    0.1326143   8.71 0.0003519266    1.081    0.075
        77  -8.8501    185.5517    224.4569   9.0899075001e+01   1.1070645327e+00    0.5142548    0.1284321 -47.90  0.001599388    5.728    0.825
        78  -9.0544    250.4995    225.9809   7.9045216181e+01  -8.7582117611e+00    0.1767531    0.1015642 -27.97  0.001044938    1.626    0.385
