#   1 NUMBER                 Running object number                                     
#   2 MAG_AUTO               Kron-like elliptical aperture magnitude                    [mag]
#   3 X_IMAGE                Object position along x                                    [pixel]
#   4 Y_IMAGE                Object position along y                                    [pixel]
#   5 X_WORLD                Barycenter position along world x axis                     [deg]
#   6 Y_WORLD                Barycenter position along world y axis                     [deg]
#   7 A_WORLD                Profile RMS along major axis (world units)                 [deg]
#   8 B_WORLD                Profile RMS along minor axis (world units)                 [deg]
#   9 THETA_WORLD            Position angle (CCW/world-x)                               [deg]
#  10 FWHM_WORLD             FWHM assuming a gaussian core                              [deg]
#  11 ELONGATION             A_IMAGE/B_IMAGE                                           
#  12 ELLIPTICITY            1 - B_IMAGE/A_IMAGE                                       
         1 -12.0405      1.6906     25.1142   8.8199785826e+01   7.1167356649e+01    0.4604773    0.1363124 -51.48  0.002035091    3.259    0.693
         2 -13.5554     12.1257     23.2375   8.1368289402e+01   7.0571038133e+01    0.6503474    0.3074622 -23.73  0.003344286    2.233    0.552
         3 -14.0087    246.2625      7.5717   2.5238367650e+01   2.5580917310e+01     1.091311    0.4765173 -52.93  0.006670882    1.756    0.431
         4 -11.7316     26.1106     16.2966   7.0637303156e+01   6.9940287220e+01    0.2679543    0.1440883 -18.25  0.001467432    2.007    0.502
         5 -12.9089     24.9435      4.1244   6.5214249163e+01   7.1532404422e+01    0.5383816    0.3038241  16.19  0.003202319    1.705    0.413
         6 -12.3452     13.3758     12.6713   7.5826666995e+01   7.1956560429e+01    0.3189688    0.1913286 -14.88  0.001516622    1.550    0.355
         7 -12.4670     15.6590      7.0963   7.1746723036e+01   7.2405517052e+01    0.4378805    0.2470671   5.88  0.002540932    1.804    0.446
         8 -13.2644      6.4844     10.7460   7.8983688046e+01   7.2932070992e+01    0.7380032    0.4117356 -20.26  0.004563952    1.632    0.387
         9 -12.4381      9.9489      2.1064   7.2465670870e+01   7.3671429014e+01    0.9139197    0.1780915  32.75  0.003443592    4.662    0.786
        10 -12.0991     19.8392     13.9904   7.2847032716e+01   7.1033366146e+01    0.3375038     0.172533 -19.24  0.001826268    2.123    0.529
        11 -10.6608     41.5818      2.2986   5.6644584978e+01   6.9131370213e+01    0.2191233    0.1074502  31.89  0.001197809    1.790    0.441
        12 -12.0187    226.1194    241.0835   7.1895908179e+01  -7.6714193281e+00    0.2744911     0.145879  -9.00  0.001376086    2.286    0.563
        13 -12.3328    249.0495    224.9404   6.5205150494e+01  -7.8960342176e+00    0.3575467    0.1410896 -34.81  0.001791753    2.122    0.529
        14 -12.6240    243.7641    235.1337   6.7802743576e+01  -8.8008329804e+00    0.3334907     0.152119 -22.97  0.001670326    2.278    0.561
        15 -12.1657    249.9857    232.7538   6.6357261804e+01  -9.1350532741e+00    0.3572021    0.1915901 -29.32  0.002024046    1.528    0.345
        16 -12.6512    247.4422    239.3199   6.7866389921e+01  -9.7957013318e+00    0.4527486    0.2311716 -20.09  0.002225981    1.869    0.465
        17 -11.3351    249.0013    249.6699   6.9273895578e+01  -1.1382654935e+01    0.3752561    0.2343731  13.89  0.002521444    1.452    0.311
        18 -11.2382    248.8744    244.8927   6.8529613590e+01  -1.0720571264e+01    0.2922812     0.187789  -6.11   0.00194341    1.324    0.245
        19 -11.5529     88.1101    250.0509   1.0220540831e+02   9.6410730371e+00    0.3331378    0.2090233  16.84  0.001692413    1.930    0.482
        20 -11.4158     74.4837    250.4967   1.0525103710e+02   1.1380491835e+01    0.3671935   0.09232117  35.81  0.001357571    3.058    0.673
        21 -11.9006     65.2206    249.0361   1.0713520031e+02   1.2881096525e+01     0.420429    0.2276441  49.42  0.002043777    1.635    0.389
        22 -11.3924     50.6499    250.0970   1.1036666642e+02   1.4475220216e+01    0.4556521    0.1455013  34.51  0.001936533    2.582    0.613
        23 -11.8117     36.8361    248.7451   1.1317747538e+02   1.6373246083e+01    0.4539526    0.2335559  54.11  0.002438349    1.693    0.409
        24 -10.6610     27.5821    248.8675   1.1510077921e+02   1.7373747289e+01    0.2766464    0.1563116  58.61  0.001584703    1.527    0.345
        25 -11.6585     20.2517    249.0432   1.1660167923e+02   1.8115793700e+01    0.4134442    0.2007846  46.79  0.001881688    1.668    0.400
        26 -11.6144     12.2237    248.9878   1.1820157179e+02   1.8944540063e+01    0.3859069    0.2012439  46.67  0.001654238    1.557    0.358
        27 -11.0384      3.3872    250.3620   1.1999556257e+02   1.9521260650e+01    0.2961162    0.1447759  32.17  0.001687888    1.974    0.493
        28 -12.2484      3.3316    243.2494   1.1966111872e+02   2.0992437859e+01    0.4887512    0.2612405  71.83  0.002436974    1.633    0.388
        29 -11.4586    107.8758    240.3713   9.6621505884e+01   8.8049440851e+00    0.3033991    0.1616236  52.04  0.001376166    2.097    0.523
        30 -11.7813     73.0021    240.2611   1.0455121491e+02   1.3698314292e+01    0.3304715    0.2003048  49.26  0.001742305    1.494    0.331
        31 -10.6706     38.3252    240.6137   1.1225925917e+02   1.7919854957e+01    0.2890027    0.1562444  61.05  0.001510217    1.759    0.432
        32 -10.7410     64.7334    239.8761   1.0637555836e+02   1.4863154521e+01     0.275689     0.128529  52.88  0.001246457    2.130    0.530
        33 -11.7663      6.5845    236.3113   1.1864798536e+02   2.2155776758e+01    0.4129169    0.2173744  72.53  0.001723057    1.715    0.417
        34 -11.5946      2.2286    220.9538   1.1870484830e+02   2.5925253533e+01    0.4160335    0.1951089 -88.14  0.001906828    1.945    0.486
        35 -11.1435     45.1621    237.3534   1.1050714249e+02   1.7829243547e+01    0.3064942    0.1747376  54.72  0.001461953    1.589    0.371
        36 -11.0539     81.9980    236.3379   1.0207559947e+02   1.3316035236e+01      0.25496    0.1731056  69.03  0.001338198    1.667    0.400
        37 -10.3672     33.1025    236.2192   1.1305583982e+02   1.9457818232e+01    0.2539839    0.1267205  68.90  0.001225597    2.125    0.530
        38 -10.9371     95.5220    235.5079   9.8853377370e+01   1.1591380550e+01    0.2630252   0.09763308  42.16  0.001039117    2.392    0.582
        39 -11.7470      4.7645    228.2342   1.1857878221e+02   2.4079766203e+01    0.4512217    0.2345167  70.67  0.002038175    1.745    0.427
        40 -11.3637     14.2790    231.9867   1.1679899718e+02   2.2353287084e+01    0.4097946    0.2173145  64.43  0.002061193    1.710    0.415
        41 -11.0925     11.2625    225.7404   1.1705448374e+02   2.4026580528e+01    0.3793247    0.2093017  61.34  0.001555479    1.607    0.378
        42 -11.3659     59.8160    232.2754   1.0674846021e+02   1.7144292539e+01    0.3526179    0.1680089  55.29  0.001577861    2.175    0.540
        43 -10.9858     39.7922    230.8475   1.1115903626e+02   1.9886311485e+01    0.3330817    0.1945689  76.55  0.001727419    1.790    0.441
        44 -12.1202     25.5441    228.6700   1.1414960293e+02   2.1940753272e+01    0.5754732    0.2929242  72.25  0.002847061    2.035    0.508
        45 -13.0859    243.1846    245.4063   6.9581413780e+01  -1.0194870920e+01    0.6771089    0.3058777 -22.48  0.003487974    2.271    0.560
        46 -10.8188     48.6952    230.3604   1.0910770244e+02   1.8947022029e+01    0.3042643    0.1738123  62.15  0.001537152    1.762    0.433
        47 -11.5218    236.9964    227.9770   6.7774067283e+01  -6.9763179437e+00    0.2037429    0.1207355 -10.65  0.001146567    1.725    0.420
        48 -10.7387     73.5042    228.0135   1.0311928241e+02   1.6293012222e+01    0.1932567    0.1074886  79.23 0.0008105838    2.593    0.614
        49 -11.1079     18.6723    221.8173   1.1517828706e+02   2.4189201099e+01    0.3224243    0.1869059  72.46  0.001747531    1.626    0.385
        50 -10.5184     54.9852    222.4885   1.0689936126e+02   1.9956002300e+01    0.2031135   0.08132911  50.58 0.0008099847    2.498    0.600
        51 -10.6033     43.8565    221.3086   1.0939775872e+02   2.1574966029e+01    0.2225013    0.1384327  51.97 0.0009923629    1.465    0.317
        52 -11.1461     34.7240    217.5308   1.1119153868e+02   2.3490439521e+01    0.3256014    0.1938852  73.42  0.001673454    1.709    0.415
        53 -10.3335     24.3469    217.3481   1.1357204257e+02   2.4640333185e+01    0.2819858    0.1370437  61.33  0.001336338    2.054    0.513
        54 -11.7258    248.3397    214.5671   6.3549928133e+01  -6.2560687700e+00    0.2465981    0.1239848 -34.62  0.001361463    1.635    0.388
        55 -11.5709      2.4298    212.4982   1.1816669380e+02   2.7829262922e+01    0.3608283    0.1965015  83.39  0.001623196    1.658    0.397
        56 -10.8468     28.7392    211.3737   1.1206970941e+02   2.5580739422e+01    0.2507718    0.1433261  87.42  0.001259327    1.757    0.431
        57 -10.8039     21.2726    211.1163   1.1379808782e+02   2.6406269741e+01    0.2605022    0.1537085  78.36  0.001366079    1.645    0.392
        58 -12.6233     12.6578    205.4537   1.1537744541e+02   2.8567868624e+01    0.5527984    0.2921375  61.39  0.002538852    1.812    0.448
        59 -10.7068      1.4916    205.5126   1.1794730267e+02   2.9529179408e+01    0.2584486    0.1046347 -78.17  0.001043663    2.151    0.535
        60 -12.2841      3.5077    196.8825   1.1691601273e+02   3.1405582099e+01      0.42168    0.2328575  72.52  0.001969781    1.718    0.418
        61 -11.8344     11.9716    216.8302   1.1632649681e+02   2.5976662954e+01     0.480109    0.2598835  56.54  0.002336434    1.661    0.398
        62 -11.7283     16.8831    195.7502   1.1361476278e+02   3.0511683057e+01    0.3844481    0.1210372  37.53  0.001581307    2.768    0.639
        63 -10.9020     11.5075    190.9724   1.1454794591e+02   3.2161585469e+01    0.1996246    0.1123663 -80.67 0.0008665883    1.575    0.365
        64 -12.3874      4.1096    188.6872   1.1618901389e+02   3.3336468459e+01    0.4942192    0.2341442  66.06  0.002305758    2.194    0.544
        65 -10.9191     17.0470    189.6838   1.1306139231e+02   3.1984934423e+01    0.2578948    0.1564892  73.10  0.001256799    1.631    0.387
        66 -10.2897     24.4851    186.9616   1.1091761685e+02   3.1959552608e+01     0.202603   0.09640811  77.16 0.0008100325    2.610    0.617
        67 -11.8056     11.3613    183.9766   1.1401051799e+02   3.3898064214e+01    0.3447409     0.171299  85.42  0.001581748    2.068    0.517
        68 -11.9887      1.8942    178.1644   1.1594657250e+02   3.6091073076e+01    0.3603658     0.163587 -81.60  0.001684832    1.943    0.485
        69 -12.2308      6.2392    170.9770   1.1422650777e+02   3.7555655084e+01    0.3472473    0.1538005 -88.99   0.00149235    2.298    0.565
        70 -11.3246     11.0874    166.6876   1.1252517038e+02   3.8262365705e+01    0.2158811    0.1481352  53.54  0.001191971    1.489    0.328
        71 -10.4753     18.6623    174.3414   1.1121716138e+02   3.5682507202e+01    0.1463073   0.08714215  64.53  0.000705018    1.765    0.434
        72 -11.8175      5.5462    161.0997   1.1352118694e+02   4.0097907637e+01    0.2586348    0.1682766  83.11  0.001298455    1.473    0.321
        73 -11.7708     10.0039    155.4890   1.1170609111e+02   4.1197828755e+01    0.2748089    0.1684023  85.24     0.001393    1.639    0.390
        74 -12.1806      3.7990    153.3882   1.1327502698e+02   4.2174115079e+01    0.3532076    0.1692169 -70.95  0.001685634    1.723    0.420
        75 -11.4941      4.1081    136.4388   1.1139022940e+02   4.6455423424e+01    0.2799203    0.1549445  86.52  0.001333554    1.944    0.486
        76 -10.1314    248.3256    129.6629   4.7874511620e+01   7.7695114743e+00    0.1275863   0.08704975 -64.21 0.0004033421    1.722    0.419
        77 -10.8340      3.0558    128.0397   1.1073310101e+02   4.8640424909e+01     0.306408    0.1537864  78.93  0.001312819    2.590    0.614
        78 -10.3349      5.6921    122.3405   1.0913452833e+02   4.9914090119e+01    0.1333757   0.09205949  68.56 0.0007043275    1.687    0.407
        79 -10.9639    248.8138    118.7936   4.5717358037e+01   9.5099687102e+00    0.1787596    0.1286763 -59.16  0.001081564    1.355    0.262
        80 -10.8834    248.4944    106.9910   4.3482393126e+01   1.1502747908e+01    0.1855796    0.0829678 -56.54 0.0007395603    2.524    0.604
        81 -11.2294    249.4939     98.0375   4.1641996769e+01   1.2775663700e+01    0.1977334   0.09984267 -43.22  0.001037371    1.605    0.377
        82 -10.7074    248.3065     92.6483   4.0743660084e+01   1.3829568180e+01    0.1299902   0.07837727 -63.52 0.0007042373    1.711    0.415
        83 -10.6614    249.4870     87.9774   3.9718066430e+01   1.4355368772e+01    0.1847239   0.07666837 -56.21  0.000810262    2.545    0.607
        84 -11.3303    248.6024     73.7940   3.7113397686e+01   1.6656786654e+01    0.1806266   0.08620239 -49.92 0.0009515087    1.697    0.411
        85 -12.3792      3.1037     49.6442   9.5762417908e+01   6.6644425030e+01    0.4867179     0.187336 -54.05  0.002368484    2.156    0.536
        86 -11.8147      3.1395     33.8171   9.0631128411e+01   6.9583145342e+01    0.2846873    0.1176601 -39.99  0.001480755    1.960    0.490
        87 -11.2856     18.8878     30.4487   8.0682691463e+01   6.8761934230e+01    0.2568721    0.1269126 -28.25  0.001336794    1.986    0.496
        88 -12.0205    226.0615    248.1807   7.3055741968e+01  -8.7027698592e+00    0.2718813    0.1770484   0.99    0.0017096    1.375    0.273
        89 -11.7264    212.6886    247.9311   7.5493520089e+01  -7.0983480214e+00    0.3704235    0.1954792  -5.37  0.001776093    2.502    0.600
        90 -11.3186     77.3450    246.6385   1.0423369904e+02   1.1788179688e+01    0.2111491    0.1305509  59.01  0.001105951    1.664    0.399
        91 -11.3980     44.8633    245.1020   1.1120298081e+02   1.6206708218e+01    0.4047776    0.2205526  51.51  0.001854923    1.595    0.373
        92 -12.9625    234.2251    244.4587   7.0991594510e+01  -9.0871479190e+00    0.4107041    0.2313634  -4.65  0.002310465    1.886    0.470
        93 -12.2592     97.8060    244.6125   9.9425828048e+01   9.3874591885e+00    0.3959079    0.2118294  50.07  0.001892413    1.883    0.469
        94 -12.1821     85.2156    244.3629   1.0223360788e+02   1.1190795199e+01    0.3483776    0.2041056  49.49    0.0017919    1.596    0.373
        95 -12.2824     56.8988    242.1439   1.0833229047e+02   1.5373193547e+01    0.5475414     0.236951  51.17  0.002490463    2.175    0.540
        96 -11.6975     29.5560    240.7979   1.1414650911e+02   1.8858742199e+01    0.4446769     0.230388  66.68  0.002083001    1.899    0.473
        97 -12.1603     15.9450    240.3553   1.1696038528e+02   2.0379405999e+01    0.5845822    0.2649984  49.55   0.00253121    1.826    0.452
