#   1 NUMBER                 Running object number                                     
#   2 MAG_AUTO               Kron-like elliptical aperture magnitude                    [mag]
#   3 X_IMAGE                Object position along x                                    [pixel]
#   4 Y_IMAGE                Object position along y                                    [pixel]
#   5 X_WORLD                Barycenter position along world x axis                     [deg]
#   6 Y_WORLD                Barycenter position along world y axis                     [deg]
#   7 A_WORLD                Profile RMS along major axis (world units)                 [deg]
#   8 B_WORLD                Profile RMS along minor axis (world units)                 [deg]
#   9 THETA_WORLD            Position angle (CCW/world-x)                               [deg]
#  10 FWHM_WORLD             FWHM assuming a gaussian core                              [deg]
#  11 ELONGATION             A_IMAGE/B_IMAGE                                           
#  12 ELLIPTICITY            1 - B_IMAGE/A_IMAGE                                       
         1 -13.0909    203.3791     34.5239   5.6655930913e+01   3.0029356716e+01    0.9801775     0.827619 -74.50  0.004764816    1.187    0.158
         2 -13.3023      3.2571     16.1844   1.0990580998e+02   7.1699521649e+01     1.134093    0.4798867 -55.87  0.006112132    2.091    0.522
         3 -12.4773      6.4970      3.8523   1.0261708753e+02   7.3575734077e+01    0.8218918    0.4448847  12.12  0.005155401    1.988    0.497
         4 -13.7015    221.7075     15.9152   4.9655587072e+01   2.7720801564e+01    0.9809273    0.8505841  39.57  0.003176443    1.363    0.267
         5 -11.2301    198.2845    245.5125   1.0469538006e+02  -1.7853026380e+00    0.2369723     0.157919  22.17  0.001183582    1.324    0.245
         6 -11.3932    177.5633    249.3268   1.0884572116e+02   8.6038019269e-01    0.5410101    0.1910435  29.57  0.002074139    3.904    0.744
         7 -11.0677    161.6597    249.7394   1.1170916984e+02   3.2109536739e+00    0.2802103    0.1533095  39.37   0.00167303    1.419    0.295
         8 -11.1356    143.3022    249.3516   1.1492777628e+02   6.0314451065e+00     0.348014    0.1865015  55.77  0.001935868    2.009    0.502
         9 -12.2972    119.0718    237.0558   1.1794756696e+02   1.1512783551e+01    0.6579289    0.4728616  -8.09  0.003209866    2.703    0.630
        10 -11.4138    132.0949    248.9612   1.1688143372e+02   7.7582522881e+00     0.629941    0.1659735  45.40  0.002624557    3.026    0.670
        11 -12.4006    124.4521    245.2719   1.1785311987e+02   9.4374609845e+00    0.6542203    0.5092703 -49.56   0.00464926    1.652    0.395
        12 -11.1545    110.1055    247.5331   1.2064701094e+02   1.1174703301e+01    0.3011882    0.2101317  45.75  0.001696373    1.134    0.119
        13 -11.1909     99.7634    248.0023   1.2251807444e+02   1.2557549768e+01    0.3580601    0.2532965  68.83   0.00236732    1.357    0.263
        14 -11.6784     87.6319    248.4500   1.2467750658e+02   1.4141614274e+01    0.5396445    0.3097825  40.29  0.002047269    1.503    0.334
        15 -10.3292     81.4096    248.1240   1.2572846210e+02   1.5018942280e+01    0.2783305    0.1547508 -76.71  0.001217164    2.071    0.517
        16 -10.5853     84.0967    230.3908   1.2373382762e+02   1.7628435171e+01     0.304055    0.1945352 -59.84  0.001951331    1.830    0.453
        17 -11.4393     83.2946    240.2677   1.2475019209e+02   1.6055383426e+01    0.5717777     0.217862  54.26  0.001884792    2.389    0.581
        18 -10.5378     91.2234    241.5864   1.2345305052e+02   1.4764746457e+01    0.2532659     0.178618  28.96  0.001401458    1.706    0.414
        19 -11.4827     88.4834    237.5779   1.2358543631e+02   1.5803642482e+01    0.4611826    0.2308999  56.52  0.001945892    1.781    0.438
        20  -9.3853     56.2797    250.4823   1.3015131215e+02   1.7786954347e+01    0.1915791   0.09891242  45.19 0.0004857259    1.524    0.344
        21 -11.5343     60.0340    246.1634   1.2923793241e+02   1.8043477583e+01    0.4785125    0.2647003  46.98  0.002882048    1.417    0.294
        22 -11.0543     68.3275    245.6450   1.2778953677e+02   1.7104197804e+01    0.2563492    0.1783765  66.95  0.001037697    1.174    0.148
        23 -11.6997     44.9229    200.7972   1.2862070533e+02   2.8110243631e+01    0.6840531    0.5900671 -30.47  0.004711348    1.829    0.453
        24 -12.2441     48.7158    216.6013   1.2912926265e+02   2.4618150355e+01     1.606125    0.5523688  61.06  0.006198201    3.321    0.699
        25 -14.2303      8.9497    210.8108   1.3594767557e+02   2.9840702060e+01     2.381125     1.084796 -83.62   0.01484263    1.861    0.463
        26 -14.1214     28.3682    218.6140   1.3295285783e+02   2.6486622125e+01    0.9697473    0.7331777 -86.14  0.006268154    1.259    0.206
        27 -11.2911    165.2486    243.0599   1.1022651590e+02   3.5660190529e+00    0.2540972    0.2054964  84.06  0.001701689    1.828    0.453
        28 -12.1911    135.6073    241.2028   1.1538014849e+02   8.3815265179e+00    0.4474066    0.2494834  60.00  0.002429135    2.119    0.528
        29 -11.9526    135.6724    235.9596   1.1475328985e+02   9.1704674873e+00    0.3899489     0.233363 -41.66  0.002271992    2.219    0.549
        30 -11.2709    133.7682    232.7135   1.1471909992e+02   9.9702395248e+00    0.2409548    0.1918336 -59.79  0.001080032    1.527    0.345
        31 -11.6293    113.3996    230.8895   1.1832824847e+02   1.3361576512e+01    0.4147989    0.3407064   0.07  0.002592678    1.831    0.454
        32 -12.4812    102.6730    238.4452   1.2109549314e+02   1.3678989188e+01    0.4972251    0.4616821  40.23  0.002061751    1.296    0.228
        33 -12.1243    102.5649    230.6572   1.2033201951e+02   1.4990908062e+01    0.6551416    0.3469614  31.88   0.00216899    2.083    0.520
        34 -10.8325     74.0765    244.4001   1.2670470884e+02   1.6578808186e+01    0.4097683    0.2226215 -59.83  0.002551822    2.215    0.549
        35  -9.9564    245.3294    241.3138   9.6106332122e+01  -8.0757709370e+00    0.1176743   0.06715275  11.86 0.0004764958    1.674    0.403
        36  -9.1221     60.8881    239.0000   1.2859051942e+02   1.9142791819e+01    0.1723252   0.05086904  38.31 0.0007964179    2.901    0.655
        37 -14.0562      6.0785    245.0300   1.3789718319e+02   2.4047316376e+01     1.207663     0.964958  81.21    0.0108604    1.302    0.232
        38 -11.7694    116.1060    249.0204   1.1972936392e+02   1.0087037051e+01    0.4814221    0.4017177  51.91  0.003638198    1.085    0.078
        39  -9.4094     54.6283    235.3276   1.2941969134e+02   2.0533487800e+01    0.1828687   0.09601093  64.43  0.001127274    1.662    0.398
        40 -12.9374     26.4430    247.4640   1.3482388483e+02   2.1623133554e+01    0.8416596    0.5929233  42.59   0.00671135    1.484    0.326
        41  -9.4788    250.3095    230.6645   9.3590239923e+01  -7.6413787912e+00   0.09425008    0.0889959  25.73 0.0007043313    1.679    0.404
        42  -9.1520    153.4273    230.2079   1.1071584317e+02   7.2685057796e+00    0.1436848     0.117875 -73.27 0.0005302411    1.615    0.381
        43  -9.3672     56.4510    228.5199   1.2860837872e+02   2.1514187918e+01       0.2664    0.1332261  84.20  0.001327197    2.226    0.551
        44 -11.0229     79.3841    225.7153   1.2418075402e+02   1.9088563081e+01    0.3802454    0.2720833  82.53  0.002565655    1.359    0.264
        45  -9.6252     77.1473    220.8208   1.2415162468e+02   2.0271273131e+01    0.1847055    0.1354286  78.58 0.0004248951    1.267    0.211
        46 -10.0096     92.5112    225.8983   1.2173611854e+02   1.7248890551e+01    0.2285103    0.1437481  50.87 0.0008312493    1.302    0.232
        47  -9.9411     87.7722    223.7693   1.2242092275e+02   1.8289580650e+01    0.2294682    0.1645634  60.41  0.001161172    1.173    0.148
        48 -10.6275    136.2975    224.1879   1.1317980709e+02   1.0940395424e+01    0.2614666     0.206757 -34.16 0.0007743189    1.627    0.386
        49 -10.4086     97.2246    239.2871   1.2216445336e+02   1.4310814614e+01    0.2463331    0.1660583  69.91  0.001201286    1.473    0.321
        50  -9.2256     64.8059    224.5803   1.2678386394e+02   2.1190836491e+01    0.1840329    0.1157121 -48.34  0.001103516    2.339    0.572
        51  -9.1087     45.8043    225.2160   1.3027636699e+02   2.3365129467e+01    0.1295986     0.113487  85.06 0.0004250812    1.281    0.219
        52 -10.9017     98.7231    222.9803   1.2025632842e+02   1.6874969365e+01    0.2792845    0.2040778  47.73  0.001314617    1.155    0.134
        53 -10.5949     71.0584    219.5127   1.2518472150e+02   2.1314980859e+01     0.427225    0.2501661  82.08  0.002503474    1.837    0.456
        54 -10.2748    141.7849    219.3243   1.1147893367e+02   1.0856744368e+01    0.2825209    0.1974428 -46.26  0.001582174    1.708    0.414
        55  -9.2622     90.7696    219.8150   1.2145228884e+02   1.8579310943e+01    0.2439041    0.1278494  66.44  0.000969201    2.234    0.552
        56 -10.0430    116.5544    216.0151   1.1599468508e+02   1.5431965806e+01    0.2806574    0.2015906  15.16  0.001159401    2.027    0.507
        57  -9.9546     86.8959    212.1963   1.2141453332e+02   2.0529253156e+01    0.3675885     0.178442  67.15  0.001679441    2.729    0.634
        58 -10.4944     56.3680    209.4104   1.2711026905e+02   2.5074444992e+01    0.5186414    0.2528502  87.31  0.002665211    2.386    0.581
        59 -10.3924     63.1083    208.9402   1.2576314728e+02   2.4329538610e+01    0.4223547    0.2796948 -52.58  0.002610185    1.922    0.480
        60  -9.8809     99.2883    210.0270   1.1871133832e+02   1.9142804875e+01    0.3144892    0.1668139  71.62  0.000884219    2.754    0.637
        61 -10.0937    106.9701    203.3488   1.1634332045e+02   1.9235444447e+01    0.2322546    0.1808911 -60.72 0.0005346849    1.417    0.294
        62  -8.3502     74.2838    208.3220   1.2351035416e+02   2.2996822852e+01    0.1033856   0.09328997 -34.57 0.0003100876    1.594    0.373
        63  -8.4549     83.3508    201.6725   1.2099017622e+02   2.3046608253e+01    0.1340065   0.07937439  66.58  -0.00011406    1.763    0.433
        64 -10.1833     74.6136    200.0962   1.2260576376e+02   2.4560010216e+01    0.1958068    0.1663991  61.71 0.0005130175    1.081    0.075
        65  -9.3098    250.4982    200.4788   8.8325031011e+01  -4.2084691547e+00    0.1244726   0.09538045   6.44 6.767646e-05    1.045    0.043
        66  -9.1233     96.8280    199.1755   1.1791833019e+02   2.1580786683e+01    0.1518933    0.1451294  30.45  0.000247429    1.276    0.216
        67 -11.8424     53.1881    193.3865   1.2632363193e+02   2.8639911104e+01    0.3760646    0.3301641  83.14 0.0008512475    1.147    0.128
        68 -13.5670     37.9073    242.4243   1.3270442102e+02   2.1236739195e+01     1.497205    0.8801284  85.40   0.01067126    1.527    0.345
        69  -9.8298    249.7326    193.9883   8.7249739364e+01  -3.2850127635e+00    0.2317248    0.1357123  23.41  0.001287586    1.620    0.383
        70 -10.2747     30.7999    193.1878   1.3080668061e+02   3.1169445943e+01    0.2089752    0.1441675 -73.78 0.0002685461    1.375    0.273
        71  -8.9697     33.6683    192.0282   1.3015078958e+02   3.1106953662e+01    0.2870696    0.1235847  81.93  0.001172296    2.671    0.626
        72  -9.9466     25.9678    192.7472   1.3172370994e+02   3.1747470991e+01    0.1956334    0.1348539  70.03  0.000871246    1.170    0.145
        73  -9.8256     21.4724    192.4602   1.3257973507e+02   3.2244985711e+01    0.2748916    0.1359377  71.50 0.0009836211    1.843    0.458
        74  -9.3476    191.7627    191.6398   9.7261069518e+01   6.7755088186e+00    0.2058313    0.1670155 -15.83 0.0005189312    1.286    0.222
        75  -8.5453     91.7307    192.3345   1.1814209757e+02   2.3696122170e+01    0.1295792    0.0870457  72.97 0.0002051372    1.592    0.372
        76  -8.3366     38.6285    192.2713   1.2917815457e+02   3.0528013903e+01    0.1242203   0.06722608  63.20 0.0006998605    1.676    0.403
        77 -13.2790     22.8366    224.9912   1.3427657344e+02   2.5886969414e+01    0.4477361    0.4023499 -50.86  0.002597011    1.756    0.431
        78 -12.1740    179.9089    243.6344   1.0767534077e+02   1.2347258635e+00     0.530087    0.1821781  35.04  0.002358901    2.587    0.613
        79 -10.0800    250.4791    187.4972   8.5896736410e+01  -2.5729727074e+00    0.2585254    0.1103253 -30.47  0.001228268    2.234    0.552
        80  -9.3361     76.4393    187.0678   1.2077672097e+02   2.6956975333e+01    0.3100448    0.1663484 -83.36  0.001176921    2.227    0.551
        81 -10.6950     71.0749    187.0307   1.2192443349e+02   2.7691088843e+01    0.2490892    0.1732468  39.24 0.0003240478    1.460    0.315
        82 -10.4341      9.6851    187.2789   1.3453403269e+02   3.4370794606e+01    0.2895572    0.1314167  84.18  0.001629156    1.959    0.490
        83 -11.7324     59.6798    185.4125   1.2418485216e+02   2.9498232828e+01    0.2437799    0.2083483 -74.98 0.0003282187    1.216    0.178
        84  -9.3679     29.5697    184.1992   1.3036956469e+02   3.3140264373e+01    0.2818309    0.1716196 -54.09  0.001403717    1.974    0.493
        85  -8.7845    107.4393    185.5309   1.1383880737e+02   2.2653765780e+01    0.1302201    0.1177093  63.76 7.327504e-05    1.018    0.017
        86 -10.3996     37.0701    180.3494   1.2849449737e+02   3.3172372157e+01    0.2731818    0.1624105 -65.21 0.0004450424    1.614    0.380
        87  -9.3390     27.1200    179.7249   1.3052219284e+02   3.4319580319e+01     0.186724    0.1353276 -83.85 0.0003478241    1.170    0.145
        88  -8.7351     12.2854    178.3485   1.3345898583e+02   3.5977197976e+01    0.1053285   0.07361812 -58.41 0.0007020056    1.654    0.395
        89 -11.8624    247.1327    158.2464   8.0577758067e+01   1.9669415584e+00    0.7013909    0.5477374 -89.04  0.003591931    2.641    0.621
        90 -12.0331    248.7389    172.2243   8.3186230156e+01  -2.6239516990e-01    0.6891158    0.3452786 -30.72  0.003443745    1.860    0.462
        91 -11.5468    245.3458    162.5288   8.1767091554e+01   1.6640044597e+00    0.3986392    0.2400528 -29.90  0.002112451    1.535    0.349
        92  -9.1671    105.8535    175.9154   1.1276779370e+02   2.4887452761e+01    0.1801105    0.1788985  38.06            0    1.170    0.145
        93 -10.7312     71.1924    173.3534   1.2027353174e+02   3.0582821931e+01    0.2317172    0.2084108  58.64 0.0004384306    1.144    0.126
        94 -10.2083     12.5159    172.8686   1.3303980785e+02   3.7104920864e+01    0.2601334    0.1492641 -64.24  0.001628949    1.681    0.405
        95  -9.8081     55.9423    172.8773   1.2365222942e+02   3.2634864947e+01    0.2215181    0.1626261  53.27 0.0006661718    1.281    0.220
        96  -9.5656     51.6626    171.1478   1.2442061456e+02   3.3521982250e+01    0.2013644    0.1439724  56.55 0.0005831508    1.300    0.231
        97 -11.5798     10.6531    157.8789   1.3234184058e+02   4.0471884021e+01    0.3579952    0.1686895  72.12  0.001899255    2.117    0.528
        98 -11.1593     12.2329    153.7167   1.3165877506e+02   4.1255542780e+01    0.2690388    0.1774423 -71.07  0.001118313    1.306    0.234
        99 -11.0014      2.4618    172.3430   1.3506470493e+02   3.8036344557e+01    0.4284471    0.1967333  81.20  0.002418624    1.920    0.479
       100 -11.9841     11.6041    166.1266   1.3275218445e+02   3.8614281790e+01    0.5634001    0.3607317  54.15  0.002718995    1.461    0.315
       101 -10.6190      4.8475    166.9068   1.3423140397e+02   3.8992422435e+01    0.2508112    0.2207752   9.57  0.001324942    1.680    0.405
       102 -10.1659     27.1327    171.6277   1.2985956559e+02   3.6039327285e+01    0.2583461     0.165181 -60.16 0.0003961413    1.621    0.383
       103  -9.2451     17.9015    172.1663   1.3186522835e+02   3.6782745124e+01    0.1824299    0.1229564  70.48  0.001214423    1.257    0.205
       104 -10.6556     39.0070    167.6870   1.2689531171e+02   3.5691943257e+01    0.2105329    0.2036872  85.38 0.0003727049    1.293    0.227
       105 -10.2531     45.0035    164.8006   1.2524182702e+02   3.5676855609e+01    0.3145133    0.1474269 -48.94  0.001473549    2.658    0.624
       106 -11.9145     79.3078    165.0973   1.1729902185e+02   3.1268981576e+01     0.493748    0.4881908  -8.97  0.003262648    1.256    0.204
       107 -10.0288     68.1490    166.2227   1.2006417894e+02   3.2550542253e+01    0.2281895    0.1836975  76.51 0.0004059596    1.137    0.120
       108  -8.8382     64.7473    166.9932   1.2095212045e+02   3.2824072676e+01    0.1774526    0.1326618  76.75 0.0004023125    1.265    0.210
       109  -9.5557     29.7390    165.0048   1.2870730812e+02   3.7222043671e+01    0.1658334    0.1305066 -88.16 0.0005110943    1.050    0.047
       110  -9.3676     67.0380    161.3733   1.1968749241e+02   3.3775805161e+01    0.2072859     0.161482 -61.26 0.0003138245    1.284    0.221
       111  -9.9210     24.0325    161.9947   1.2970889277e+02   3.8422153901e+01    0.1746985    0.1413084  86.73 0.0003721961    1.031    0.030
       112  -9.5014     28.5520    161.0181   1.2860439845e+02   3.8212356825e+01    0.1744563   0.09829518 -76.23 0.0003207672    1.501    0.334
       113  -8.5446     66.6587    157.2548   1.1921960015e+02   3.4751452235e+01    0.1330805   0.08801483  66.48 0.0002707464    1.580    0.367
       114 -10.2435     81.2346    156.5321   1.1557575843e+02   3.2902687806e+01    0.2491309    0.1191608  42.75   0.00112288    2.041    0.510
       115 -11.5908     24.6318    154.9480   1.2893055977e+02   3.9922913767e+01    0.4637886    0.2306278  40.20  0.001894598    2.033    0.508
       116  -8.4539    228.4280    155.4848   8.3175718661e+01   5.7377100102e+00    0.1355962    0.1212225  -6.62 0.0002205375    1.058    0.055
       117 -10.1694     32.1093    153.8036   1.2707215388e+02   3.9473854412e+01    0.2108558    0.1478774 -77.84 0.0005050415    1.199    0.166
       118 -10.9508    249.5924    150.9385   7.8629743578e+01   2.5883009264e+00    0.4932824    0.2613033 -28.53  0.001900789    1.724    0.420
       119 -13.2143    248.0982    101.3548   6.7669709126e+01   1.0252624978e+01     1.726793    0.8016118 -21.66  0.006806911    2.576    0.612
       120 -12.0101    247.9546    142.3486   7.7036325261e+01   4.1334446430e+00    0.6064644    0.4821617   9.17  0.003570977    1.230    0.187
       121 -12.8606    248.2325    134.2119   7.5196421371e+01   5.2890527707e+00      1.38729     0.632718 -25.86  0.005905955    2.204    0.546
       122 -10.6379     93.5386    150.0005   1.1147560793e+02   3.2510934701e+01    0.3086073    0.2872851  20.41  0.001036223    1.254    0.203
       123  -9.0950     96.9800    146.2556   1.0994872977e+02   3.2805728660e+01    0.1855944    0.1761311  58.68 0.0003186421    1.082    0.076
       124  -9.0810     87.1607    151.1615   1.1326001931e+02   3.3236194058e+01    0.1879754    0.1472172  83.16            0    1.333    0.250
       125 -11.0214     22.1365    149.3357   1.2897908647e+02   4.1398820006e+01    0.4779947    0.1139412  39.02  0.002002223    3.601    0.722
       126  -9.6226     81.4093    148.5404   1.1426636601e+02   3.4689312526e+01    0.2938042    0.1850367  45.82  0.001494127    1.590    0.371
       127 -11.8917     68.1995    144.0683   1.1690482046e+02   3.7562800815e+01     0.677049     0.431432  79.40  0.002723705    1.888    0.470
       128  -9.7531     59.2984    146.9342   1.1959114955e+02   3.8042897165e+01    0.3438118    0.1751266 -43.13   0.00152864    2.570    0.611
       129  -9.1813     40.4971    147.4792   1.2434673333e+02   4.0059659699e+01    0.1254087    0.1047093 -86.36 0.0001239305    1.007    0.007
       130 -12.9353      8.7303    143.8396   1.3164529588e+02   4.3710296236e+01    0.6744851    0.4620702  44.49  0.004541998    1.567    0.362
       131  -9.3390    235.8321    146.1451   7.9866517492e+01   5.7931848252e+00    0.1895235    0.1462609   5.30 0.0004578807    1.301    0.231
       132 -10.0286    133.2518    141.0437   9.9911647574e+01   2.7454424238e+01    0.3200999    0.2432183 -64.30 0.0009536521    1.464    0.317
       133  -9.9821     37.0013    140.0001   1.2431205120e+02   4.2132940810e+01    0.1914832    0.1553022 -87.54    0.0003896    1.051    0.048
       134 -11.0967     16.5846    139.4955   1.2935877232e+02   4.4079563391e+01    0.2520234    0.1890295  86.10 0.0009425122    1.126    0.112
       135  -9.6889    107.0771    135.7871   1.0534657451e+02   3.3470165007e+01    0.4040765    0.2644853 -19.17  0.001512154    2.664    0.625
       136 -12.0368      8.2500    127.1278   1.3023038675e+02   4.7501131809e+01    0.3047357    0.2237219  34.39  0.002073476    1.627    0.385
       137 -12.2373      2.0854    123.3190   1.3145038049e+02   4.8764826939e+01    0.7913318    0.2239798 -80.28  0.003159678    3.247    0.692
       138  -9.2860     93.7562    133.1893   1.0830298161e+02   3.6311201962e+01    0.1822742    0.1607447 -30.71 0.0003296836    1.293    0.227
       139 -11.6158      5.4185    120.2383   1.3027694730e+02   4.9252444854e+01    0.3764804    0.2563502  53.14  0.002470156    1.586    0.370
       140  -9.7324     54.2731    151.7254   1.2149264988e+02   3.7553172049e+01    0.2439737    0.1824587 -43.73  0.001425816    1.608    0.378
       141  -9.9678     44.3036    129.9634   1.2105460504e+02   4.3712618370e+01    0.1836217    0.1423098 -72.79 0.0005045288    1.104    0.094
       142  -9.6077     66.5082    126.5118   1.1442261585e+02   4.1882977489e+01    0.1356919    0.1213713 -72.06 0.0008104841    1.013    0.013
       143  -8.5393     41.3237    123.2962   1.2088216690e+02   4.5584875154e+01    0.1269758   0.08868315 -41.28 0.0007021677    1.622    0.384
       144 -12.7320     17.6757    121.0464   1.2707934759e+02   4.8210656969e+01    0.5515273     0.328514  62.54   0.00314602    1.841    0.457
       145 -10.6967    232.1234    116.6163   7.3730162803e+01   1.1143809489e+01    0.2473501     0.181895 -39.16 0.0007215769    1.307    0.235
       146 -12.2643      9.0451    112.8957   1.2849348183e+02   5.0692851132e+01    0.4877501    0.1970312 -66.63   0.00190212    1.856    0.461
       147 -12.9527      2.7388    107.9855   1.2970429185e+02   5.2199952688e+01     1.072044    0.2120796 -70.67  0.004056271    3.421    0.708
       148 -11.3586     19.2126    105.9886   1.2468279017e+02   5.1576075721e+01    0.2237048    0.2070121  89.36   0.00106475    1.173    0.147
       149 -12.3909     15.1186    100.6825   1.2515239634e+02   5.3093569191e+01    0.4232065    0.2704326 -82.70  0.001244892    1.422    0.297
       150 -12.8792      6.8688     98.4880   1.2734786245e+02   5.4123103707e+01     0.685086    0.3955398  60.33  0.003902917    2.073    0.518
       151 -10.0486    249.8179    117.7867   7.1238725885e+01   7.4481650492e+00    0.2900846    0.2192834   0.05 0.0005832563    1.430    0.301
       152  -9.6480    168.0953    113.1312   8.5074838023e+01   2.5828631720e+01    0.3797827    0.2594007 -80.46  0.001436538    2.600    0.615
       153  -8.5628     71.7411    100.3243   1.0750907648e+02   4.7291222760e+01    0.1353967    0.1051937 -88.86 0.0002638215    1.553    0.356
       154 -12.1435      2.3049     77.0623   1.2572341581e+02   5.9212234339e+01    0.7853763   0.05256346 -67.82   0.00222348    6.028    0.834
       155 -12.4813    248.1391    112.8843   7.0358966919e+01   8.5105346445e+00     1.226136    0.7433959   3.74  0.005256561    2.575    0.612
       156 -11.0701    169.0757    248.8054   1.1027792079e+02   2.2116577541e+00    0.3082964    0.1744321  19.04  0.001326068    2.386    0.581
       157 -11.9545    150.0400    247.2652   1.1348123025e+02   5.3096480225e+00    0.3987681    0.3279284  -8.43  0.002823396    1.600    0.375
       158  -9.2695     73.6314    237.2185   1.2621526991e+02   1.7840565820e+01     0.173571   0.09938733 -78.18 0.0005717651    1.895    0.472
