#   1 NUMBER                 Running object number                                     
#   2 MAG_AUTO               Kron-like elliptical aperture magnitude                    [mag]
#   3 X_IMAGE                Object position along x                                    [pixel]
#   4 Y_IMAGE                Object position along y                                    [pixel]
#   5 X_WORLD                Barycenter position along world x axis                     [deg]
#   6 Y_WORLD                Barycenter position along world y axis                     [deg]
#   7 A_WORLD                Profile RMS along major axis (world units)                 [deg]
#   8 B_WORLD                Profile RMS along minor axis (world units)                 [deg]
#   9 THETA_WORLD            Position angle (CCW/world-x)                               [deg]
#  10 FWHM_WORLD             FWHM assuming a gaussian core                              [deg]
#  11 ELONGATION             A_IMAGE/B_IMAGE                                           
#  12 ELLIPTICITY            1 - B_IMAGE/A_IMAGE                                       
         1 -16.5448    227.7393    176.6770   7.7346540375e+01   1.2279265418e+00     25.45817     14.49903 -61.81    0.0814919    5.665    0.823
         2  99.0000    222.3502     24.6633   4.1840912026e+01   2.6643228704e+01     2.500623     1.295336  59.22   0.01201303    1.960    0.490
         3 -13.5318    234.9058     14.8590   3.8356089730e+01   2.4884475518e+01    0.6430984    0.3287956  43.38  0.002856886    3.014    0.668
         4 -16.4413    205.9969     63.4310   5.3923184029e+01   2.5243790315e+01     3.210754     3.155767  53.82   0.01870177    1.113    0.101
         5 -15.8530    218.6232     67.2738   5.3075823242e+01   2.1621664738e+01     3.309335    0.3682074 -39.31  0.008088829    5.585    0.821
         6 -18.1776    243.2216     59.6381   4.8023681092e+01   1.7178263972e+01     6.194218     3.435451 -37.00   0.03018608    1.595    0.373
         7 -14.9419    246.5746     29.6274   4.0720061323e+01   2.0513461947e+01    0.6025472    0.5532051  86.41  0.004015364    1.197    0.164
         8  -8.7971    177.8195     14.6971   4.4226901951e+01   3.8759054755e+01    0.3311312    0.1588683 -44.75   0.00145109    2.138    0.532
         9  -9.6120    218.8298     10.8271   3.8789668090e+01   2.9058479671e+01    0.1413404    0.1179079 -55.48 0.0003733541    1.119    0.106
        10 -11.8352    222.5936     13.1471   3.9014763440e+01   2.7917813919e+01    0.3037094    0.2150938  68.16   0.00056418    1.395    0.283
        11 -10.3032    228.6558     11.7253   3.8151547635e+01   2.6664806260e+01    0.1777692    0.1301932  37.10 0.0005248224    1.897    0.473
        12  -9.1483    191.6317     15.6958   4.2824507563e+01   3.5170578529e+01    0.2510575    0.1365922 -26.77 0.0004286971    1.983    0.496
        13  -8.5918    192.4819     11.4681   4.1572140837e+01   3.5405390322e+01    0.1676161     0.135104 -20.41 0.0005017858    1.438    0.305
        14  -9.0452    208.0217      9.5923   3.9482907822e+01   3.1778658108e+01    0.2272885     0.165955  42.23 0.0006766652    1.683    0.406
        15  -9.0999    212.9344     11.8428   3.9582160436e+01   3.0354116360e+01    0.2636989    0.1115778 -70.15 0.0008895463    3.316    0.698
        16  -8.6611    185.9715     11.0617   4.2194952872e+01   3.7076231998e+01    0.3915868    0.1686393 -49.49  0.001001116    2.468    0.595
        17  -9.0319    240.9778      8.4691   3.6433180511e+01   2.4237068911e+01    0.1718741    0.1180787  67.42  0.001016588    1.509    0.337
        18  -8.1870    172.0000      6.6881   4.2609152603e+01   4.1026599500e+01    0.3113036   0.07761618 -23.11 0.0008958475    4.448    0.775
        19  99.0000    228.0263      6.6887   3.7027485340e+01   2.7355256052e+01    0.1935806    0.1662927 -46.59 0.0007042055    1.195    0.163
        20 -10.2044    226.2143      2.7720   3.6260090188e+01   2.8181472471e+01    0.2953445    0.1355006 -29.31  0.001418868    2.234    0.552
        21  99.0000    217.7313      7.2747   3.8023397627e+01   2.9696296555e+01    0.2893412    0.1423043  60.89  0.001399901    1.994    0.499
        22 -10.5226    220.2266      3.2067   3.6836532271e+01   2.9528636325e+01     0.385438    0.2208434  16.86   0.00158524    3.905    0.744
        23  -9.9984    166.3284      4.7768   4.2749681878e+01   4.2635299936e+01    0.3811793    0.2303506 -10.62  0.001871457    2.086    0.521
        24  -8.8681    174.8786      1.2743   4.0685289623e+01   4.0794365150e+01    0.2178623     0.106588  74.40 0.0009899343    1.855    0.461
        25  -9.7129     61.4421    150.6772   1.1026859452e+02   3.6767590219e+01    0.3372197    0.2757601 -50.48  0.001965202    1.327    0.247
        26  -9.5138     68.1118    149.9299   1.0843037372e+02   3.6057027875e+01    0.5717694    0.1847352 -56.44  0.001612689    2.728    0.633
        27 -10.6293     65.0252    144.5575   1.0838450932e+02   3.7774042865e+01    0.4378852    0.3541102 -43.70  0.002480276    1.394    0.283
        28  -8.6610    163.7599    138.2175   8.1900637588e+01   2.1171218383e+01    0.3825223    0.2591927 -34.37  0.001425138    1.554    0.357
        29 -10.0882    158.8461    140.5036   8.3566715100e+01   2.1746729175e+01    0.5357315    0.3476343 -41.98  0.001210495    1.548    0.354
        30  -8.8116    158.1264    134.9420   8.2419664244e+01   2.3086797179e+01    0.3009459    0.2461225 -45.31 0.0008790906    1.219    0.180
        31  -7.6715     35.8764    148.1293   1.1645820804e+02   4.0344746761e+01    0.1659039    0.1384803 -56.06 0.0004203524    1.295    0.228
        32 -10.2120     44.7925    142.9496   1.1348686722e+02   4.0637475454e+01     0.416865    0.2417531 -89.00  0.001447936    1.841    0.457
        33 -15.7637    207.3787     75.6098   5.6955415175e+01   2.2959699861e+01     2.620766     1.551468 -27.87   0.01141036    1.791    0.442
        34  -7.9179     85.5277    149.0177   1.0374623463e+02   3.3721924293e+01    0.2225192    0.1331913 -61.94  0.001029275    1.586    0.369
        35  -8.8621    109.0972    137.6457   9.5312164118e+01   3.2435479156e+01    0.2460976    0.1974724 -68.02 0.0002247493    1.265    0.209
        36  -8.6255    104.2619    145.9817   9.8297211345e+01   3.1332618316e+01    0.2507093    0.2175017  35.97 0.0003815034    1.237    0.191
        37  -7.6321      7.0066    138.3121   1.2265637697e+02   4.5162099810e+01    0.1618364    0.1290894 -85.06 0.0005019637    1.043    0.041
        38  -8.7853    104.4334    133.2079   9.5600177989e+01   3.4334625430e+01    0.2867682    0.2424706 -10.00   0.00125153    1.499    0.333
        39  -7.7538     83.3785    219.6898   1.1387755814e+02   1.8439765239e+01    0.1476258    0.1105537 -64.21 0.0004569098    1.478    0.323
        40 -10.5348    111.7409    131.1473   9.3179086443e+01   3.3476708537e+01    0.4275462    0.3383277  89.25  0.002064743    1.505    0.336
        41  -8.4147     26.5303    124.5279   1.1589382166e+02   4.6889742037e+01    0.2333324    0.1272536  26.93  0.001221645    2.211    0.548
        42  -8.9361      3.0251    120.7007   1.2192160650e+02   4.9534825068e+01    0.1676883    0.1397598 -75.62  0.001182154    1.103    0.093
        43  -8.3393      6.3135    118.3239   1.2075661444e+02   4.9885027855e+01    0.1247986   0.07237535 -50.58 0.0002842495    1.661    0.398
        44  -8.1862     79.9300    216.5786   1.1424407163e+02   1.9546626956e+01    0.1786707     0.154552 -82.37 0.0003660335    1.218    0.179
        45  -9.6521      3.8115    112.6520   1.2080374941e+02   5.1367121223e+01    0.2404791    0.2013498  64.04  0.001270024    1.329    0.248
        46  -7.1794     56.0151    217.2074   1.1902952229e+02   2.2642445250e+01    0.1343207   0.08313068  44.11 0.0007995435    1.482    0.325
        47  -8.0651     17.3108    217.6740   1.2630269370e+02   2.6955203471e+01    0.1200112   0.05936803  66.68 0.0007040072    1.659    0.397
        48  -9.6261    101.4500    102.7166   8.9069787175e+01   4.2039711985e+01    0.4132121    0.3020405  80.85  0.001826775    1.987    0.497
        49 -10.2978      4.6394     97.5157   1.1862113256e+02   5.4844801146e+01    0.4082903    0.1714827 -70.72 0.0008170205    1.833    0.455
        50  -8.8482     15.4773     99.1905   1.1545943308e+02   5.3779692181e+01    0.1904158    0.1832954   9.24 0.0007502797    1.306    0.235
        51  -7.5447     33.0006     97.9455   1.0959736878e+02   5.2680525907e+01    0.1607849    0.1275859 -61.71 0.0006147115    1.041    0.040
        52  -7.3809     68.5389     96.5151   9.7639912169e+01   4.8899301261e+01    0.1429569    0.1273917 -49.47 0.0002595603    1.007    0.007
        53  -8.4895     44.2292     95.4544   1.0538659447e+02   5.2163859331e+01    0.2247159    0.1830769 -63.52 0.0004269934    1.092    0.084
        54  -8.6644     16.3442     93.4967   1.1424970039e+02   5.5052127168e+01    0.2211748   0.09490474 -66.81 0.0009699215    1.843    0.457
        55  -8.1620     49.0892     88.7524   1.0221354713e+02   5.3195402119e+01    0.1888749    0.1725672 -74.12 0.0004902018    1.161    0.139
        56  -7.9774     64.4622     88.2041   9.6846738699e+01   5.1389362480e+01     0.211566    0.1680856  38.64 0.0005693757    1.413    0.292
        57  -9.0277      8.0041     86.4957   1.1585119883e+02   5.7196469324e+01    0.1534211    0.1223729   9.05   0.00103368    1.593    0.372
        58 -14.7328    239.9597    137.7882   6.6834341961e+01   5.3256561588e+00     3.547386     2.262655  73.77   0.01490751    3.087    0.676
        59  -7.4715     23.4990     83.9937   1.1004924129e+02   5.6733050922e+01    0.1878981    0.1027821 -61.75 0.0004201576    1.467    0.318
        60  -7.9921     41.4158     79.1000   1.0253629407e+02   5.6236456892e+01    0.1976013    0.1618344 -25.32  0.001199048    1.253    0.202
        61  -8.6754     62.6070     78.0267   9.4675017930e+01   5.3927311822e+01      0.24655    0.2080131  19.61 0.0006043439    1.306    0.234
        62  -9.0263      2.6155     76.8671   1.1608570464e+02   5.9668133288e+01    0.2408112    0.1303289 -82.25  0.001295162    1.899    0.474
        63  -7.4824     31.0126     75.0046   1.0533160075e+02   5.8154041621e+01    0.1606775    0.1242809 -52.52 0.0006134771    1.060    0.057
        64  -7.8551      7.6053     67.7339   1.1251496136e+02   6.1438985769e+01    0.1705454   0.09784771 -73.05 0.0008953477    1.642    0.391
        65  -6.9998     50.7210    233.7068   1.2132274967e+02   2.0108676252e+01    0.0924539   0.08705232 -68.42 0.0002042321    1.529    0.346
        66  -7.8165     17.5025     56.5223   1.0591829144e+02   6.3241396622e+01    0.2003914    0.1073501 -70.15  0.001010027    2.107    0.525
        67  -7.5486     26.2819     49.7012   1.0022376470e+02   6.3962381494e+01    0.1077359   0.09443866 -83.77 0.0002586338    1.545    0.353
        68  -9.1673    202.1031    213.4337   8.9126557885e+01  -6.4726357767e-02     0.287954    0.1876832 -24.01  0.001578287    1.687    0.407
        69  -8.1166     64.2465     38.5795   8.0417487061e+01   6.1390292338e+01    0.2052281    0.1632651 -34.26 0.0009271477    1.230    0.187
        70  -7.9808     84.3726     38.1825   7.3062797320e+01   5.7950276246e+01    0.1938144    0.1203968 -41.75 0.0009451844    1.720    0.419
        71 -11.2115    178.0039     31.6156   4.9179622568e+01   3.6773976309e+01    0.3568356    0.2857057 -17.61 0.0003008272    1.420    0.296
        72  -8.7423    177.5385     25.5980   4.7466832113e+01   3.7621366800e+01    0.2807204    0.1961236  45.25  0.001008456    1.524    0.344
        73  -9.9027    170.1741     29.5380   4.9751629126e+01   3.9031199115e+01    0.2394909    0.2247953 -37.03 0.0004390622    1.129    0.114
        74  -7.9454    175.2492     21.7544   4.6651069618e+01   3.8646970845e+01     0.131396   0.09851351 -68.91 0.0002161579    1.407    0.289
        75  -8.7969    174.5147     17.2177   4.5404125779e+01   3.9331898453e+01    0.2629374    0.1699825 -11.03  0.001272685    1.958    0.489
        76  -7.5770     46.4926    198.9596   1.1933593693e+02   2.7590303606e+01    0.1833724   0.08399308  80.35 0.0008096916    2.646    0.622
        77  -7.3827    181.5069     19.4946   4.5141588406e+01   3.7307880274e+01     0.137969    0.1261296  68.25 -3.074497e-05    1.081    0.075
        78  -8.2957    197.2132     18.0752   4.2831357099e+01   3.3516834455e+01     0.161204    0.1405622  80.95 0.0003563268    1.071    0.066
        79  -8.8902    188.1889     17.1316   4.3630316794e+01   3.5878952865e+01    0.1313393    0.1072892 -22.65 0.0002800549    1.384    0.278
        80  -8.1981    172.8476    194.8255   9.1647350969e+01   8.1568107016e+00    0.1825081    0.1590659  61.16 0.0003818036    1.306    0.234
        81  -7.8102     30.4754    222.4884   1.2422002618e+02   2.4621169448e+01    0.1138415   0.08457011  72.79 0.0003457922    1.012    0.012
        82  -7.6182    162.6107    193.7811   9.3603707494e+01   1.0232733903e+01    0.1770243    0.1341906 -59.53 0.0003945818    1.579    0.367
        83  -7.7159     34.4394    185.0322   1.2061925377e+02   3.1989059246e+01    0.1791145    0.1010382 -77.11 0.0004108578    1.533    0.348
        84 -14.9932    247.8947    100.3826   5.7018932239e+01   9.9018897718e+00     1.739868    0.6095983 -31.22  0.006228896    2.854    0.650
        85  -9.1574    216.9636     15.2122   4.0037327717e+01   2.9020015825e+01    0.1855929    0.1454516  54.12  0.001080368    1.431    0.301
        86  99.0000    204.7524     13.3386   4.0766701626e+01   3.2176086685e+01    0.1624014    0.1215223  32.91 0.0008749874    1.751    0.429
        87  -8.9811     85.0842    172.9739   1.0771984141e+02   2.8154382993e+01    0.2227119    0.1928463  45.97 0.0003841692    1.204    0.169
        88  -8.0432    165.4906    169.9278   8.8462836070e+01   1.4287108412e+01    0.2176796    0.1450381 -43.88 0.0005496946    1.560    0.359
        89  -8.7147    124.6548    158.2475   9.5588059094e+01   2.4762904540e+01    0.3783776    0.2458623 -19.53  0.001474147    2.756    0.637
        90  -8.5017     20.0040    222.0000   1.2606910479e+02   2.5834112015e+01    0.1616553   0.05462105  35.42 0.0007987689    2.917    0.657
        91  -9.7620    179.0629    152.7156   8.1843672865e+01   1.4950502359e+01    0.7240832    0.4470212 -51.19  0.003165309    1.794    0.443
        92  -7.9914    143.8911    209.3380   1.0010487910e+02   1.0704373421e+01    0.1893193     0.154318  41.02 0.0006057254    1.089    0.082
        93 -15.3464    243.0482     91.7105   5.5661636176e+01   1.2290546014e+01    0.9662762    0.7469895  26.08  0.005172998    1.641    0.391
        94  -9.0817    143.9652    155.4326   9.0373536451e+01   2.1620591065e+01     0.387764    0.3010744  38.44  0.001197207    1.286    0.223
        95  -7.5736     46.5401    158.9951   1.1513727524e+02   3.6604549767e+01    0.2221762    0.1216041  44.78   0.00113581    1.835    0.455
        96 -16.4956    232.7165     81.9790   5.4766024068e+01   1.6075385337e+01      2.03319     1.368953  40.85   0.01000192    1.791    0.442
        97  -9.5118    164.3275    151.8305   8.4888883463e+01   1.8207472868e+01    0.3289635    0.3212535 -39.32  0.001006642    1.046    0.044
