#   1 NUMBER                 Running object number                                     
#   2 MAG_AUTO               Kron-like elliptical aperture magnitude                    [mag]
#   3 X_IMAGE                Object position along x                                    [pixel]
#   4 Y_IMAGE                Object position along y                                    [pixel]
#   5 X_WORLD                Barycenter position along world x axis                     [deg]
#   6 Y_WORLD                Barycenter position along world y axis                     [deg]
#   7 A_WORLD                Profile RMS along major axis (world units)                 [deg]
#   8 B_WORLD                Profile RMS along minor axis (world units)                 [deg]
#   9 THETA_WORLD            Position angle (CCW/world-x)                               [deg]
#  10 FWHM_WORLD             FWHM assuming a gaussian core                              [deg]
#  11 ELONGATION             A_IMAGE/B_IMAGE                                           
#  12 ELLIPTICITY            1 - B_IMAGE/A_IMAGE                                       
         1 -13.6287    233.2178     89.3144   5.7281614415e+01   1.4757202763e+01     3.936388    0.8156442 -39.12   0.01147778    3.930    0.746
         2 -14.7713    246.5924     30.1326   4.1557812885e+01   2.0426949061e+01     7.198781     1.253724 -31.41   0.02128485    5.151    0.806
         3 -14.1243    235.1283     35.9809   4.4045720141e+01   2.2252374832e+01      3.16459     0.985997 -37.50   0.01227556    2.670    0.625
         4 -12.8416    246.3456    143.9639   6.7915006449e+01   3.1050424266e+00     5.135133     1.541229 -48.42    0.0110846    9.378    0.893
         5 -10.8849    215.7145     16.3327   4.1230578542e+01   2.9230464502e+01    0.3489536    0.2148334 -19.26  0.001730936    2.002    0.501
         6  -9.7573    140.3708      9.0619   4.9049203811e+01   4.8903371562e+01    0.2851839    0.1871775  78.00 0.0006270223    1.599    0.375
         7  -9.1546     18.7802      9.1802   8.9633338774e+01   7.1648301472e+01     0.156799    0.1018159 -16.32 0.0002650721    1.292    0.226
         8 -10.2683    116.5183      5.3729   5.2280154403e+01   5.5018238355e+01    0.2278071    0.2127314  61.24 0.0003385046    1.131    0.115
         9 -10.1846    110.9559      5.0909   5.3380834793e+01   5.6336758089e+01    0.2157576    0.1789187  13.32 0.0003506048    1.206    0.171
        10 -10.1865    217.3974      3.0266   3.7798650185e+01   3.0254641714e+01    0.2930285    0.1481335 -28.98  0.001439768    2.072    0.517
        11  -9.7018     50.9207      3.3257   7.1147390964e+01   6.8361695223e+01    0.2058532    0.1448729  -8.02 0.0003321939    1.243    0.195
        12  -8.4400    153.4903      3.4848   4.5086333557e+01   4.6116971615e+01    0.1354477    0.1206403  70.61 8.130018e-05    1.019    0.019
        13  -8.8253    121.5552      1.9597   4.9942798274e+01   5.4116211296e+01    0.1789876     0.130427 -10.70 0.0003721887    1.515    0.340
        14  -9.4946     14.7296      1.9954   8.8239504544e+01   7.3084964775e+01    0.1578913    0.1094728 -22.23 0.0002936596    1.094    0.086
        15 -10.9786    204.1706    233.2752   9.2765305885e+01  -3.1770054510e+00    0.4567571    0.3475407 -84.52 0.0006675684    3.103    0.678
        16 -10.4198    225.1498    248.9041   9.1422731330e+01  -8.2744850238e+00    0.2879498    0.2126531 -60.52  0.001685558    3.018    0.669
        17 -10.2277    210.6365    249.6780   9.4097453200e+01  -6.2599170755e+00    0.2558366     0.184526  -3.86  0.001712544    1.442    0.306
        18 -10.7748    193.3089    247.0421   9.6836334614e+01  -3.3159187469e+00    0.4900756    0.2213647 -39.92  0.002561735    2.683    0.627
        19  -9.3335    184.0698    250.4846   9.9008510230e+01  -2.3459749388e+00    0.1886718   0.09448167  37.63  0.001013195    1.579    0.366
        20 -10.4882    167.8690    249.7632   1.0188921648e+02   2.6973582848e-01    0.3049822    0.1659816  32.05 0.0008784432    1.615    0.381
        21  -9.3961    151.2084    249.7674   1.0497757080e+02   2.8779911040e+00    0.1620533    0.1260528  22.28  0.001066257    1.357    0.263
        22 -10.1348    216.6465    229.1348   8.9810482464e+01  -4.5712857783e+00    0.2375874    0.1789043 -35.05  0.001527784    1.567    0.362
        23  -9.6343    189.5340    234.2937   9.5651999060e+01  -9.9003859841e-01    0.2059825    0.1227473 -45.88  0.001080395    2.113    0.527
        24 -10.1064    216.2634    233.8833   9.0650646027e+01  -5.1312579563e+00    0.3212602    0.2698149 -39.16  0.002199079    1.580    0.367
        25  -8.8730    225.5174    231.5150   8.8602345932e+01  -6.2293964072e+00    0.1766052    0.1114724 -43.71 0.0007794389    2.144    0.534
        26 -10.6095    245.0041    230.4547   8.5015101240e+01  -8.9369890362e+00    0.2342586      0.15063 -30.57  0.001060456    1.667    0.400
        27 -10.2112    246.8933    226.1487   8.3959923708e+01  -8.6908895539e+00    0.3373476    0.2222403  51.54   0.00190974    2.447    0.591
        28  -9.8223    240.1692    221.2586   8.4278320989e+01  -7.1165705802e+00    0.3084264    0.2617537 -27.54  0.002136305    1.450    0.311
        29  -8.5411    239.7668    215.4763   8.3333358325e+01  -6.3177505125e+00    0.2701283    0.2304918 -88.04  0.001530261    2.545    0.607
        30  -9.8448    235.2222    228.7676   8.6427758855e+01  -7.3257039663e+00    0.3118891    0.1560685 -30.87   0.00170675    2.082    0.520
        31  -9.4951    229.6084    228.2892   8.7338614316e+01  -6.4346148050e+00    0.2265555    0.1771308 -46.38 0.0009361061    1.892    0.471
        32  -8.7726    207.5481    231.4913   9.1859005465e+01  -3.4670753920e+00    0.1245701   0.09911464  19.57 0.0001391624    1.025    0.024
        33  -8.1575    223.3126    226.0148   8.8084547691e+01  -5.1888084064e+00    0.1902866   0.08699357 -15.37 0.0007042328    4.215    0.763
        34  -9.0425    205.9015    225.3081   9.1163182052e+01  -2.3581354583e+00    0.2689513    0.1579151 -45.64  0.001447994    2.190    0.543
        35  -8.7484    190.5068    225.5065   9.4103076570e+01   1.1960364627e-01     0.127601    0.1060288  27.25 0.0008105251    1.022    0.021
        36  -9.3334    228.3009    222.3347   8.6563546106e+01  -5.4717024605e+00    0.2128146    0.1844847  71.85  0.001337192    2.069    0.517
        37 -10.7958    247.8801    216.7847   8.2158299618e+01  -7.6839417979e+00    0.5025815    0.2494338 -35.92  0.002700617    2.138    0.532
        38 -10.1990    246.9923    206.5204   8.0458413773e+01  -6.2345479697e+00    0.4561328    0.2135586 -44.94  0.002071653    3.101    0.678
        39  -9.9283    243.1366    201.0355   8.0110845704e+01  -4.9097768201e+00    0.3463846    0.2200597 -34.61  0.001762446    1.630    0.386
        40  -9.9772    244.0210    236.4987   8.6189438463e+01  -9.5048162405e+00    0.1812664     0.152493 -21.88 0.0007135776    1.461    0.315
        41  -9.3324    219.6010    216.7123   8.7172434782e+01  -3.3561466643e+00    0.3014527    0.1431683 -42.65  0.001450647    2.542    0.607
        42  -9.7951    232.8734    213.0302   8.4118186585e+01  -4.9423658181e+00    0.3450081    0.1618892 -41.21  0.001674984    2.515    0.602
        43  -9.8707    229.7216    207.0738   8.3611135304e+01  -3.6307782119e+00    0.4829324    0.1794531 -45.98  0.001803737    4.215    0.763
        44  -9.9591    240.5650    208.6155   8.1960062224e+01  -5.5365638777e+00    0.3349698    0.2085291 -49.04  0.001743137    2.536    0.606
        45  -8.6312    217.3765    205.1772   8.5534716376e+01  -1.3461878507e+00    0.1715315    0.1182517 -43.82 0.0009479027    1.762    0.433
        46  -8.5623    202.4530    204.4551   8.8241424705e+01   1.2945947838e+00    0.1323797    0.1139236  18.39  0.000198159    1.012    0.012
        47  -8.8135    173.1735    204.1052   9.4008806879e+01   6.5147491676e+00    0.1753959    0.1569249  68.39 0.0004929238    1.337    0.252
        48  -9.8710    250.2003    200.9232   7.8869554480e+01  -5.9769309160e+00    0.3250299     0.158039 -30.97  0.001351547    1.957    0.489
        49  -9.5572    223.8399    201.5483   8.3669295451e+01  -1.8864866512e+00    0.2253678    0.1656668 -47.93 0.0008619186    1.815    0.449
        50 -10.1205    237.1318    197.6860   8.0538874222e+01  -3.4966865997e+00    0.3243297    0.2122114 -44.80   0.00176929    1.951    0.487
        51  -9.6482    231.2981    194.7756   8.1032572930e+01  -2.1291941070e+00    0.3613227    0.1731981 -34.38  0.001725727    2.073    0.518
        52  -9.9817    230.7389    188.0770   7.9840461649e+01  -1.0430355216e+00    0.4470983    0.2186597 -46.65  0.001953323    2.703    0.630
        53  -9.6539    224.3952    192.7932   8.1915747393e+01  -6.7933265686e-01    0.2780433    0.1605216 -48.30  0.001023637    2.328    0.571
        54  -8.9851    241.4945    191.5126   7.8588193464e+01  -3.3200372892e+00    0.2414743    0.1159261 -33.77 0.0007296631    2.010    0.503
        55 -10.3206    246.5321    193.2414   7.8043941881e+01  -4.3646579076e+00     0.378098    0.2692552 -45.27  0.002174376    1.849    0.459
        56  -9.3278    244.0114    188.4850   7.7560884674e+01  -3.2922598120e+00    0.2194659    0.2085268  80.58 0.0009289847    1.653    0.395
        57 -10.0498    231.7758    178.6362   7.7777345270e+01   2.1948928854e-01     0.245316    0.1976346 -82.45  0.001223666    2.351    0.575
        58 -10.3962    237.1085    186.7146   7.8428943579e+01  -1.9066394599e+00    0.3814901    0.2107759 -38.57   0.00164647    1.868    0.465
        59  -9.2743    235.9752    181.7731   7.7652717518e+01  -9.7923154896e-01    0.2746366    0.2356695 -75.29  0.000928142    1.958    0.489
        60  -9.0279    215.0802    186.9650   8.2534224452e+01   1.8423720866e+00    0.1900636    0.1692248 -76.50  0.000596257    1.678    0.404
        61  -9.9911    249.4889    184.5021   7.5836512727e+01  -3.6010721599e+00    0.3245518    0.1873989 -35.56  0.001374999    1.693    0.409
        62 -10.7436    247.7517    178.6957   7.4979077309e+01  -2.4822763853e+00     0.656733    0.3777035 -50.52  0.003045014    2.677    0.626
        63 -10.1698     77.7756    185.7429   1.1198619428e+02   2.6329828040e+01    0.2760952    0.2158149  53.01 0.0006458432    1.189    0.159
        64  -9.5433    223.9561    184.1402   8.0310574983e+01   7.2519214577e-01    0.3012852    0.1810142 -45.96  0.001149734    2.001    0.500
        65  -8.5762    162.6745    183.3240   9.2525375098e+01   1.2240406170e+01    0.1425824    0.1116301  75.75 0.0007048514    1.689    0.408
        66 -10.3631    241.5482    181.0124   7.6516100373e+01  -1.8004219728e+00    0.3649369    0.2634689 -48.97  0.001839827    1.851    0.460
        67  -8.6502    191.4916    180.4902   8.5911786330e+01   7.2702811350e+00    0.1393072     0.130387  24.90  0.000809313    1.079    0.073
        68  -9.0803    219.1681    177.9660   7.9969606185e+01   2.5584204716e+00    0.2462324    0.1571117 -42.59    0.0012367    1.703    0.413
        69  -9.2441    210.5149    176.0832   8.1241069579e+01   4.4550168184e+00    0.2838619    0.1295681 -44.11  0.001110952    2.399    0.583
        70  -8.8743    197.8417    177.1071   8.3950994498e+01   6.6612467790e+00     0.202092    0.1944816 -82.99 0.0007636446    1.301    0.232
        71  -9.0345    232.7157    174.4180   7.6750645002e+01   7.1170230642e-01    0.2408627    0.1535061 -41.07  0.001237526    1.666    0.400
        72  -9.4213    223.8051    173.4906   7.8188987493e+01   2.4453653445e+00    0.2583759    0.1702514 -49.44 0.0009775275    1.906    0.475
        73 -10.3959    246.6892    169.6261   7.3317334059e+01  -9.5749935933e-01    0.4111992    0.3297805  75.63  0.002238424    2.219    0.549
        74  -9.3790    228.0144    171.5001   7.7003147449e+01   2.0074952675e+00    0.2527542    0.1835418 -48.66   0.00117678    1.689    0.408
        75  -9.4280    231.1376    159.8390   7.3981739777e+01   3.3284259692e+00    0.2463105    0.2316607  89.05 0.0008362515    1.449    0.310
        76 -10.6026    237.3935    169.4729   7.4898231227e+01   6.6481741608e-01     0.397335    0.2159171 -45.35  0.001240699    2.143    0.533
        77  -9.4866    234.3464    164.5444   7.4408089975e+01   1.9836509711e+00    0.3623152    0.1783018 -47.54  0.001512919    2.567    0.610
        78  -9.3907    205.6890    169.8757   8.0906283309e+01   6.4282201869e+00      0.29291    0.1768265 -61.15  0.001156481    3.001    0.667
        79  -9.6783    219.0618    168.5956   7.8060422896e+01   4.1197991577e+00    0.3122661    0.2488524 -55.30   0.00154874    1.630    0.387
        80  -9.1844    212.0100    169.0800   7.9507063816e+01   5.3618999831e+00    0.2065216    0.1768262 -75.84 0.0008146742    1.697    0.411
        81  -8.9946    229.3568    165.9172   7.5593677619e+01   2.6649178415e+00    0.2788387    0.1155324 -42.89  0.001104803    2.568    0.611
        82  -9.8270    213.1755    163.3874   7.8079897482e+01   6.1171910567e+00    0.4069116    0.2422448 -45.49  0.001883308    1.836    0.455
        83  -9.3336    240.2418    164.1190   7.3281811752e+01   1.0021397112e+00     0.221274    0.1853414  85.53  0.001212029    1.993    0.498
        84  -9.9934    237.6788    159.2206   7.2691261601e+01   2.2352003514e+00    0.3633096    0.2781619 -61.25  0.001222303    1.936    0.484
        85  -9.6224    233.5750    154.0376   7.2296167637e+01   3.8277845091e+00    0.3204203     0.246961 -66.70  0.001409883    1.999    0.500
        86  -8.7359    199.2965    164.6358   8.1078600318e+01   8.5996457109e+00    0.1402729    0.1169649 -78.65 0.0004090594    1.717    0.418
        87 -11.2996    234.3245    146.1670   7.0437289018e+01   4.9870665299e+00     1.191916    0.8309653 -48.31  0.005502074    1.615    0.381
        88  -8.9262    242.7649    248.3839   8.8312562476e+01  -1.0662157279e+01    0.1642913   0.08205335  26.99 0.0009509387    1.655    0.396
        89 -12.1478    244.6477    154.3069   7.0442344436e+01   1.7658520237e+00     3.199384     1.098108 -49.51  0.007737289    7.962    0.874
        90 -12.2192    245.1225    100.1914   5.8133195444e+01   1.0459565228e+01      2.28099    0.5764624 -44.56  0.006783042    4.111    0.757
        91  -9.3321    232.8445    247.5016   8.9871199632e+01  -9.2007989493e+00    0.1883966    0.1486197 -42.51  0.001137714    1.924    0.480
        92  -9.3066    226.8530    157.3338   7.4216789478e+01   4.5407316791e+00    0.2387327    0.1867386 -41.33  0.001299163    1.343    0.256
        93  -8.3122      2.6712    159.7117   1.2623723554e+02   4.0419769163e+01    0.1085167   0.07527336 -55.47  0.000288625    1.617    0.382
        94  -8.8710    222.3820    157.1910   7.5006937815e+01   5.4129335809e+00    0.1935844    0.1254988 -43.45 0.0006777719    1.616    0.381
        95  -9.2668    216.6322    156.6706   7.5970514440e+01   6.6104756524e+00    0.2796212    0.2116878 -51.01  0.001065254    1.556    0.357
        96  -9.1225    187.7236    155.7901   8.1550412172e+01   1.2575234827e+01     0.346687    0.1283028 -43.43  0.001201957    2.758    0.637
        97  -9.2764    212.0141    155.7423   7.6649308364e+01   7.6772933763e+00    0.1974674    0.1815859  16.07  0.000503592    1.062    0.059
        98  -9.5877    204.3208    152.9563   7.7537034645e+01   9.7139551927e+00    0.4471524    0.3031072  78.79  0.001765938    2.990    0.666
        99  -9.3838    221.4079    152.0268   7.4056627267e+01   6.4825113351e+00    0.2526112    0.2062897  65.89  0.001053279    1.627    0.385
       100  -9.4533    211.9136    151.3365   7.5695209235e+01   8.4772002804e+00    0.2513429    0.1912272 -43.36 0.0007634069    1.365    0.267
       101  -9.4712    215.7584    149.2873   7.4505108905e+01   8.0719535039e+00    0.3384776    0.1774714 -49.86  0.001369738    2.334    0.572
       102  -9.6161    218.2592    246.7979   9.2312408363e+01  -7.0328533255e+00    0.3009362    0.1445061 -35.85  0.001666677    2.410    0.585
       103  -9.8505    223.9401    146.9223   7.2456815116e+01   6.8650612429e+00    0.3064585    0.2650776 -70.35   0.00167348    1.540    0.351
       104  -8.8509    200.7951    145.5842   7.6579688174e+01   1.1794488563e+01    0.2036592    0.1426312  56.83 0.0007229886    1.669    0.401
       105  -9.5594    208.0588    145.6185   7.5154219988e+01   1.0286011240e+01    0.2562961    0.1974205 -44.10 0.0009562035    1.340    0.254
       106  -9.1403    155.8279    144.6022   8.6136892511e+01   2.1522797345e+01    0.2228754    0.1423992  54.56 0.0009465236    1.705    0.414
       107  -9.1558    214.2940    142.7231   7.3298613206e+01   9.5311947076e+00    0.2661162    0.1638729 -46.55 0.0007922289    1.727    0.421
       108  -9.4263    182.1878    142.2954   7.9682632897e+01   1.6368647330e+01    0.2926873    0.1989857 -66.45  0.001219114    2.145    0.534
       109  -9.3774    224.1279    140.1817   7.0901268318e+01   7.9911681318e+00     0.260304    0.2031679 -42.81  0.001159952    1.301    0.231
       110  -8.9713    203.9928    141.4918   7.5004465738e+01   1.1885763850e+01    0.1931682    0.1350504  75.51 0.0006034446    2.342    0.573
       111  -9.1107    198.2451    140.2312   7.5858053942e+01   1.3333950434e+01    0.3392629    0.2642211 -71.15  0.001607147    1.768    0.434
       112  -9.3117    199.4939    137.5029   7.4969030435e+01   1.3582100864e+01    0.2636555    0.2097552 -72.56  0.001263291    1.700    0.412
       113  -8.9300    166.7783    140.8012   8.2739812680e+01   1.9989860692e+01    0.2147528    0.1872412  85.68  0.001070068    1.369    0.270
       114  -9.5627    218.7781    138.2820   7.1442388800e+01   9.4046504337e+00    0.3046735    0.2259777 -46.45  0.001185449    1.414    0.293
       115  -9.2283    209.0238    139.0180   7.3451155557e+01   1.1287614079e+01    0.2276382      0.18627 -75.34  0.001062884    1.670    0.401
       116  -9.7393    172.1627    137.9929   8.0870815908e+01   1.9403577399e+01    0.4969532    0.3287746  86.69  0.001776475    3.094    0.677
       117  -8.5817    187.7097    136.3180   7.7106661338e+01   1.6351943364e+01    0.1493409    0.1223555 -77.46 0.0003783725    1.598    0.374
       118  -8.9598    163.0000    136.0280   8.2484582706e+01   2.1805038043e+01    0.2551574   0.08802569 -43.67 0.0007974182    2.908    0.656
       119  -9.8106    224.6021    133.6097   6.9306978851e+01   9.0366642443e+00    0.4119428    0.2643524  63.33  0.001849023    2.147    0.534
       120  -9.2230    220.9738    129.0456   6.8891638151e+01   1.0582943664e+01    0.2789975    0.1984881 -53.86 0.0009762299    1.625    0.385
       121  -9.8271    198.3104    131.9441   7.3887644884e+01   1.4887144359e+01     0.328523    0.2726381  15.46  0.001425372    1.316    0.240
       122  -9.3396    179.7851    132.8180   7.7960112708e+01   1.8781918167e+01    0.2118654     0.187758 -83.33 0.0007607052    1.344    0.256
       123  -9.6919    143.0000    131.5141   8.6192169075e+01   2.7084514498e+01    0.3393894   0.08821934 -46.32 0.0009232269    3.842    0.740
       124  -9.2703    205.9585    131.0033   7.2157299568e+01   1.3409473826e+01      0.23872    0.1871248 -73.32  0.001130847    1.751    0.429
       125  -9.3388    192.5895    129.5958   7.4480805658e+01   1.6588781606e+01    0.3055857    0.2257416 -55.40 0.0008793852    1.536    0.349
       126  -9.0992    211.8607    129.0162   7.0559077253e+01   1.2509515966e+01    0.2495818    0.1626393 -58.52  0.001070657    2.029    0.507
       127  -8.7615    186.3819    129.2007   7.5673952339e+01   1.8039558467e+01    0.2258071    0.1397325 -49.45 0.0009476163    1.727    0.421
       128  -8.8737    193.1736    137.1379   7.6165347341e+01   1.5008929083e+01     0.211512    0.1812809 -63.41  0.001071209    1.363    0.267
       129 -10.1300    200.1629    126.5468   7.2216548368e+01   1.5501710129e+01    0.3190925    0.2272529 -62.59  0.001013924    1.827    0.453
       130  -9.0526    216.6576    125.2913   6.8783009388e+01   1.2158581882e+01     0.145204    0.1170279 -74.70 0.0002816026    1.653    0.395
       131  -8.8435    212.9969    123.4798   6.9020043100e+01   1.3269138123e+01    0.2665189    0.2042459  66.41  0.001300983    1.604    0.376
       132  -9.2562    179.8253    125.1251   7.6068651608e+01   2.0314518161e+01    0.2440501    0.2164671 -73.67  0.001200677    1.296    0.228
       133  -9.4623    146.4137    125.2015   8.3817004221e+01   2.7741545896e+01    0.2284571    0.1475913 -56.40 0.0009500977    1.712    0.416
       134 -10.1148    221.0729    121.6981   6.7130689899e+01   1.1858248217e+01    0.5173929    0.2368559 -50.08  0.001886714    2.679    0.627
       135  -8.7405    170.1470    124.2260   7.7977611578e+01   2.2678546212e+01    0.2166609    0.1878123  89.62 0.0008234553    1.377    0.274
       136  -8.8067    188.5075    123.5088   7.3828943012e+01   1.8678630807e+01    0.1532439    0.1483587 -54.26 0.0008093189    1.080    0.074
       137  -9.6831    228.2127    125.6297   6.6814327344e+01   9.6810432509e+00    0.2922751     0.226087 -62.11    0.0011966    1.616    0.381
       138  -9.1691    173.8182    120.0119   7.6096294325e+01   2.2706426450e+01    0.2613727    0.1782506 -64.94  0.001073122    1.966    0.491
       139  -9.2030    157.5285    120.0241   7.9828614371e+01   2.6399195548e+01    0.2238781    0.1360866 -65.13 0.0008089667    2.461    0.594
       140 -10.1775     18.4871    118.8791   1.1834624111e+02   4.8679938395e+01    0.2143775    0.1888829  81.12 0.0005354836    1.175    0.149
       141  -9.6470    140.3849    118.2239   8.3569884605e+01   3.0581928497e+01    0.2306505    0.1464905 -55.05 0.0009526506    1.699    0.412
       142 -10.3284    212.3592    115.9489   6.7302666807e+01   1.4769420464e+01    0.3560819     0.202594 -51.58  0.001288684    2.013    0.503
       143  -9.4419    187.1884    246.1770   9.7833938562e+01  -2.2551454908e+00    0.2094412     0.132799 -18.92  0.001202842    2.088    0.521
       144 -10.6108    219.6872    114.0252   6.5521975625e+01   1.3509231509e+01    0.4394647     0.236452 -56.06  0.001672174    2.575    0.612
       145 -10.3788    218.5898    109.7570   6.4668036132e+01   1.4501359069e+01    0.4146734    0.2292711 -53.88  0.001662709    2.219    0.549
       146  -9.0537    173.4302    114.1761   7.4682263865e+01   2.3974944383e+01    0.2286808    0.1442892 -51.93 0.0009402033    1.725    0.420
       147  -9.0619    194.3771    121.1909   7.2052817882e+01   1.7805452593e+01    0.2264363      0.13677 -47.89 0.0008227841    1.725    0.420
       148  -8.8247    195.0000    112.9599   6.9856317418e+01   1.9230492798e+01    0.2570193   0.08529034 -38.15 0.0007979816    2.912    0.657
       149  -8.3872    223.6290    112.3042   6.4422594272e+01   1.2957839692e+01     0.149679    0.1133683 -71.63  0.000703268    1.754    0.430
       150  -8.7281    168.6685    112.3142   7.5256315431e+01   2.5454493053e+01    0.1610739    0.1264099 -81.97 0.0003659975    1.680    0.405
       151  -9.2255    177.3433    110.6579   7.2910856178e+01   2.3768350671e+01    0.2465059    0.1921826 -76.84  0.001107565    1.669    0.401
       152  -8.7934    155.2916    110.6552   7.7920233081e+01   2.8882187226e+01    0.1614796    0.1260127 -77.89 0.0007027633    1.659    0.397
       153  -9.4054    134.0180    109.8345   8.3021981628e+01   3.3807512956e+01    0.2644152     0.187591  76.94   0.00108398    2.045    0.511
       154  -9.8023    189.9637    108.9516   6.9832935146e+01   2.1155842120e+01    0.3137586    0.1956803 -60.59  0.001124389    2.148    0.534
       155  -9.3041    183.3378    108.9508   7.1192197346e+01   2.2702424966e+01    0.3210511    0.1323699 -45.36  0.001089086    2.479    0.597
       156  -9.1368    160.6624    108.4906   7.6074968148e+01   2.8094256127e+01    0.2822526    0.1463812 -41.17 0.0009158101    1.905    0.475
       157  -9.5126      9.5979    107.7856   1.1947678721e+02   5.1902503792e+01     0.170912   0.09607664 -82.21   0.00051274    1.575    0.365
       158  -9.7064    222.3551    104.9996   6.2852877721e+01   1.4503801165e+01     0.357582    0.2212822 -45.06  0.001520144    1.561    0.359
       159  -9.0007    218.5158    104.5194   6.3385280766e+01   1.5437087599e+01     0.253299    0.1725766 -55.74 0.0007008663    1.654    0.395
       160  -9.2922    205.6666    105.4056   6.5891180999e+01   1.8183857656e+01    0.3138671    0.2143421 -57.18   0.00137053    1.698    0.411
       161  -9.8079    186.0132    114.9918   7.2199131848e+01   2.0906423575e+01    0.2503595    0.1915451 -72.21 0.0008410513    1.706    0.414
       162  -9.1075    141.3225    104.0024   7.9562550077e+01   3.3460332719e+01    0.2620206    0.1219502 -60.63 0.0007044905    4.247    0.765
       163  -9.1476    200.8801    103.1451   6.6201645449e+01   1.9700318780e+01    0.2392122    0.2012284 -61.23 0.0007241376    1.289    0.224
       164  -9.5035    167.3077    100.7855   7.2466823358e+01   2.8092163363e+01    0.3223836    0.1310891 -46.31   0.00106373    2.569    0.611
       165  -9.2562    160.3530    100.2004   7.3888430350e+01   2.9856300346e+01     0.237116    0.1412891 -49.59 0.0009448221    1.771    0.435
       166  -8.9551    225.1522     99.1872   6.0958507977e+01   1.4885287583e+01    0.2084717     0.159096 -53.47 0.0006328374    1.349    0.259
       167  -8.9344    215.5342     94.4962   6.1372751507e+01   1.7853823848e+01    0.2297657     0.129721 -46.13 0.0009715685    1.739    0.425
       168 -10.1447    212.9482     96.4490   6.2309844958e+01   1.8107737702e+01    0.4778806    0.2710801 -63.13  0.001768237    2.756    0.637
       169  -9.5599    210.6932     92.0157   6.1560353805e+01   1.9401372887e+01    0.3925494    0.2369442 -55.98  0.001345058    1.941    0.485
       170  -8.8902    209.2047     99.2299   6.3674261514e+01   1.8479250824e+01    0.2124982    0.1719321 -60.25 0.0009803184    1.341    0.254
       171  -9.4292    202.8845     98.1116   6.4525014926e+01   2.0146619734e+01    0.3242274    0.2011219 -54.65  0.001028542    1.845    0.458
       172  -9.2987    195.0747     97.4693   6.5817596924e+01   2.2103051499e+01    0.3119449     0.218234 -46.15  0.001147159    1.413    0.292
       173  -8.5741    183.6507     96.3302   6.7762834396e+01   2.5042641124e+01    0.1642107    0.1223203 -74.90 0.0007048637    1.766    0.434
       174  -9.5730    224.9149     93.3040   5.9539745500e+01   1.5933804085e+01    0.2861235    0.2002187 -29.65 0.0009161225    1.394    0.283
       175  -8.9450    206.7501     94.2044   6.2813835133e+01   1.9938537382e+01    0.2445425    0.1769498 -55.70 0.0006293809    1.487    0.328
       176  -9.2984    164.6634     94.1600   7.1218423976e+01   3.0028913923e+01    0.2610371    0.1976989 -56.40  0.001186577    1.442    0.306
       177  -9.0372     30.6695     97.2708   1.1132054763e+02   5.2823693252e+01    0.1225833   0.09152555  72.64 0.0002834833    1.586    0.370
       178  -9.3993    158.1383     90.2820   7.1600616599e+01   3.2353064851e+01    0.3181664     0.200256 -61.76  0.001234608    2.140    0.533
       179 -10.5028     25.0172     90.3884   1.1190995793e+02   5.4894928493e+01    0.2539698    0.2016753 -40.08 0.0004655572    1.250    0.200
       180  -9.2134    151.1784     88.5868   7.2746040819e+01   3.4347469920e+01    0.3091266    0.1147319 -41.86 0.0009972764    2.651    0.623
       181  -9.6906    225.7345     87.4149   5.7945243819e+01   1.6732615631e+01    0.4300996    0.2175088 -49.23 0.0009517473    2.054    0.513
       182 -10.4262    223.7314     82.9811   5.7141823380e+01   1.7917589574e+01    0.4442931    0.3173678   4.33  0.002028773    2.058    0.514
       183  -8.6136    197.5959     86.7790   6.2495694982e+01   2.3422210248e+01    0.2222215    0.1346602 -45.91 0.0009440632    1.632    0.387
       184  -8.8655    177.1468     93.1341   6.8227014694e+01   2.7213562544e+01    0.2230513    0.1861544 -68.48 0.0007046809    1.352    0.260
       185  -9.4905    163.6271     86.8153   6.9356383546e+01   3.1695439505e+01    0.2310291     0.141697 -47.21 0.0006917681    1.679    0.404
       186  -9.8727     30.1564     86.8711   1.0947846346e+02   5.5294660824e+01    0.1887281     0.160262 -73.09 0.0006729887    1.155    0.134
       187  -9.1339    206.0607     84.6935   6.0445200962e+01   2.1756585452e+01    0.2751687    0.1910986 -46.61  0.001030078    1.400    0.286
       188  -9.3322    170.6068     83.7895   6.6968629549e+01   3.0556048420e+01    0.2266971    0.1406364 -47.53 0.0009402439    1.663    0.399
       189  -8.7664    200.5308     83.0085   6.0958291672e+01   2.3371843780e+01    0.2297344    0.1416418 -39.73 0.0006160517    1.543    0.352
       190  -8.6861    193.3486     83.1611   6.2293554220e+01   2.5087070796e+01    0.2281288    0.1310249 -45.09 0.0007200461    1.721    0.419
       191  -8.8356    185.6546     83.3056   6.3785118649e+01   2.6943747592e+01    0.1608818    0.1197094 -74.09 0.0007042088    1.693    0.409
       192  -9.5603    159.1340     81.7915   6.8896749768e+01   3.3737925107e+01    0.4086263    0.1993945 -44.62   0.00152107    2.088    0.521
       193 -10.1768    157.7589     75.2499   6.7252456401e+01   3.5281067610e+01    0.5208188    0.1738125 -44.15  0.001596669    3.143    0.682
       194  -9.1069    210.1338     81.1545   5.8830528741e+01   2.1388674312e+01    0.2478265    0.1692253 -61.71 0.0006990955    1.695    0.410
       195  -9.3300    210.7132     76.5146   5.7519682070e+01   2.2022235616e+01    0.3345014    0.2039573 -26.15  0.001459501    1.786    0.440
       196  -9.2688    201.1556     77.9530   5.9490758513e+01   2.4083378075e+01    0.2416413    0.1927696 -59.39 0.0007728899    1.304    0.233
       197  -8.5983    189.0000     77.9555   6.1662256893e+01   2.7059960546e+01    0.2548107   0.08557949 -35.13 0.0007991117    2.919    0.657
       198  -9.1509    174.4251     77.6975   6.4419947319e+01   3.0716867443e+01    0.3142294    0.1409893 -40.89    0.0011424    2.175    0.540
       199  -9.2472    166.7121     77.9883   6.6111164263e+01   3.2576517638e+01    0.2328196    0.1998674 -38.41  0.001158881    1.158    0.137
       200  -9.0614    183.6833     77.1287   6.2431816749e+01   2.8518608533e+01    0.2559381    0.1814587 -52.37  0.001163196    1.479    0.324
       201  -8.7978    223.3230     76.0177   5.5446161322e+01   1.9141341988e+01    0.2113151    0.1727056 -43.71 0.0006588417    1.129    0.114
       202 -11.5815    248.8860    133.0213   6.5083758144e+01   4.3929344653e+00     1.722561     0.459448 -44.52  0.005097398    4.521    0.779
       203  -8.8662    206.4669     73.9621   5.7532135396e+01   2.3461349788e+01     0.230369    0.1399174 -37.01 0.0009943136    1.565    0.361
       204  -9.0539    221.6432     70.8338   5.4376756673e+01   2.0356017269e+01    0.2476892    0.1694871 -67.32  0.001011398    1.703    0.413
       205  -9.4891    218.4763     68.4931   5.4240084262e+01   2.1468226481e+01    0.4113308    0.1537081 -42.03  0.001506889    2.443    0.591
       206  -8.9674    214.3986     70.1242   5.5271510509e+01   2.2178027949e+01    0.2212442    0.1194297 -46.32 0.0007826519    1.792    0.442
       207  -8.9977    170.4100     70.2230   6.3047784239e+01   3.3025312552e+01    0.2258916    0.1383263 -46.10 0.0007081139    1.675    0.403
       208  -9.4639    220.0000     79.8521   5.6921884768e+01   1.9289035239e+01    0.4105025   0.07879901 -34.37  0.001045936    4.885    0.795
       209  -8.9081    193.8276     67.8297   5.7979294936e+01   2.7564112790e+01       0.2178    0.1694147 -59.89 0.0008768337    1.350    0.259
       210  -8.1301    187.2872     68.6427   5.9359006457e+01   2.9061084905e+01    0.1604978    0.1127647 -64.50 0.0007023614    1.678    0.404
       211  -8.6641    182.3593     68.1997   6.0134640970e+01   3.0368853486e+01    0.2281051    0.1313358 -44.67 0.0009451927    1.739    0.425
       212 -11.6350    248.3808    120.5291   6.2347593999e+01   6.5082744969e+00     1.316938    0.4380662 -44.03  0.004644039    3.041    0.671
       213  -9.3969      8.1978     67.3569   1.1342450425e+02   6.1207025197e+01    0.1393562    0.1078232  31.31 0.0004670689    1.638    0.389
       214  -8.6928    212.4742     66.0112   5.4486378309e+01   2.3288356423e+01    0.2250409    0.1361438 -36.91   0.00101901    1.562    0.360
       215  -8.8576    171.3789     64.2004   6.1061828213e+01   3.3796251717e+01     0.227604    0.1341099 -44.96 0.0008639463    1.732    0.423
       216 -11.3995    226.4485     56.4476   5.0077452737e+01   2.1423871657e+01    0.5833741    0.3164442 -50.05   0.00238663    1.793    0.442
       217  -9.5567    226.8613     50.7894   4.8609863941e+01   2.2145775742e+01    0.3459045    0.1441667 -51.63  0.001317192    2.586    0.613
       218  -8.8258    210.4139     71.2619   5.6185054558e+01   2.2949473001e+01    0.2153072    0.1264675 -45.24 0.0006750199    1.632    0.387
       219  -9.5558    158.1358     62.2405   6.3179217816e+01   3.7451495550e+01    0.3043514    0.1873381 -58.11  0.001228479    2.075    0.518
       220  -9.5132    192.5864     55.7602   5.4808121412e+01   2.9773824473e+01    0.3598224    0.1785867 -40.34  0.001280215    1.936    0.484
       221  -8.6230     21.5071     61.4960   1.0692310364e+02   6.1643579276e+01    0.1248942   0.09905253 -47.55 0.0008106377    1.005    0.005
       222 -11.0217    220.9859     59.0002   5.1449049880e+01   2.2329881473e+01    0.3917311    0.1634456 -38.33   0.00155768    2.154    0.536
       223  -8.8945    197.3885     59.2255   5.5000166971e+01   2.8041590383e+01    0.2159663    0.1280188 -44.00 0.0007761663    1.639    0.390
       224 -10.2020    192.5538     59.9649   5.5995999464e+01   2.9135480282e+01    0.4005028    0.2700359 -34.60  0.001881029    1.472    0.320
       225 -10.9121    219.9662     47.7142   4.8699823662e+01   2.4212345591e+01    0.4519343     0.192187 -41.22  0.001853671    2.122    0.529
       226  -9.0756     95.4254     47.2125   7.4384068307e+01   5.4352817052e+01    0.2028399    0.1290329 -44.92 0.0009543244    1.710    0.415
       227  -8.7688    173.4924     40.4641   5.3513256766e+01   3.6845330376e+01    0.1468478    0.1369466 -86.57 0.0008089853    1.053    0.050
       228  -8.5573    179.3335     37.6840   5.1720397597e+01   3.5723864778e+01    0.1540703    0.1058652 -68.33 0.0007047142    1.689    0.408
       229 -10.4264    168.5829     35.9571   5.2970977661e+01   3.8708158646e+01    0.5071412    0.2072968 -27.86  0.001894501    2.629    0.620
       230  -8.4825    144.3319     35.6557   5.7443418181e+01   4.4905729561e+01    0.1522992    0.1106984 -68.25 0.0004197522    1.757    0.431
       231  -9.0408    149.4745     34.0492   5.5864164539e+01   4.3826158726e+01    0.2097048    0.1444207 -27.88 0.0004324018    1.535    0.349
       232  -9.6884    126.5657     31.2478   5.9807990020e+01   4.9828962847e+01    0.5149961    0.2257486 -48.93  0.001813123    3.331    0.700
       233  -9.4053    205.6996    162.4774   7.9341253328e+01   7.7276189322e+00    0.2791278    0.2205444 -63.49  0.001337636    1.724    0.420
       234  -9.7901     30.3333     27.8830   9.2130928465e+01   6.7486874248e+01    0.2548784    0.1688607  -0.13 0.0009509381    1.557    0.358
       235  -8.5836     42.3103     27.6999   8.6552717729e+01   6.6174996854e+01    0.1053915    0.1001402 -66.49 0.0003485575    1.602    0.376
       236  -8.3144      1.3213     31.2995   1.0744141587e+02   6.9013292883e+01    0.1211749   0.06044187 -35.71 0.0003373669    1.624    0.384
       237  -9.0191    172.3053     23.4137   4.8532545968e+01   3.9300420970e+01     0.499302   0.07033741 -32.37  0.001382309    5.027    0.801
       238  -9.1095    136.6956     24.9889   5.5330848248e+01   4.8137687442e+01    0.1934667    0.1726036 -12.90 0.0003690711    1.192    0.161
       239  -8.5548    118.4183     24.4654   5.9217942711e+01   5.2595387034e+01    0.1391011    0.1265896  30.11 0.0001574458    1.013    0.012
       240  -9.0869     84.8514     21.3456   6.7325312646e+01   6.0229111226e+01    0.2207694    0.1696026 -31.34  0.000698044    1.381    0.276
       241 -10.4551    176.9003    243.6825   9.9388186674e+01  -2.9806552902e-01    0.4094711    0.2507527 -15.80  0.002145639    2.568    0.611
       242  -8.9068     23.5130     15.4823   9.0125451549e+01   7.0218281387e+01    0.1189552   0.08955871 -19.38 4.876556e-05    1.014    0.013
       243  -8.9396      8.7371     15.0012   9.7727815347e+01   7.1535124599e+01    0.1422442   0.07756467 -45.03 0.0002654682    1.476    0.323
       244  -8.5827      2.6677     15.6753   1.0131795690e+02   7.1809135545e+01    0.1216631    0.0595777 -29.90 0.0002957218    1.707    0.414
       245  -9.2742     29.8352     12.8728   8.5703494537e+01   6.9957799094e+01    0.1792201    0.1243149 -13.41   0.00030056    1.208    0.172
       246  -8.5256     38.7092     10.6720   8.0330004036e+01   6.9200519588e+01    0.1241577   0.07688291  -5.33 0.0002326066    1.620    0.383
       247 -10.0922    163.6075    246.0021   1.0218644702e+02   1.4763579441e+00    0.2301056    0.1194541 -46.94  0.001249182    2.411    0.585
       248  -9.2182    147.1932    246.9490   1.0537942625e+02   3.9291684468e+00    0.1853054     0.139813  55.34 0.0007021203    1.286    0.223
       249  -9.8230    250.1242    245.5008   8.6616581964e+01  -1.1335518810e+01    0.2017095    0.1357459  -8.52 0.0006189366    1.346    0.257
       250  -9.3175    202.2511    241.5662   9.4396461032e+01  -3.9777103462e+00    0.2642086    0.1622955 -41.28   0.00157174    2.016    0.504
       251  -9.4565    248.4128    240.2453   8.6056476991e+01  -1.0531513491e+01     0.136783   0.09996393 -28.44 0.0007484094    1.587    0.370
       252  -8.6849    239.8954    240.1741   8.7495570014e+01  -9.3521256927e+00    0.1618609    0.1371688  20.87 0.0005723718    1.309    0.236
       253  -9.0362    170.6783    239.6253   9.9989944221e+01   1.2772241893e+00     0.125413   0.08729409   8.86 0.0007029569    1.814    0.449
       254  -9.8399    230.1802    236.5624   8.8600020831e+01  -7.5415558595e+00     0.277979    0.2003909 -50.81  0.001439046    2.359    0.576
