#   1 NUMBER                 Running object number                                     
#   2 MAG_AUTO               Kron-like elliptical aperture magnitude                    [mag]
#   3 X_IMAGE                Object position along x                                    [pixel]
#   4 Y_IMAGE                Object position along y                                    [pixel]
#   5 X_WORLD                Barycenter position along world x axis                     [deg]
#   6 Y_WORLD                Barycenter position along world y axis                     [deg]
#   7 A_WORLD                Profile RMS along major axis (world units)                 [deg]
#   8 B_WORLD                Profile RMS along minor axis (world units)                 [deg]
#   9 THETA_WORLD            Position angle (CCW/world-x)                               [deg]
#  10 FWHM_WORLD             FWHM assuming a gaussian core                              [deg]
#  11 ELONGATION             A_IMAGE/B_IMAGE                                           
#  12 ELLIPTICITY            1 - B_IMAGE/A_IMAGE                                       
         1 -13.5611    167.1410     56.6927   6.5305070912e+01   3.6099681109e+01     2.261368     1.429078  20.16  0.006511291    2.316    0.568
         2 -13.2187    181.4020     41.2905   5.7762077575e+01   3.4681120340e+01    0.9469615    0.8877226 -52.69  0.002862192    1.062    0.058
         3 -13.8901    202.8103      9.6262   4.5136146462e+01   3.2843721392e+01     1.133965     1.051876  -7.81  0.003665901    1.187    0.157
         4 -11.5564    189.8614     14.9172   4.8187765109e+01   3.5667963790e+01    0.3533373    0.3215144 -76.54  0.001089199    1.070    0.066
         5 -12.5574    230.0256      2.5329   4.0753237875e+01   2.6757213662e+01     1.142397    0.5082182  87.30  0.004830895    2.525    0.604
         6 -10.6884     18.7563    214.0719   1.2868651986e+02   2.8712386897e+01    0.1223971   0.09243603  69.27 0.0005074716    1.113    0.102
         7 -13.1435    247.4258    244.8917   9.2170491210e+01  -7.1999289438e+00    0.8888921    0.6779066   7.57  0.007179237    1.180    0.152
         8 -18.0399     46.1013    239.3839   1.2537396239e+02   2.1528797216e+01     6.149134     5.005354  62.82   0.04840308    1.240    0.194
         9 -11.8805    145.9311    183.1549   1.0075560349e+02   1.6932286944e+01    0.3825014    0.2884387  47.02  0.001766473    1.179    0.152
        10 -12.1753    142.9612    173.9674   9.9872767810e+01   1.9116458667e+01    0.6420749    0.3463374 -52.91  0.002695095    2.087    0.521
        11 -10.0494    189.2189    178.3929   9.1332177519e+01   9.9094105150e+00    0.3600937    0.2267067  55.34  0.001318274    1.880    0.468
        12 -10.1238    187.9922    173.5551   9.0671700658e+01   1.0891750341e+01    0.3206083    0.2161204 -52.78  0.001148495    1.923    0.480
        13 -11.9830     12.6913    205.8534   1.2936715139e+02   3.0772433931e+01    0.4515145     0.153653  40.01  0.002606707    2.390    0.582
        14  -8.8422    195.3886    172.7978   8.9113138309e+01   9.6399808073e+00    0.1866101     0.121793 -22.24 0.0009541318    1.748    0.428
        15 -10.9930    193.5958    196.7225   9.3718241264e+01   6.4274044926e+00    0.9930924    0.4756269 -56.07  0.003717591    4.865    0.794
        16 -12.1650    150.9137    196.1600   1.0175991446e+02   1.3852866581e+01    0.4189372    0.2981724  51.35  0.002113249    1.298    0.230
        17  -9.5343    186.8306    165.2268   8.9302042894e+01   1.2450215348e+01    0.2247346    0.1831551 -45.78 0.0007215266    1.401    0.286
        18  -8.7113      8.6936    160.7268   1.2780449253e+02   4.0000768549e+01   0.09792783   0.07565881 -61.11 0.0003518299    1.543    0.352
        19 -11.0692     96.1859    157.1547   1.0757265770e+02   3.0451055380e+01    0.2533815    0.2334055  58.98 0.0003199841    1.112    0.101
        20 -12.1581    100.8610    150.7848   1.0545669043e+02   3.1075502229e+01    0.5799677    0.4264061 -37.00  0.001895012    1.750    0.428
        21  -9.8612    113.1687    151.2653   1.0262124812e+02   2.8907466455e+01    0.2758419    0.1764833 -86.87  0.001236496    2.221    0.550
        22 -10.0902    174.5469    149.1772   8.8520617805e+01   1.7613570551e+01    0.2707288    0.1946169  43.13 0.0007070835    1.321    0.243
        23 -10.4094    143.8329    146.7947   9.4685734901e+01   2.4177891770e+01    0.4048514    0.2055441 -58.27  0.001616442    2.489    0.598
        24 -11.2791    110.7384    137.2958   1.0064185516e+02   3.2345279610e+01    0.5258947    0.3257309 -34.51  0.002330682    2.209    0.547
        25 -11.8301     99.8783    136.5928   1.0322070601e+02   3.4360047153e+01    0.2657205     0.259032  69.93 0.0004835714    1.116    0.104
        26 -11.0741    105.9151    130.7833   1.0057725113e+02   3.4630915664e+01    0.3734683    0.3027276 -77.18   0.00114015    1.267    0.211
        27  -9.9508    136.0000    129.8361   9.2924665285e+01   2.9193355579e+01    0.3928585   0.08338796 -47.41  0.001034394    4.782    0.791
        28 -11.0432    133.8767    145.3749   9.6679651677e+01   2.6379545545e+01      1.12406    0.2961912 -55.35  0.002897406    5.853    0.829
        29 -10.0654    116.9644    128.4458   9.7297663633e+01   3.3162315066e+01     0.284911    0.2337471  -7.74 0.0008233527    1.650    0.394
        30 -10.2306    160.6608    127.6166   8.6716252982e+01   2.4538891431e+01    0.3072847    0.2363065 -62.97  0.001491967    1.548    0.354
        31 -10.4650    105.0725    124.2474   9.9461195166e+01   3.6243550734e+01    0.2746783    0.2326246 -26.76 0.0007029417    1.434    0.303
        32 -11.9943     68.6122    194.3974   1.1806442906e+02   2.6766335716e+01     0.383404    0.3449236  10.38  0.002710051    1.664    0.399
        33  -9.5045    135.0000    119.9404   9.0899808444e+01   3.1479486533e+01    0.2463303   0.08436171 -46.54 0.0007996785    2.923    0.658
        34  -9.4693    111.8740    117.9983   9.6321449175e+01   3.6418360308e+01    0.2136265    0.2065497  79.25 0.0004608103    1.034    0.033
        35  -9.8202    231.2961    113.6624   6.9699082222e+01   1.1695194344e+01    0.2558877    0.2205842   9.05  0.000761523    1.134    0.118
        36 -10.1825    167.9304    113.0849   8.1554330710e+01   2.5758849602e+01     0.373463    0.2811188 -68.17  0.001379243    1.733    0.423
        37 -11.0244    118.6534    110.0136   9.2658594916e+01   3.6898219963e+01    0.5602471    0.3037026  56.38  0.002231357    2.229    0.551
        38  -9.7236    205.6107    110.1140   7.3244677579e+01   1.7797186524e+01     0.274684    0.2114717  36.81 0.0007028806    1.325    0.245
        39 -10.4911     82.0158    195.6960   1.1550844773e+02   2.4726666521e+01    0.3036123    0.2883942 -38.40  0.002195546    1.482    0.325
        40  -9.4202     77.0012    104.5207   1.0303996852e+02   4.5356699815e+01    0.1934402    0.1387554  39.27  0.000349197    1.516    0.340
        41  -9.4084     61.2110    191.2108   1.1925593788e+02   2.8323122494e+01    0.2177952    0.1250908 -72.68 0.0006997393    1.702    0.413
        42  -9.5025    127.7045     95.0399   8.6360066460e+01   3.8287370162e+01    0.2181868     0.191425 -40.48 0.0004956467    1.119    0.106
        43  -9.1604    151.4378     81.7388   7.6587242355e+01   3.5604108653e+01    0.2135398    0.1502286 -24.59 0.0004808767    1.560    0.359
        44 -11.3578    141.6046    188.7580   1.0250626320e+02   1.6699098195e+01    0.2449172    0.2287707  36.65  0.001296748    1.108    0.098
        45 -10.2842     76.9171     74.5863   9.5523639148e+01   5.2250842333e+01    0.4160784    0.1977598  48.18  0.001235019    2.559    0.609
        46  -9.4164    167.7677    229.3464   1.0322853574e+02   6.1738625590e+00    0.1549786    0.1476722  64.74 0.0003435151    1.302    0.232
        47 -19.1356     32.7462    101.8515   1.1586558696e+02   5.1248645520e+01      16.5724    0.8849366 -67.97   0.02832034   14.705    0.932
        48 -12.6592    186.3565     34.2930   5.4762378776e+01   3.4313185673e+01    0.6399783    0.5276854  39.34  0.001628769    1.292    0.226
        49  -9.8058     13.6307     59.9357   1.1504414118e+02   6.2448002614e+01    0.1818152    0.1707731  78.10 0.0004710642    1.268    0.212
        50 -12.1202     72.0966    210.0593   1.1878517480e+02   2.3395168040e+01    0.3866438    0.2893025  21.27 0.0008291124    1.978    0.494
        51 -12.3200    198.9104     23.3523   4.9671747991e+01   3.2365875732e+01    0.6194318    0.3086426  62.23  0.002507481    1.938    0.484
        52 -10.3039    238.4051    185.1932   8.3802361418e+01   4.1370675381e-01    0.1603873    0.1089198 -35.80 0.0005525237    1.697    0.411
        53 -10.5193    153.2763    184.1194   9.9415458291e+01   1.5469098705e+01    0.2322563    0.1834821 -78.27  0.001330961    1.657    0.397
