#   1 NUMBER                 Running object number                                     
#   2 MAG_AUTO               Kron-like elliptical aperture magnitude                    [mag]
#   3 X_IMAGE                Object position along x                                    [pixel]
#   4 Y_IMAGE                Object position along y                                    [pixel]
#   5 X_WORLD                Barycenter position along world x axis                     [deg]
#   6 Y_WORLD                Barycenter position along world y axis                     [deg]
#   7 A_WORLD                Profile RMS along major axis (world units)                 [deg]
#   8 B_WORLD                Profile RMS along minor axis (world units)                 [deg]
#   9 THETA_WORLD            Position angle (CCW/world-x)                               [deg]
#  10 FWHM_WORLD             FWHM assuming a gaussian core                              [deg]
#  11 ELONGATION             A_IMAGE/B_IMAGE                                           
#  12 ELLIPTICITY            1 - B_IMAGE/A_IMAGE                                       
         1 -14.8753    164.2674     42.6907   7.7982551380e+01   3.8957100805e+01     1.458551     1.077911 -13.01   0.00398884    1.383    0.277
         2 -14.7373    178.7655      9.9166   6.4160686743e+01   3.8998548348e+01      1.17057     1.110861  19.59  0.003920933    1.032    0.031
         3 -10.3284     28.7293    241.2471   1.4231683532e+02   2.4560882145e+01   0.09731902   0.06430706  85.53 0.0003806602    1.386    0.278
         4 -19.9291     73.8664    169.0669   1.2934238506e+02   3.1732737910e+01     14.90685     6.493364 -69.29   0.07575571    2.391    0.582
         5 -10.3736    113.3298    195.5874   1.2447255577e+02   2.1639846734e+01    0.3347805    0.2216436  -7.29  0.001561607    3.951    0.747
         6 -11.1098     21.7141    239.7634   1.4330123790e+02   2.5434369363e+01    0.1000878    0.0625093  82.10 0.0006912139    1.372    0.271
         7 -12.6001    151.8571    182.6162   1.1529407318e+02   1.7716879816e+01    0.3046616    0.2385389  78.12  0.001849571    1.716    0.417
         8 -11.4287     36.4809    186.4273   1.3823558621e+02   3.2677702089e+01    0.1804893    0.1678879  31.15 0.0005876547    1.509    0.337
         9 -11.4072     25.8695    184.8605   1.4010549740e+02   3.3971897130e+01     0.145025    0.1144025  71.55  0.000390684    1.080    0.074
        10 -12.0395     30.5801    183.0019   1.3911987586e+02   3.3868964849e+01    0.2197324    0.1678362  33.45 0.0006174806    1.575    0.365
        11 -11.6558    114.8343    178.6593   1.2207014013e+02   2.4272581270e+01    0.6055957    0.2635332  61.45  0.002202435    4.357    0.770
        12 -12.0972      4.5801    178.6497   1.4368906491e+02   3.6902537980e+01    0.2436045    0.2004829  63.94  0.001456521    1.230    0.187
        13 -12.4390    199.1709    178.8857   1.0578156305e+02   1.0157340232e+01    0.4485129    0.3136736 -65.99  0.002227718    3.042    0.671
        14 -13.3038    195.2888    168.7779   1.0466002085e+02   1.2212196982e+01    0.4251872    0.3710603  -9.84 0.0007145997    1.187    0.158
        15 -12.5600    192.9829    164.2621   1.0424201603e+02   1.3266431374e+01    0.4429486    0.2686801  37.27  0.001881015    1.452    0.312
        16 -10.9137    133.8098    245.8851   1.2613838726e+02   1.1624484373e+01   0.09136057    0.0808515 -54.77 0.0002804536    1.541    0.351
        17 -13.9456    137.9517    171.2915   1.1630707711e+02   2.1872163853e+01    0.7783064    0.4797795  54.29  0.003854106    1.656    0.396
        18 -14.3916    144.4821    168.5079   1.1453123483e+02   2.1243849771e+01    0.9236999    0.5393264  66.72  0.004085526    2.856    0.650
        19 -11.9101    125.8384    171.8900   1.1887730221e+02   2.3744359590e+01    0.2678645    0.2310747  86.47  0.001756234    1.274    0.215
        20 -12.1556    164.9342    171.6596   1.1096953151e+02   1.7191693184e+01    0.2595351    0.1997773  83.60  0.001433544    2.024    0.506
        21 -10.8128    131.3109    237.2684   1.2572315932e+02   1.3042483102e+01    0.1083538   0.09250668  89.03 0.0003427658    1.454    0.312
        22 -10.5992     28.4361    179.4904   1.3930590846e+02   3.4713011771e+01    0.1881882    0.1430051  48.40 0.0009778492    1.301    0.232
        23  -9.5894      7.6434    237.5541   1.4529125067e+02   2.7010928577e+01   0.08974749   0.05552666  65.11 0.0002510092    1.083    0.077
        24 -10.7416     25.6668    164.9552   1.3890658953e+02   3.7707350835e+01    0.1936293    0.1526819   1.30  0.001392142    2.096    0.523
        25 -10.3371     25.8758    230.0615   1.4229811517e+02   2.6483901387e+01    0.1880137   0.05272941 -82.79 0.0009927506    3.854    0.741
        26 -11.5793    125.0614    244.1243   1.2738847319e+02   1.3015242684e+01    0.1426664    0.1249735 -71.24 0.0007887051    1.493    0.330
        27 -11.2493    190.1335    158.1018   1.0359401880e+02   1.4686249437e+01    0.3793356    0.1925849  30.82  0.001703195    2.077    0.519
        28 -10.2142     25.4375    224.6299   1.4213976068e+02   2.7355475394e+01    0.1316336    0.0724362 -69.73 0.0007922499    2.021    0.505
        29 -11.7076     22.9302    154.9541   1.3877716023e+02   3.9907009288e+01    0.3469943    0.1861553 -78.17  0.002134932    1.584    0.369
        30  -9.9370    176.9993    155.0052   1.0554191092e+02   1.7612548010e+01    0.1596318    0.1420907  23.56 0.0003230284    1.012    0.011
        31 -13.0391    161.5403    153.3062   1.0833725132e+02   2.0769270578e+01    0.3646076    0.2959315  62.10  0.001513528    1.422    0.297
        32 -12.0656    174.1887    148.5948   1.0483311904e+02   1.9167299387e+01    0.3184302    0.2825186 -59.30  0.001169632    1.401    0.286
        33 -11.9778      5.8115    138.3031   1.4133932895e+02   4.4600092229e+01    0.2965851    0.1902383  65.68  0.001510308    1.344    0.256
        34 -10.8049     11.3644    137.9200   1.4008241067e+02   4.4280911268e+01     0.186226    0.1200095  51.02  0.001299463    1.485    0.327
        35 -10.8142    171.7489    137.7872   1.0308467491e+02   2.1423994137e+01    0.1845502    0.1660496  71.06 0.0008013747    1.353    0.261
        36 -12.7022    160.5575    127.8782   1.0328319935e+02   2.5366631675e+01    0.3932735    0.3259809 -56.51  0.001571339    1.407    0.289
        37 -10.1437     22.4497    221.1400   1.4246454491e+02   2.8176834127e+01    0.1041102   0.07513599 -89.05 0.0003636409    1.343    0.255
        38  -9.8051    139.0514    250.4909   1.2573106064e+02   1.0367462367e+01    0.1458498    0.0748421  40.08 0.0006228006    1.431    0.301
        39 -11.0022    112.0454    214.3000   1.2674445069e+02   1.8893949962e+01     0.153368    0.1196348  65.00 0.0005484425    1.214    0.176
        40 -13.1102    108.1751    208.3285   1.2682931659e+02   2.0340308111e+01    0.3858705    0.2701201  83.13  0.002605074    1.682    0.405
        41 -11.1073    167.6544    112.6580   9.8152049317e+01   2.6600516872e+01    0.2897733    0.2207383 -83.38  0.001328909    2.092    0.522
        42 -10.2729    130.7265    213.5670   1.2333302782e+02   1.6351223205e+01     0.153049    0.1147423  80.75 0.0006653309    1.678    0.404
        43 -10.8358    205.3591    110.2392   9.0002829088e+01   1.8850064215e+01    0.3018974    0.1931274  40.99 0.0009256363    1.518    0.341
        44 -10.3228    116.5577    213.3647   1.2584291775e+02   1.8406111042e+01    0.1350063    0.1073278 -72.36 0.0001911759    1.498    0.332
        45 -10.8492     10.5003    101.8355   1.3727732112e+02   5.2054712464e+01    0.2200948    0.1438037  69.39  0.001069645    1.497    0.332
        46  -9.7344    115.7451    210.2554   1.2566005523e+02   1.8988174764e+01    0.1395531    0.1016749  41.38 0.0004441209    1.180    0.152
        47 -10.3913    108.9996    240.5393   1.2968235026e+02   1.5588806250e+01    0.1509865    0.1303522 -22.48  0.001243287    1.822    0.451
        48 -13.1444     11.8519    205.8062   1.4355305808e+02   3.1593610576e+01    0.3482828    0.2470106  25.21  0.002812794    1.983    0.496
        49 -10.2593    153.4818    202.0961   1.1778843851e+02   1.4552054271e+01    0.1523299    0.1184638 -50.52  0.001008861    1.596    0.373
        50 -14.4358    152.7964     57.3406   8.5400721745e+01   3.9605313436e+01     1.361198     1.106126  22.17  0.001021468    1.280    0.219
        51 -10.2617    139.6311    200.3966   1.2011733065e+02   1.6954035439e+01    0.2519223    0.1411282  37.80   0.00100005    1.535    0.349
        52 -13.0773    168.4004     34.6474   7.4410837979e+01   3.8972223138e+01     0.505892    0.3943046 -11.35 0.0009171669    1.290    0.225
        53 -11.1037     13.4880     59.9441   1.3064547309e+02   6.1257874522e+01    0.1857488    0.1529416  65.55 0.0004217733    1.424    0.298
        54 -10.3765    141.8929     32.9208   7.9107800971e+01   4.5962068619e+01    0.2272951    0.1826658 -67.44 0.0005257525    1.603    0.376
