#   1 NUMBER                 Running object number                                     
#   2 MAG_AUTO               Kron-like elliptical aperture magnitude                    [mag]
#   3 X_IMAGE                Object position along x                                    [pixel]
#   4 Y_IMAGE                Object position along y                                    [pixel]
#   5 X_WORLD                Barycenter position along world x axis                     [deg]
#   6 Y_WORLD                Barycenter position along world y axis                     [deg]
#   7 A_WORLD                Profile RMS along major axis (world units)                 [deg]
#   8 B_WORLD                Profile RMS along minor axis (world units)                 [deg]
#   9 THETA_WORLD            Position angle (CCW/world-x)                               [deg]
#  10 FWHM_WORLD             FWHM assuming a gaussian core                              [deg]
#  11 ELONGATION             A_IMAGE/B_IMAGE                                           
#  12 ELLIPTICITY            1 - B_IMAGE/A_IMAGE                                       
         1 -11.5379    179.9136     26.6866   7.4872535822e+01   3.6733067135e+01    0.7053143    0.5032554  30.57  0.002724347    1.548    0.354
         2 -12.1896    187.6413     20.7203   7.1766310946e+01   3.5377498824e+01     1.240717    0.8932492 -20.48  0.006058292    1.381    0.276
         3 -11.0666    194.0468     10.8512   6.7708811666e+01   3.4715278823e+01    0.7349799    0.4294723  30.61   0.00106756    2.057    0.514
         4 -11.3433    199.3965      3.3984   6.4707567849e+01   3.4006215251e+01    0.8046219    0.5245525  73.41  0.003067398    1.547    0.354
         5  -8.8254    119.0095    226.0000   1.2891535964e+02   1.7207123118e+01    0.1783817   0.04541154  43.21 0.0008083769    2.984    0.665
         6 -10.9227    139.8692    248.8484   1.2779466596e+02   1.1510457060e+01    0.2985084    0.2213935  66.09  0.002508561    1.383    0.277
         7  -9.3298    100.6801    249.6774   1.3366475011e+02   1.6610764845e+01    0.1819421    0.1308665  48.02  0.001094639    1.201    0.168
         8 -10.0914     97.6054    248.2008   1.3401327349e+02   1.7184330681e+01    0.1992372    0.1718781  57.57  0.001331571    1.332    0.250
         9 -11.1380    101.0785    245.3879   1.3329423538e+02   1.7096231334e+01     0.318252    0.2299009  76.21 0.0005837413    1.372    0.271
        10 -19.2952      9.0791    127.9777   1.4109382000e+02   4.7256505913e+01     15.18751     1.431406 -76.66   0.03919173    9.677    0.897
        11 -10.6265    105.6329    245.8044   1.3264516562e+02   1.6456773150e+01    0.2489394    0.1662621  64.62 0.0006793647    1.286    0.223
        12  -8.6161    127.6703    224.6936   1.2740704250e+02   1.6153930520e+01   0.09679174   0.07377329  27.15 0.0004613342    1.658    0.397
        13  -8.7162    228.0073    204.3712   1.0896097458e+02   3.0035036946e+00    0.1612608    0.1506507 -32.13  0.000675643    1.532    0.347
        14 -10.4244     79.4884    191.2159   1.3237394321e+02   2.7816492316e+01    0.3284817    0.2228098 -48.96  0.002202225    2.143    0.533
        15 -10.2787     83.1119    184.9129   1.3111569458e+02   2.8395308108e+01    0.2453055    0.2007414 -61.77  0.000814175    1.507    0.337
        16  -9.6652    114.4968    171.8330   1.2370234936e+02   2.6065374219e+01    0.3901903    0.1858134 -69.02  0.001853168    2.909    0.656
        17  -9.6225     90.4476    173.4796   1.2852465834e+02   2.9361841577e+01    0.1919216     0.176073  68.14 0.0003963088    1.224    0.183
        18 -11.6446     79.2380    169.7440   1.3028062606e+02   3.1571762192e+01    0.4826981    0.3144434 -38.97  0.002230179    2.707    0.631
        19 -10.6706     95.9510    166.2143   1.2658942644e+02   2.9859980499e+01    0.5445437    0.4318437 -79.95  0.001666647    1.255    0.203
        20  -8.7901     74.0000    164.5071   1.3074501186e+02   3.3223855340e+01    0.3470732    0.0598603 -64.25  0.001147887    5.851    0.829
        21 -11.7167     73.0751    154.1764   1.2976647690e+02   3.5287748972e+01    0.9618255    0.4101026  70.24  0.003624846    4.382    0.772
        22 -12.5004     67.9891    143.8333   1.2960120239e+02   3.7964684761e+01    0.7342062    0.6210775 -88.06  0.005195377    1.096    0.088
        23  -9.0661    106.9046    147.7851   1.2181058633e+02   3.1562550691e+01    0.3894078    0.2315078 -36.80  0.001903059    2.659    0.624
        24 -10.6353     95.5457    148.2301   1.2427156789e+02   3.3244398297e+01    0.2501465    0.2240232  45.51 0.0004373845    1.263    0.208
        25 -10.2312    115.0314    247.7813   1.3139716444e+02   1.4984782415e+01    0.3253236    0.1256964 -55.34  0.002033955    3.490    0.713
        26  -7.8550     83.3006    141.2988   1.2592252776e+02   3.6386311093e+01    0.1077172   0.09631626 -30.63 0.0003019416    1.580    0.367
        27 -12.5463     58.2445    130.2384   1.3006703415e+02   4.1929281879e+01     1.047954    0.3448332 -71.01  0.004310471    3.215    0.689
        28  -8.5889    114.5404    135.4222   1.1815543984e+02   3.2640669198e+01    0.2440375    0.1234059 -53.04  0.001168377    2.042    0.510
        29 -12.0971     44.5238    131.8117   1.3341156607e+02   4.3182081756e+01    0.5246333    0.2090473 -72.96  0.002617677    2.275    0.560
        30  -8.1680    110.1252    122.3493   1.1675313724e+02   3.5935962690e+01    0.1764968    0.1572139  66.80 0.0004762153    1.063    0.059
        31  -8.3638    168.3278    113.3084   1.0224147337e+02   2.6260334974e+01    0.2670064     0.160867 -59.81  0.001136784    2.349    0.574
        32 -11.8762     50.4776    154.3906   1.3447058616e+02   3.8026798309e+01    0.4426803     0.231048 -60.04  0.002634103    1.998    0.500
        33  -9.1205    102.6842    131.9166   1.2016443962e+02   3.5287983488e+01    0.2478014    0.2150351 -10.21 0.0007183056    1.670    0.401
        34  -7.7116     67.3113    104.3270   1.2388114547e+02   4.6234740407e+01    0.1215977   0.09362736 -37.34 0.0007041068    1.663    0.399
        35  -7.8469     89.3273    234.3096   1.3426430041e+02   2.0046791567e+01    0.0850141   0.07156029  32.45   0.00070398    1.660    0.398
        36  -7.9943    164.3100     47.6621   8.4570274405e+01   3.7965299505e+01    0.1583536    0.1142831 -61.61 0.0003326553    1.685    0.407
        37  -8.2966    234.6704    249.6880   1.1418896534e+02  -1.8273752701e+00    0.1021732   0.05414308  24.48 0.0002350002    1.670    0.401
        38  -9.9973    163.1371    247.7768   1.2424466570e+02   8.3803909142e+00    0.2320335     0.155637 -39.16   0.00183122    2.153    0.536
        39  -8.8860    156.3237    228.3298   1.2324647432e+02   1.1518961676e+01    0.1016003   0.07130226  24.61   0.00042452    1.699    0.411
        40 -10.4696    127.1433    248.8586   1.2968481080e+02   1.3241793896e+01    0.2588374    0.1927439 -49.12  0.001949718    1.969    0.492
