#   1 NUMBER                 Running object number                                     
#   2 MAG_AUTO               Kron-like elliptical aperture magnitude                    [mag]
#   3 X_IMAGE                Object position along x                                    [pixel]
#   4 Y_IMAGE                Object position along y                                    [pixel]
#   5 X_WORLD                Barycenter position along world x axis                     [deg]
#   6 Y_WORLD                Barycenter position along world y axis                     [deg]
#   7 A_WORLD                Profile RMS along major axis (world units)                 [deg]
#   8 B_WORLD                Profile RMS along minor axis (world units)                 [deg]
#   9 THETA_WORLD            Position angle (CCW/world-x)                               [deg]
#  10 FWHM_WORLD             FWHM assuming a gaussian core                              [deg]
#  11 ELONGATION             A_IMAGE/B_IMAGE                                           
#  12 ELLIPTICITY            1 - B_IMAGE/A_IMAGE                                       
         1 -14.7360    213.8242      6.1945   4.1803764140e+01   3.0384434114e+01     3.438151     1.885527  39.82    0.0155293    2.416    0.586
         2 -14.2432    190.1745     36.5381   5.3224652514e+01   3.2920692370e+01     1.230739    0.9370812  36.93  0.004725437    1.462    0.316
         3 -13.5780    194.8781     30.4404   5.0742992035e+01   3.2478916832e+01    0.7377025    0.6469013  62.63  0.001159845    1.122    0.109
         4 -13.8485    175.6901     50.1207   5.9788766051e+01   3.4791297265e+01     1.790417     1.262033  34.50 0.0008397853    1.600    0.375
         5 -11.9406     59.7408      3.4549   7.1224286759e+01   6.6785938951e+01    0.4689603    0.1726743  30.08  0.001817713    3.489    0.713
         6 -11.1827     45.1461      2.3315   7.6531097444e+01   6.9180401265e+01    0.2356956   0.09119323  33.89  0.001100214    2.628    0.619
         7 -13.1517     59.9797    201.7650   1.2042493624e+02   2.5734036530e+01    0.5524976    0.2961258 -68.86  0.002083756    1.791    0.442
         8 -12.8692    248.0156    247.7366   9.1735686163e+01  -1.0624108752e+01    0.6275575     0.443954  -0.87  0.004564643    1.277    0.217
         9 -17.7412     40.5130    246.2501   1.2709401903e+02   1.9926513609e+01     7.954478     4.737248  30.84   0.05171897    2.404    0.584
        10 -10.0172     36.7441    206.6001   1.2518606654e+02   2.7546030100e+01    0.1939077   0.06737201  49.35 0.0009850075    2.344    0.573
        11 -11.8267     58.4366    214.9105   1.2187028491e+02   2.3367935487e+01    0.2712941    0.1681409  58.60  0.001282459    1.317    0.241
        12 -11.7894     96.6396    200.7576   1.1304793405e+02   2.0787458333e+01    0.4706866    0.3334414 -35.71   0.00129289    2.209    0.547
        13  -9.8041     55.6347    211.2498   1.2208088571e+02   2.4419217893e+01    0.1738481    0.1162885  65.37  0.001143626    1.212    0.175
        14 -12.2310    152.9435    198.5193   1.0124207078e+02   1.1715384498e+01    0.4915634    0.2618502 -53.73  0.002330616    2.219    0.549
        15 -10.0634    159.7172    196.9344   9.9609108620e+01   1.0765885557e+01    0.1751167    0.1699591  59.38 0.0004157147    1.115    0.103
        16 -10.6935     80.3950    194.6819   1.1563254658e+02   2.4409458418e+01     0.360817    0.2047428  53.69  0.001535866    1.583    0.368
        17 -11.6551    193.1876    195.1076   9.2639200258e+01   4.9142287874e+00     1.121206    0.5512527 -60.15  0.003340383    6.503    0.846
        18 -10.9847     97.6004    193.0677   1.1188672249e+02   2.2172375214e+01    0.3221956    0.2758602 -12.22   0.00194027    1.789    0.441
        19 -12.2456    141.6051    188.9453   1.0202856270e+02   1.5529884884e+01    0.4008794    0.2440392 -48.44  0.002004311    1.815    0.449
        20 -11.3896    153.9095    185.6880   9.8892238250e+01   1.3875143426e+01    0.3473419    0.2304403 -65.90  0.001258746    1.994    0.498
        21 -10.5504     99.8656    186.7837   1.1057361940e+02   2.3100802363e+01    0.2576268    0.1582261  84.52  0.001240324    2.093    0.522
        22 -12.8374    202.2422    200.6780   9.1911715084e+01   2.4189310290e+00    0.7884689    0.3906363  23.85  0.003250611    2.736    0.635
        23 -11.3610     99.3514    180.9736   1.0987344347e+02   2.4393566141e+01    0.2616735    0.2446423  63.27 0.0005743908    1.139    0.122
        24 -10.6607    204.4957    176.2922   8.6830569832e+01   5.8217291701e+00    0.4137188    0.2669475 -45.76  0.001756993    1.795    0.443
        25  -9.7944     72.1259    230.9782   1.2075185347e+02   1.8641263364e+01    0.1632321    0.1100698  66.15 0.0004837379    1.196    0.164
        26 -19.2260     14.5363    102.9137   1.1986991401e+02   5.2358991924e+01     16.68311     2.159604 -70.42   0.04327206    6.904    0.855
        27  -9.8981    162.3537    167.6570   9.3735925597e+01   1.5674412187e+01    0.2337211    0.2115185  79.64  0.001301931    1.247    0.198
        28 -13.1523     50.1884    208.0348   1.2282503283e+02   2.5709137897e+01    0.4019202     0.222638  62.59  0.001825967    1.548    0.354
        29 -10.9106     40.4750    212.7032   1.2495201522e+02   2.5946371749e+01    0.3750492    0.1649168  38.08  0.001663547    2.271    0.560
        30 -12.5917     96.7784    153.0840   1.0608891434e+02   3.0927839764e+01    0.6173964    0.4950064 -23.51  0.003277405    1.737    0.424
        31 -10.5550    187.8764    154.5624   8.5579811185e+01   1.2935309225e+01    0.5204048       0.2168  36.97  0.001852307    2.653    0.623
        32 -10.2282    113.4756    151.4800   1.0176353551e+02   2.8437806701e+01    0.3303961     0.209047  80.13  0.001351575    2.413    0.586
        33 -11.7054    133.9728    145.7187   9.5685172126e+01   2.5854771797e+01     1.255948    0.3219198 -54.57  0.003092366    5.645    0.823
        34 -10.6225    174.3212    148.6823   8.7140129767e+01   1.6904171998e+01    0.3545797    0.2795832 -74.23  0.001341998    1.698    0.411
        35 -11.6667     44.5088    210.5298   1.2406423847e+02   2.5898458349e+01    0.2377576    0.1252934  56.81  0.001442814    1.572    0.364
        36 -11.2257    144.0939    146.6274   9.3490180341e+01   2.3633094227e+01     0.477174    0.2388596 -59.28  0.001757114    2.606    0.616
        37 -11.6463    108.0186    139.0992   1.0068765973e+02   3.2212470094e+01    0.5256242    0.3320031 -38.25  0.002164063    1.881    0.469
        38  -9.7106    112.6229    141.2814   9.9975238001e+01   3.0889871633e+01    0.1528516    0.1097336  74.22 0.0007011017    1.712    0.416
        39 -12.4206     96.2361    138.6915   1.0359783681e+02   3.4323887609e+01     0.285004    0.2674563  62.86  0.000409593    1.098    0.090
        40 -11.3761    106.0397    130.8331   9.9476131755e+01   3.4464725940e+01    0.3935792    0.3260147 -76.90  0.001224645    1.246    0.198
        41 -11.1637    102.8030    125.6437   9.9203010944e+01   3.6236879983e+01    0.2917303    0.2547663  -7.24 0.0007885873    1.421    0.296
        42 -11.1910    135.8323    127.9860   9.1258931614e+01   2.9363330929e+01    0.6463912    0.1955692 -51.41  0.001858008    3.736    0.732
        43 -10.2116    160.5683    127.7233   8.5290998250e+01   2.4109053065e+01    0.3840082    0.2573285 -60.48  0.001630012    1.838    0.456
        44 -11.0732    120.6782    123.0474   9.3919719872e+01   3.3514423090e+01     0.532519     0.314307 -21.46  0.001820258    3.345    0.701
        45 -11.0391    115.0733    129.7481   9.6904529961e+01   3.3065415994e+01    0.3327225    0.2891638  -7.41 0.0007356815    1.421    0.296
        46  -9.5532    152.6820    120.0015   8.5202305174e+01   2.7467650671e+01    0.2224462    0.2002024 -40.72 0.0004841716    1.102    0.093
        47 -10.0598    110.1622    118.9242   9.5710138372e+01   3.6457993939e+01     0.218508    0.2022977 -58.11 0.0003520008    1.029    0.028
        48 -10.2258    168.1042    112.9831   7.9812105571e+01   2.5407562688e+01    0.3780988    0.2683072 -66.17  0.001599398    1.873    0.466
        49 -11.6425    119.0761    109.9484   9.1103076934e+01   3.6777823808e+01    0.5787516    0.4618063  56.78  0.002864904    1.358    0.264
        50 -10.3007    205.5287    110.1865   7.1342019969e+01   1.7197061002e+01    0.3272275    0.2163499  40.73 0.0008808018    1.589    0.371
        51 -10.1114    134.6454    105.9894   8.5973167558e+01   3.4414595656e+01    0.3654002    0.1445981 -43.83  0.001237052    2.465    0.594
        52  -8.9508    167.3205     94.6575   7.4950983310e+01   2.9209532238e+01    0.1648486    0.1258181 -73.33 0.0007049981    1.723    0.420
        53 -11.3565     53.4700     90.8416   1.0572099565e+02   5.1628141815e+01    0.2653779    0.1918449 -32.86  0.001105025    1.490    0.329
        54 -10.3318    187.7292     87.4433   6.8622960113e+01   2.5555019814e+01    0.3966819    0.2925558  86.56  0.001728229    1.835    0.455
        55  -8.9510    154.2894     81.2786   7.3976639962e+01   3.4922993663e+01    0.1555857    0.1229817  12.83 0.0002337185    1.522    0.343
        56 -10.2593     70.3384     72.1995   9.5197853836e+01   5.3602465634e+01    0.2185226    0.1932722  41.23 0.0003961152    1.308    0.236
        57 -12.5172    163.7952     64.4769   6.6643784264e+01   3.5570887217e+01     0.902878    0.7006202 -42.00 0.0005391827    1.296    0.229
        58 -10.3504     32.5446    211.7258   1.2629473245e+02   2.7017206975e+01    0.1212118   0.07864459  75.15   0.00021684    1.194    0.163
        59 -11.6658     69.7247    208.8532   1.1921980901e+02   2.3064631207e+01    0.2284374    0.1794385 -85.09 0.0003848098    1.207    0.171
        60 -11.1678     73.9139    207.4287   1.1827782862e+02   2.2774518744e+01    0.3052742    0.2547891 -56.96  0.002083642    1.524    0.344
        61 -11.3019    158.4330    236.9059   1.0576459065e+02   4.5672853927e+00    0.3098975    0.2202325 -49.85  0.001985586    1.765    0.433
        62  -9.7368    168.9933    235.0232   1.0358647656e+02   3.1086192690e+00    0.1762279    0.1464047  36.42 0.0003909829    1.041    0.040
