#   1 NUMBER                 Running object number                                     
#   2 MAG_AUTO               Kron-like elliptical aperture magnitude                    [mag]
#   3 X_IMAGE                Object position along x                                    [pixel]
#   4 Y_IMAGE                Object position along y                                    [pixel]
#   5 X_WORLD                Barycenter position along world x axis                     [deg]
#   6 Y_WORLD                Barycenter position along world y axis                     [deg]
#   7 A_WORLD                Profile RMS along major axis (world units)                 [deg]
#   8 B_WORLD                Profile RMS along minor axis (world units)                 [deg]
#   9 THETA_WORLD            Position angle (CCW/world-x)                               [deg]
#  10 FWHM_WORLD             FWHM assuming a gaussian core                              [deg]
#  11 ELONGATION             A_IMAGE/B_IMAGE                                           
#  12 ELLIPTICITY            1 - B_IMAGE/A_IMAGE                                       
         1 -14.7678     68.4339    144.3715   1.0412912248e+02   3.7382505123e+01      5.38039     2.722977  63.10  0.008218715    3.736    0.732
         2 -14.3801    217.6111     24.7929   3.9779468824e+01   2.8310031919e+01     1.305905     1.004453  22.54  0.008062468    2.010    0.502
         3 -14.5112    204.1129     38.1293   4.4090059509e+01   2.9626830488e+01     1.942587     1.390375  34.24  0.008412883    1.956    0.489
         4 -12.2137    244.2512      2.8656   3.3544945072e+01   2.5358058035e+01     0.442687    0.2727886  65.66  0.002433108    1.835    0.455
         5 -11.9077    239.9833      2.2388   3.3644029943e+01   2.6214594949e+01    0.3758368     0.172454  76.32   0.00151684    2.122    0.529
         6 -10.2996     52.9791      4.5025   6.3056347332e+01   6.8451339950e+01    0.1988897    0.1084491  48.03 0.0005690148    1.586    0.370
         7 -10.3312     56.8371      1.7096   6.0016255370e+01   6.7930074300e+01    0.2066498    0.1656575  65.57 0.0009973821    1.521    0.343
         8 -10.1909     47.8942      2.2098   6.3928167956e+01   6.9661855320e+01    0.1793668    0.1550974  35.52 0.0004499012    1.206    0.170
         9 -10.8570     61.0254    198.4144   1.1390220435e+02   2.5059816250e+01    0.2764586    0.2467146 -28.17 0.0007824903    1.300    0.231
        10 -10.8221    139.5087    249.2432   1.0151115021e+02   4.5486656731e+00    0.2257103     0.200151 -56.17  0.001534205    1.530    0.347
        11 -14.6740      5.5564    188.2567   1.2712711965e+02   3.2877367877e+01     2.966115     1.343528 -54.04  0.007590979    2.425    0.588
        12 -14.1683     22.7086    224.0942   1.2520288754e+02   2.3514960726e+01     1.348137    0.5096074  66.26  0.004256533    3.094    0.677
        13 -15.2491      9.5299    207.3194   1.2723233530e+02   2.8266533193e+01     2.425655     1.286442 -39.12   0.00611595    2.891    0.654
        14 -13.5812     37.9211    203.1922   1.2019907984e+02   2.6559859957e+01    0.6756734    0.5676112 -21.82  0.001458874    1.508    0.337
        15 -15.0797     47.8885    192.8347   1.1672406318e+02   2.7880195617e+01     2.453099     1.620645  75.08   0.01031231    1.645    0.392
        16 -16.8179      8.3732    240.4279   1.2901624935e+02   2.1534657397e+01     8.990597     5.545542 -80.18   0.05937302    1.648    0.393
        17  -8.7756    128.6493    195.3431   9.6095954955e+01   1.6078220777e+01    0.1463995     0.109524  61.83 0.0007042349    1.807    0.447
        18  -9.8878     65.7467    192.8673   1.1203476481e+02   2.5759291677e+01    0.3521619    0.2122122  86.49  0.001602244    2.172    0.540
        19  -9.4331     72.1122    188.4717   1.0978983115e+02   2.5969757266e+01    0.2012474    0.1833471 -77.99 0.0004972586    1.144    0.126
        20 -15.9391     42.9223    249.5761   1.2241626341e+02   1.6441171520e+01     11.43972     3.258721  19.50   0.02219385   16.255    0.938
        21  -8.6242     77.2877    185.6585   1.0801387107e+02   2.5939501018e+01    0.1466897    0.1030025  64.09 0.0004566982    1.643    0.391
        22  -9.3312     80.0915    183.5096   1.0694791747e+02   2.6061183388e+01    0.2147203    0.1330411  31.76 0.0005830045    1.519    0.342
        23 -10.6801    150.5347    179.0130   8.7781211825e+01   1.5839213547e+01    0.4157379    0.2743879 -68.86  0.001739592    2.617    0.618
        24  -9.7806     99.2620    180.8028   1.0130471894e+02   2.3888558894e+01     0.245415    0.2282021  33.53 0.0006752994    1.035    0.033
        25  -8.6402     90.6872    181.6974   1.0378078713e+02   2.4970478998e+01    0.1461186    0.1103432 -17.01 0.0003002259    1.613    0.380
        26 -10.7418    144.1370    178.5770   8.9249285170e+01   1.7018760666e+01    0.3065274     0.263141   9.26  0.001086409    1.085    0.078
        27 -12.0880     64.5227    176.4313   1.1029083160e+02   2.9838299831e+01    0.4393915    0.2901707 -33.13   0.00139667    1.876    0.467
        28 -12.2087     69.2815    171.3202   1.0822350499e+02   3.0475007783e+01    0.4581736    0.3490788  23.79  0.001521623    1.334    0.251
        29  -9.8257    197.0147    176.2276   7.6996802002e+01   8.6254938414e+00    0.2486305    0.1887659 -27.19  0.001397002    1.197    0.164
        30  -9.6200    203.9933    175.7096   7.5523126511e+01   7.6141373662e+00    0.1927088    0.1617662   0.68  0.001154908    1.065    0.061
        31 -12.9694     85.8224    155.1610   1.0070378316e+02   3.2121956250e+01     1.752656    0.9171726 -62.44  0.005166305    2.076    0.518
        32 -12.5794     78.6501    161.7862   1.0400222635e+02   3.1541690111e+01    0.6722903     0.568143  48.91 0.0004918042    1.200    0.167
        33 -13.6097     66.0829    157.7859   1.0712090655e+02   3.4280916764e+01    0.5978498    0.4582604 -40.93  0.001307014    1.376    0.273
        34 -13.9247     58.3329    242.0689   1.1859600810e+02   1.6166957360e+01     0.767818    0.5046384  57.62  0.004019879    1.440    0.306
        35  -9.6274    187.4918    151.4841   7.3765838928e+01   1.4709852573e+01    0.1444909    0.1287322 -12.64 3.759735e-05    1.013    0.013
        36 -10.7672    134.0000    146.4980   8.5171662073e+01   2.5785323279e+01    0.7809339    0.2080644 -49.93  0.002137219    4.144    0.759
        37 -10.6759    133.0000    140.5178   8.4073743996e+01   2.7309664527e+01    0.5674139    0.2100053 -49.72  0.001845734    2.877    0.652
        38 -10.4916    174.3729    148.5945   7.5903221875e+01   1.7664378398e+01    0.3342275    0.2943359 -70.06  0.001618688    1.498    0.332
        39 -10.0961    230.2386    165.9843   6.8848771750e+01   5.2314544560e+00    0.1744831   0.09257437 -34.99  0.000701411    1.615    0.381
        40  -8.8757     35.6811    144.7302   1.1470975291e+02   4.1125472559e+01    0.1403235   0.09994309 -34.44 0.0001374037    1.561    0.360
        41 -10.6410     27.9793    144.2901   1.1710741015e+02   4.1943777934e+01    0.1869903    0.1809495  45.19 0.0008279691    1.106    0.096
        42 -10.8156    100.5650    140.2120   9.3252114475e+01   3.3391046490e+01    0.6104497    0.3746611 -18.01  0.002266287    2.538    0.606
        43 -12.3222     87.5771    140.2113   9.7251930139e+01   3.5570655607e+01    0.3164966    0.2735072 -38.56 0.0004226303    1.157    0.136
        44 -10.0837     36.1453    161.9471   1.1667801035e+02   3.6666841434e+01    0.2457387    0.1926059  13.31   0.00135821    1.431    0.301
        45  -9.1902     28.7265    136.0798   1.1583018954e+02   4.4007943519e+01    0.1933958    0.1636731 -66.47 0.0002790257    1.081    0.075
        46 -10.4718    105.9883    131.1656   8.9563905308e+01   3.4600596761e+01    0.3874545    0.3330413 -58.76  0.001688677    1.252    0.201
        47 -10.3398    110.1649    130.6143   8.8181277364e+01   3.3955869247e+01    0.3564857    0.2631135  14.02  0.000836323    1.551    0.355
        48 -10.9554    135.6736    128.4271   8.0472424042e+01   2.9453001342e+01    0.5866792    0.1749647 -45.47  0.001734137    3.354    0.702
        49 -11.3813     32.4455    155.5964   1.1705552116e+02   3.8635864397e+01    0.3797164    0.2735502 -76.75  0.001541152    1.314    0.239
        50 -11.4559     47.3796    124.8700   1.0768120108e+02   4.5078537818e+01    0.2759606    0.2164044   2.69  0.001081569    1.419    0.295
        51 -10.0316    160.4714    127.3389   7.4067914336e+01   2.4612183797e+01    0.3098083    0.2208923 -71.85  0.001307958    2.217    0.549
        52 -11.1363     97.2720    126.8197   9.1227873408e+01   3.7224190469e+01    0.3210227    0.2602511 -14.07 0.0003953785    1.369    0.270
        53  -9.2897    116.4978    124.5213   8.4830869594e+01   3.4160974693e+01    0.1612785    0.1480762  -4.18 0.0001227898    1.082    0.076
        54  -9.5531    135.0000    119.9623   7.8520683469e+01   3.1430210457e+01    0.2593761   0.08848099 -44.29 0.0007998064    2.924    0.658
        55  -9.9662    106.9885    119.1525   8.6320503989e+01   3.7250302706e+01    0.2284705     0.214166   4.33 0.0003505544    1.039    0.038
        56 -11.0483     21.9926    118.7041   1.1576522117e+02   4.9073025542e+01    0.3980356    0.1388156  42.48  0.001435982    3.324    0.699
        57 -11.8110     54.2096    147.0196   1.0911895846e+02   3.8531446067e+01    0.6557995    0.2612945 -61.81  0.002487497    2.330    0.571
        58 -12.0056     17.6702    111.1493   1.1625588915e+02   5.1337744335e+01    0.7446837    0.1782081 -60.74  0.002599824    2.937    0.659
        59 -10.6746    134.7838    112.5561   7.6643060914e+01   3.3058483701e+01     0.436653    0.1261523 -43.53  0.001260773    3.455    0.711
        60  -9.3522    168.0512    112.9945   6.8812170822e+01   2.5848828821e+01    0.2391462    0.1889394 -79.13  0.001132183    1.758    0.431
        61 -10.4385     39.9387    113.0791   1.0820714906e+02   4.8938829834e+01    0.2159643    0.2040469 -54.93 0.0004438551    1.040    0.038
        62 -10.1138    205.5053    110.1325   6.1024751890e+01   1.8712364499e+01    0.2678673    0.1999903  37.12  0.000861503    1.498    0.333
        63 -10.5424     33.0982    109.0820   1.1005645385e+02   5.0637435232e+01    0.2495998    0.2033521 -80.79  0.000658967    1.291    0.226
        64  -9.5906     22.2128    114.3618   1.1504426047e+02   5.0182144681e+01     0.181961    0.1228013  32.00 0.0002657261    1.610    0.379
        65 -11.5466    245.9004    108.8004   5.4851613948e+01   1.1679469440e+01    0.2461306    0.1631835 -44.26  0.001454346    1.321    0.243
        66  -9.5640     45.0773    105.0634   1.0462017170e+02   5.0439067876e+01    0.2242781    0.1704868  62.36  0.000645026    1.646    0.392
        67 -10.6692     38.6448    101.5830   1.0640868151e+02   5.2015554258e+01    0.3964204    0.1893318  43.48  0.001358485    2.513    0.602
        68 -11.7138    241.3631     99.9006   5.3572242610e+01   1.3765298146e+01    0.3473534    0.1260986 -37.97  0.001147293    2.237    0.553
        69  -9.7054     32.9258     96.8998   1.0773396740e+02   5.3760643345e+01    0.2233223    0.1658957  62.20  0.001126728    1.714    0.417
        70 -10.0427     10.9435     92.7311   1.1605197943e+02   5.6451629661e+01    0.2225585    0.1716255  36.55 0.0007407476    1.500    0.334
        71  -9.8556     41.6987     91.8781   1.0297318950e+02   5.4119256749e+01    0.2322925    0.1859432  -9.57 0.0004426167    1.284    0.221
        72 -10.2717     53.0320     90.6572   9.7985538975e+01   5.3043021246e+01    0.3019634    0.1993967 -44.14 0.0009281368    1.409    0.290
        73  -9.3935    234.3283     85.6916   5.1416065384e+01   1.7103303581e+01    0.1290674   0.08629196 -61.32 0.0003378271    1.659    0.397
        74 -10.2021     73.3313     83.7681   8.7939038458e+01   5.1568916403e+01    0.2757884    0.2282315  62.57 0.0007473214    1.562    0.360
        75  -9.4411    159.5227     82.0272   6.2382028096e+01   3.3403050073e+01      0.21931    0.1438415 -35.86 0.0004743189    1.519    0.342
        76 -10.3241    243.4919     77.5077   4.8633062548e+01   1.6620205754e+01    0.1228548    0.1011703 -45.59 1.015677e-05    1.004    0.004
        77 -10.7672    137.8800    169.1971   8.8973874605e+01   2.0088007274e+01    0.4545759    0.3561406  88.97  0.002115177    2.007    0.502
        78 -10.5076     13.5140     59.7950   1.0796094229e+02   6.4247923517e+01    0.2322813    0.2018905 -32.53 0.0004540941    1.062    0.059
        79 -10.2668    172.5936    240.9157   9.3359119616e+01   1.4586740093e+00    0.3391211    0.2329121 -62.55  0.001471929    2.807    0.644
        80 -12.0585    195.4464     44.0265   4.6490932595e+01   3.0799634896e+01    0.4919164    0.4338313 -35.70 0.0009100326    1.193    0.162
        81 -10.8426     72.1672    231.0838   1.1453490802e+02   1.6678839547e+01    0.4033661     0.178873  63.82  0.001505859    3.893    0.743
        82 -10.4471    138.0435     44.0320   5.5403095067e+01   4.4423983140e+01    0.3248689    0.2372888 -86.59 0.0005495583    1.671    0.401
        83 -10.3802    109.9439    201.1558   1.0170037937e+02   1.7742280403e+01    0.2157911     0.202273 -52.13 0.0003194269    1.191    0.160
        84  -9.8337    189.6813     15.2227   3.9990066259e+01   3.5370300406e+01    0.2044029    0.1414388 -39.47 0.0006862278    1.424    0.298
        85 -10.0416    141.1795     38.8297   5.3139840771e+01   4.4328036638e+01    0.2245593     0.207889  87.93 0.0004838863    1.077    0.071
        86  -9.8397     72.6212    226.0427   1.1393703478e+02   1.7639967301e+01    0.2392629    0.1517929  42.42  0.001319795    1.361    0.265
        87 -10.7428     64.7817    223.6818   1.1554885396e+02   1.9084118276e+01    0.2628334    0.1853859  75.46  0.001040065    1.583    0.368
        88 -10.7850     59.5340    220.3856   1.1647988276e+02   2.0398116783e+01    0.3542246    0.2075102  21.64  0.001765451    1.778    0.437
        89 -11.8507    194.7262    197.0901   8.1463930128e+01   5.4058690337e+00     1.037715    0.7153782 -69.85  0.004257486    4.045    0.753
