#   1 NUMBER                 Running object number                                     
#   2 MAG_AUTO               Kron-like elliptical aperture magnitude                    [mag]
#   3 X_IMAGE                Object position along x                                    [pixel]
#   4 Y_IMAGE                Object position along y                                    [pixel]
#   5 X_WORLD                Barycenter position along world x axis                     [deg]
#   6 Y_WORLD                Barycenter position along world y axis                     [deg]
#   7 A_WORLD                Profile RMS along major axis (world units)                 [deg]
#   8 B_WORLD                Profile RMS along minor axis (world units)                 [deg]
#   9 THETA_WORLD            Position angle (CCW/world-x)                               [deg]
#  10 FWHM_WORLD             FWHM assuming a gaussian core                              [deg]
#  11 ELONGATION             A_IMAGE/B_IMAGE                                           
#  12 ELLIPTICITY            1 - B_IMAGE/A_IMAGE                                       
         1 -14.9201    161.3675     42.0526   8.1450691641e+01   4.0157841876e+01     1.374534      1.07715 -17.00  0.003873506    1.410    0.291
         2 -14.6702    174.6225      8.9665   6.8551992914e+01   4.0608042657e+01     1.157704    0.9962226  54.66  0.003917841    1.136    0.120
         3 -11.7411    189.8597     14.6804   6.8329775089e+01   3.5989485488e+01    0.2303286    0.2032897  -2.97 0.0006994174    1.327    0.246
         4 -12.4150    125.0678    243.7779   1.3288386961e+02   1.0072998375e+01    0.2220818    0.1572981 -62.18 0.0009909149    1.760    0.432
         5 -20.1082     77.0079    176.1550   1.3462821039e+02   2.9881863809e+01     16.42361     6.267658 -67.13   0.07094712    2.636    0.621
         6 -13.7697    195.5983    170.9480   1.0841830613e+02   9.2157844445e+00    0.7904141    0.4315723 -48.65  0.002873917    2.198    0.545
         7 -13.8230    177.6274    171.7547   1.1216154312e+02   1.2691630553e+01    0.6495013    0.4915926 -51.78   0.00346238    1.506    0.336
         8 -10.7838     22.5399    220.9841   1.4891155469e+02   2.7693999173e+01    0.1363024   0.08207557 -79.17 0.0007314475    1.540    0.351
         9 -11.7274    167.0045    173.5599   1.1468834178e+02   1.4495715650e+01    0.2534002    0.2006908 -68.69  0.001033819    1.549    0.354
        10 -11.7340     26.1642    173.6673   1.4519538887e+02   3.6579875608e+01    0.2071952    0.1638859  81.46 0.0003047985    1.075    0.070
        11 -11.8458    185.8848    168.8303   1.0992094509e+02   1.1535491862e+01    0.2293748      0.18728  16.76  0.001243179    1.325    0.245
        12 -11.0939     23.6173    215.3874   1.4842629658e+02   2.8604145305e+01    0.1326309   0.09746649 -76.41 0.0005542143    1.473    0.321
        13 -11.7988    230.0742    166.6949   1.0114098788e+02   3.1224231363e+00    0.3323841    0.1617716 -49.09  0.001339417    3.013    0.668
        14 -11.8587    201.1747    165.1368   1.0616436755e+02   9.0594845040e+00    0.3216281    0.2420573 -60.69  0.001020143    1.779    0.438
        15 -13.1007     11.4160    206.0365   1.5003711540e+02   3.1570797960e+01    0.3743946    0.2389073  35.94  0.002218565    1.874    0.466
        16 -11.0716    222.9016    162.3406   1.0152146605e+02   5.1656120315e+00    0.2998416     0.186376 -49.09  0.001106837    2.027    0.507
        17 -13.4439    164.0075    157.9644   1.1228560514e+02   1.8029362267e+01     0.455098     0.323781  47.86 0.0009004318    1.315    0.240
        18 -15.2054    143.4438    144.0938   1.1399963276e+02   2.5085804819e+01     1.151958    0.7593014 -63.91  0.004826998    1.789    0.441
        19 -14.4170    135.7010    127.4977   1.1217866298e+02   3.0217996365e+01      2.40977    0.4055637 -50.46  0.004995955    7.592    0.868
        20 -11.1635     17.9025    156.2321   1.4554821267e+02   4.1065816336e+01     0.370492    0.1647347 -78.06   0.00201963    1.824    0.452
        21 -12.2657    168.7292    202.3925   1.1932033185e+02   9.1851437280e+00    0.3399425    0.2073174  60.39   0.00126366    1.937    0.484
        22 -10.4999     22.9917    156.0974   1.4441736894e+02   4.0634110235e+01    0.1728818     0.135054  88.18 0.0004242416    1.037    0.036
        23 -12.5629    154.3650    195.9393   1.2113237198e+02   1.2919398980e+01    0.4541083    0.2960627 -88.40  0.002074161    2.673    0.626
        24 -10.9077     26.8609    180.3454   1.4556569030e+02   3.5122076742e+01    0.2698783    0.1846192 -37.79   0.00131582    2.637    0.621
        25 -13.0451    158.2032    202.7873   1.2143916236e+02   1.1043639207e+01    0.5525047    0.3970404  72.42  0.003018686    1.747    0.428
        26 -12.2609    153.7493    152.1062   1.1333187401e+02   2.1310888703e+01    0.3026283    0.2222581  84.79  0.001261623    1.839    0.456
        27 -12.1803    163.8923    203.0718   1.2036956706e+02   9.9593268316e+00     0.294513    0.2578845 -83.07 0.0004141979    1.377    0.274
        28 -12.7627    174.1678    148.8579   1.0820591567e+02   1.7622867012e+01    0.3881063    0.3390889 -47.93  0.001342736    1.215    0.177
        29 -12.8582    161.5309    197.8745   1.2001144648e+02   1.1261780258e+01    0.3960722    0.3333535  79.87  0.001798938    1.387    0.279
        30 -11.0414     27.2777    145.6781   1.4246143994e+02   4.2521028856e+01    0.2188357    0.1743375 -75.05 0.0006571648    1.169    0.144
        31 -11.8272    174.9691    141.2942   1.0636762188e+02   1.8892060711e+01    0.2185263    0.1877421  46.49 0.0004846319    1.117    0.105
        32 -14.7144    134.1732    146.5761   1.1667197238e+02   2.6445036364e+01     1.813875    0.5055086 -56.42  0.004641426    5.607    0.822
        33 -10.6186      8.5734    137.8239   1.4611791004e+02   4.5830125637e+01    0.1870739    0.1443778 -27.39  0.001198901    1.959    0.490
        34 -11.9933    168.0203    243.9530   1.2534681731e+02   3.1590579470e+00    0.1809253    0.1381844  41.94 0.0003663083    1.010    0.010
        35 -13.0660    160.4892    128.0911   1.0649180331e+02   2.4710094140e+01    0.4650947    0.3645521 -57.03   0.00167265    1.369    0.270
        36  -9.9469     22.2516    205.3701   1.4809447008e+02   3.0625379881e+01    0.0961935   0.07145643 -66.88 0.0006957914    1.633    0.388
        37 -11.4400    139.0848    250.1111   1.3111151589e+02   6.9499355379e+00    0.2526337    0.2025131  29.00  0.001802977    1.436    0.304
        38 -11.6620    138.1354    198.6749   1.2481738562e+02   1.5380678640e+01    0.5552675    0.3177104  67.64  0.002521023    2.383    0.580
        39  -9.7107     16.5200    201.7478   1.4890957279e+02   3.1892779650e+01   0.08940672   0.07815488 -45.12 0.0005543648    1.910    0.476
        40 -12.8689    155.8224    190.4328   1.1994983881e+02   1.3618146264e+01    0.3304099    0.2794558  77.35  0.001444933    1.312    0.238
        41 -13.2480    154.2129    185.7413   1.1949904701e+02   1.4765123377e+01    0.4748674    0.3028492  57.19  0.002377439    1.590    0.371
        42 -14.1966    207.7407    179.5510   1.0777675772e+02   5.4508279271e+00    0.8967083    0.6915425 -35.05   0.00487726    1.406    0.289
        43 -10.7078    205.3986    110.1221   9.2719906386e+01   1.7678556694e+01    0.2596224    0.2036582  40.21 0.0006295596    1.307    0.235
        44 -11.9564    203.1523    172.5092   1.0726906245e+02   7.4566204188e+00    0.2949956    0.2052429 -47.60  0.001128232    1.685    0.407
        45 -11.4480     21.9039    242.1055   1.5004589415e+02   2.4081362891e+01    0.2040571    0.1049173 -88.24  0.001440544    1.679    0.404
        46 -11.0406    138.5356    246.0220   1.3076248962e+02   7.6216266796e+00    0.2571491    0.1668657  80.46  0.001520738    2.166    0.538
        47 -10.6414     13.7217    238.6615   1.5116228071e+02   2.5509403734e+01    0.1097292    0.0652323  83.74 0.0008308576    1.307    0.235
        48 -10.8650      7.9375    239.1713   1.5206942206e+02   2.6000437159e+01    0.1175105   0.06956299 -87.36 0.0009047056    1.451    0.311
        49 -10.7666     30.6405    182.7082   1.4499097299e+02   3.4245901763e+01    0.1644351    0.1448182 -84.60  0.001244949    1.326    0.246
        50 -14.4689    150.3450     56.7994   8.8601164133e+01   4.0740361314e+01     1.290578     1.102264  24.47  0.000950204    1.271    0.213
        51 -10.4053     25.7830    229.7519   1.4883078528e+02   2.5786443874e+01    0.2018024   0.06996815 -81.37  0.001091911    2.696    0.629
        52 -13.1084    165.2809     33.6026   7.7950375659e+01   4.0278117185e+01    0.4524857    0.3963663 -21.86 0.0008839671    1.219    0.180
        53 -10.9437     13.6395     60.0271   1.3384477648e+02   6.2675723843e+01    0.1652682    0.1527099 -85.11 0.0005064462    1.253    0.202
        54 -11.9820    133.8429    246.2338   1.3160613596e+02   8.3321792413e+00    0.1642269    0.1472516  64.53 0.0004210875    1.213    0.176
