#   1 NUMBER                 Running object number                                     
#   2 MAG_AUTO               Kron-like elliptical aperture magnitude                    [mag]
#   3 X_IMAGE                Object position along x                                    [pixel]
#   4 Y_IMAGE                Object position along y                                    [pixel]
#   5 X_WORLD                Barycenter position along world x axis                     [deg]
#   6 Y_WORLD                Barycenter position along world y axis                     [deg]
#   7 A_WORLD                Profile RMS along major axis (world units)                 [deg]
#   8 B_WORLD                Profile RMS along minor axis (world units)                 [deg]
#   9 THETA_WORLD            Position angle (CCW/world-x)                               [deg]
#  10 FWHM_WORLD             FWHM assuming a gaussian core                              [deg]
#  11 ELONGATION             A_IMAGE/B_IMAGE                                           
#  12 ELLIPTICITY            1 - B_IMAGE/A_IMAGE                                       
         1 -13.4569    158.1384    106.4713   3.3886128112e+01   2.9975023564e+01     5.868629     2.146512 -30.73   0.00298402    4.926    0.797
         2 -15.5755    244.0373     56.1463   1.2450649828e+01   2.2538403515e+01     5.452403     1.944596 -58.45   0.02310499    3.501    0.714
         3 -12.9737    141.9068    143.1263   4.5478180079e+01   2.5799096465e+01     6.310716      3.53023  35.47   0.02927964    1.876    0.467
         4 -16.3468    241.7332    112.5485   2.3299577843e+01   1.5671716305e+01     3.538452     2.687628  -5.56   0.02031437    1.631    0.387
         5 -15.2640    240.5568     83.1451   1.7894902513e+01   1.9715345858e+01     2.410136     1.502092 -61.97   0.01601061    1.769    0.435
         6 -15.3684    211.8772    107.5002   2.5772028224e+01   2.0603126533e+01     3.593809     2.619264 -48.24   0.02366529    1.230    0.187
         7  -8.1421    110.4583      9.4639   1.3002958624e+01   5.5271974593e+01    0.1328121    0.1140368 -87.61 0.0001419496    1.002    0.002
         8 -10.3643    233.6161      4.2577   2.9113589251e+00   2.9733999779e+01    0.2997298     0.126314 -51.80  0.001047747    1.639    0.390
         9  -9.3384    239.5522      2.9462   2.4615932489e+00   2.8887173428e+01    0.1842181    0.1049752  60.11  0.001260923    2.502    0.600
        10 -10.3974    248.4676    221.6369   4.0363852028e+01   7.8570758430e-01    0.1926582    0.1684018   1.04   0.00139526    1.679    0.404
        11 -12.0129    247.2673    247.2169   4.4037605931e+01  -2.0205696418e+00    0.5799127    0.3175066 -14.49  0.004561696    1.314    0.239
        12 -10.1233    250.1926    210.8278   3.8572024718e+01   1.9304634812e+00    0.1696728      0.10854 -30.82  0.001068064    1.303    0.233
        13  -9.1972    188.0177    210.9298   4.8213954515e+01   7.6774268719e+00    0.1483411    0.1473597 -77.95  0.001124899    1.715    0.417
        14  -9.1028    100.0576    209.5466   6.6900086239e+01   1.8008240280e+01    0.1775228    0.1623466 -12.73 0.0003300531    1.117    0.104
        15  -8.7200    224.7117    207.5312   4.1683264675e+01   4.5487981348e+00    0.1222876   0.09331919  24.35 0.0009355058    1.613    0.380
        16 -10.7430    204.3146    201.7465   4.3998443134e+01   7.3334793227e+00    0.4118481     0.316183 -52.48  0.002400569    1.964    0.491
        17  -8.5869    248.4730    202.4721   3.7563157494e+01   3.0876806877e+00    0.1433933   0.08932137  37.10 0.0009321917    2.402    0.584
        18 -11.3962    192.7788    194.7535   4.4837972848e+01   9.6059808862e+00    0.7810752    0.4180253 -58.70   0.00321837    4.661    0.785
        19 -10.9250    216.7819    248.8176   4.8760999978e+01   2.9212278146e-02    0.2605728    0.1161219  19.27  0.001692808    2.018    0.504
        20 -13.3963    227.1972    106.2594   2.3696800248e+01   1.8518629158e+01    0.6623031    0.5057355  13.50  0.002134488    1.835    0.455
        21 -10.5464    225.7505    246.7456   4.7101418660e+01  -4.1369318777e-01    0.2029455    0.1797634 -73.58  0.001420602    3.660    0.727
        22  -8.8347     44.0971    190.1633   8.0056027581e+01   2.8627374053e+01    0.1922093    0.1760612  -0.73  0.001133549    1.153    0.132
        23 -10.5071    244.5352    184.6986   3.5348752217e+01   5.6819339405e+00    0.1801445    0.1401225 -19.74 0.0004192891    1.154    0.134
        24 -13.8042    195.3680    107.2602   2.7938198814e+01   2.3258256504e+01     1.291607     1.029992  65.95  0.008303908    1.567    0.362
        25 -10.2427    230.2722    182.5956   3.6957171488e+01   7.3590039833e+00    0.1941318    0.1846035  35.14  0.001596999    1.709    0.415
        26 -11.2822    178.6255    169.5164   4.3069747966e+01   1.5404567506e+01    0.7592531    0.4221485 -34.83  0.004071658    1.605    0.377
        27 -12.3719    193.7648    166.4351   3.9839091719e+01   1.3936361015e+01     0.840013    0.4853067 -46.20  0.001629608    1.734    0.423
        28 -10.4129    184.9964    168.9919   4.1819454125e+01   1.4653227593e+01    0.3682851    0.2209631 -51.79  0.001014462    1.986    0.496
        29 -10.8560    187.0784    164.5625   4.0651151415e+01   1.5112380864e+01    0.4636205     0.220928 -30.34  0.001674968    2.099    0.523
        30  -8.8958    168.6474    177.8243   4.6444327678e+01   1.5294486300e+01    0.2627758    0.1435834  53.01  0.001108347    3.576    0.720
        31 -10.5201      8.9698    167.8853   8.9322890145e+01   3.7306039822e+01    0.4628526    0.1737181  33.28   0.00108315    2.230    0.552
        32  -8.2032    110.5348    167.4493   5.7913444933e+01   2.5576600015e+01     0.141059    0.1329897  11.85 0.0001150964    1.038    0.037
        33 -12.9642    162.4103    144.8071   4.1465632183e+01   2.2152564561e+01     1.514291    0.6546133  35.08  0.002841216    2.616    0.618
        34 -12.0877    201.3714    164.2764   3.8197160511e+01   1.3313098417e+01    0.4987577    0.3320975 -35.02  0.001556445    1.251    0.201
        35  -8.2671     47.9966    160.0093   7.5626019058e+01   3.5839368934e+01    0.1752366    0.1589764 -78.08 0.0004383935    1.144    0.126
        36 -10.3746      6.0266    158.2769   8.9763632737e+01   4.0046472821e+01    0.3793638    0.1887312  85.62 0.0008735632    2.060    0.515
        37  -8.5617     81.6605    154.2279   6.3880454916e+01   3.2940071586e+01    0.2078273     0.132144 -49.71 0.0005554696    1.603    0.376
        38 -14.2143    227.1416    167.5364   3.4896629302e+01   9.7819444992e+00     2.217274      1.56404  10.70  0.003122034    1.556    0.357
        39 -11.9514     67.7263    143.0626   6.6454556135e+01   3.7779076154e+01     1.004756    0.7147362 -78.06  0.003082118    1.607    0.378
        40 -10.5181      4.1631    141.1662   8.9403166079e+01   4.4815909574e+01    0.3233104    0.2445119 -24.06 0.0008957323    1.490    0.329
        41 -10.1002      1.9503    137.3359   8.9996940384e+01   4.6000371911e+01    0.3100391    0.1998316 -83.54 0.0002020556    1.492    0.330
        42 -12.2956     25.6612    128.8391   7.9901184041e+01   4.6655931888e+01     1.385597    0.7779074  68.81  0.005633912    2.101    0.524
        43 -13.5862      5.5415    121.1837   8.7390794057e+01   5.0312826502e+01     1.934311     1.197348 -29.06  0.004815072    1.819    0.450
        44 -12.6898     52.5540    120.2281   6.7795568237e+01   4.5968002668e+01    0.8305874    0.7580905 -73.53  0.001610434    1.113    0.102
        45 -14.0944     44.0862    118.1483   7.0787785276e+01   4.7642176253e+01     3.630415     1.371844  22.12  0.007895987    2.811    0.644
        46  -7.9329     79.3490    127.2878   5.9490121472e+01   4.0062807301e+01     0.158576    0.1196502 -14.81 0.0007023546    1.660    0.398
        47 -12.7057    174.3283    110.6771   3.1956219244e+01   2.6282489763e+01    0.9971729    0.6957249  23.89  0.005290189    1.962    0.490
        48 -12.5087    174.5276    100.5973   2.9632883837e+01   2.7956926434e+01     0.389509    0.3060066 -36.29 0.0008174012    1.162    0.140
        49  -8.3834     92.0641    114.9928   5.2525774575e+01   4.0886008835e+01    0.1811712    0.1741133  39.02 0.0004098876    1.037    0.035
        50 -10.3910    148.7283    111.0395   3.6834294868e+01   3.0904432037e+01    0.3163535     0.267512  41.45 0.0005997908    1.278    0.218
        51  -9.0440    142.3279    112.3010   3.8494206381e+01   3.1877080392e+01    0.1410419    0.1111165  -2.79 0.0007031237    1.642    0.391
        52 -10.1943    125.9284    105.8270   4.0685306974e+01   3.6376691366e+01    0.3782728    0.2200093 -41.42  0.001559728    1.698    0.411
        53  -9.0376    109.0189    106.7146   4.5360323115e+01   3.9551375923e+01    0.2092286    0.2004366  36.69 0.0006446613    1.067    0.062
        54 -12.0289     35.6378    118.9270   7.4402134601e+01   4.8421007051e+01    0.6654703     0.384751  19.23 0.0008143091    1.783    0.439
        55 -10.1269    142.3597    102.9054   3.6187460559e+01   3.3686216669e+01    0.2755958    0.2523801 -87.61 0.0009043707    1.174    0.148
        56  -9.8973    167.7812     97.2370   2.9965484245e+01   2.9777327644e+01    0.2211248    0.1526283 -23.24 0.0003714809    1.700    0.412
        57  -9.7355    176.3167     92.6016   2.7492287862e+01   2.8947593334e+01    0.3428152    0.2072693 -60.33  0.001363178    1.930    0.482
        58  -9.5016    175.4524     88.4716   2.6652183880e+01   2.9778015442e+01    0.2449078    0.1929162  58.60 0.0005672565    1.432    0.302
        59 -10.5807    127.4068     97.1022   3.8060371915e+01   3.7839580456e+01    0.3556044    0.2452066 -47.42 0.0008669522    1.400    0.286
        60 -13.0801    215.9819    181.8403   3.8931102089e+01   8.9673615160e+00     1.156882    0.8208166 -34.00  0.005188151    1.238    0.192
        61  -8.0872     76.8096     88.1524   5.0585791060e+01   5.0127937529e+01    0.1942433    0.1738539   8.57 0.0002894607    1.247    0.198
        62  -9.6557    203.9783     77.3345   2.0365349338e+01   2.6279083116e+01    0.1967086    0.1528467 -19.01 0.0006664235    1.514    0.340
        63 -10.1428    173.8400    222.8488   5.2576800251e+01   7.3560059419e+00    0.3192453    0.1262784  17.83  0.001480078    2.776    0.640
        64  -8.8966    184.9151     71.6694   2.1349290457e+01   3.0559528699e+01     0.206069    0.1512634 -34.44 0.0005094674    1.295    0.228
        65  -9.4838    115.4246     68.5999   3.2729707940e+01   4.5869853636e+01    0.2451195      0.22254 -52.14 0.0002516958    1.096    0.087
        66 -10.8244    181.3293     64.0930   1.9981149199e+01   3.2346537278e+01    0.3682466    0.2563756 -29.49   0.00106324    1.492    0.330
        67  -8.9844    156.2790     65.3553   2.3785643833e+01   3.7304090575e+01    0.2432935    0.1584641 -26.63  0.001219623    1.771    0.435
        68  -8.2513     62.2337     64.0211   4.8497326427e+01   5.8400119426e+01    0.1917243    0.1260082 -48.25 0.0007946016    1.578    0.366
        69 -10.9620    196.5341     60.2841   1.7358190078e+01   2.9968363745e+01    0.4417778     0.249113 -29.81  0.001689462    1.781    0.439
        70  -8.6802     97.9527     61.5138   3.4984980382e+01   5.1158364877e+01    0.2119635    0.1890618 -52.02  0.001148891    1.139    0.122
        71  -8.4292      6.9832    248.5648   9.3023141713e+01   1.9074938576e+01    0.1686038   0.09417978  21.95 0.0003019638    1.473    0.321
        72 -14.4725    247.4337     90.3092   1.8630829764e+01   1.7836626116e+01     1.208301    0.7424914 -15.94  0.002533746    2.232    0.552
        73 -12.0537    177.0454     50.8578   1.7220488182e+01   3.5034153998e+01    0.6400909     0.530475 -38.93  0.004134088    1.199    0.166
        74 -10.3046    179.2377     42.4860   1.4884255227e+01   3.5673722753e+01    0.4911177    0.2868184  -9.71  0.001883154    3.272    0.694
        75 -11.1322    189.5664     51.9854   1.6143523939e+01   3.2392350744e+01    0.4083332    0.2547731 -34.67   0.00105355    1.475    0.322
        76 -11.1741    187.5535     45.7189   1.4846883811e+01   3.3593716238e+01    0.4269151    0.3155863  44.75  0.001565557    1.835    0.455
        77  -9.5995    154.0000     54.0072   2.1031405510e+01   3.9490353001e+01    0.2193072   0.07064435 -34.84 0.0008019907    2.939    0.660
        78 -11.4969    159.8428     51.0440   1.9397334969e+01   3.8633348778e+01    0.5785465    0.2837888 -78.13  0.002186398    3.499    0.714
        79 -11.8153    140.3397     44.3952   2.0309047331e+01   4.3931857758e+01    0.7946414    0.6060165  22.97  0.004209469    1.940    0.484
        80 -10.0718    201.8145     47.1461   1.3858810748e+01   3.0687634227e+01    0.2897835    0.1740827 -27.99 0.0005310379    1.732    0.422
        81  -9.3165    190.4615     36.5097   1.2372920253e+01   3.4153162023e+01    0.2643585    0.1650786 -21.33  0.001484339    1.968    0.492
        82  -8.9939    193.1926     32.5732   1.1214202446e+01   3.4080100902e+01    0.1697854    0.1553582 -35.49 0.0007044316    1.301    0.232
        83  -9.2893    148.9006     33.8103   1.5964322955e+01   4.3345441786e+01    0.1892065    0.1727596  61.47 0.0009014578    1.267    0.210
        84 -10.5878    189.0711     27.4635   1.0319881555e+01   3.5475494852e+01    0.4204319    0.2972981  12.38   0.00205565    2.589    0.614
        85  -8.4345    184.5793     28.1609   1.0842979805e+01   3.6299628564e+01     0.165847      0.13828 -53.18 0.0004894177    1.097    0.088
        86  -9.8668    240.8144    221.6315   4.1421474176e+01   1.3894668554e+00    0.1570416    0.1363129  -4.28 0.0008345798    1.588    0.370
        87  -9.6834    149.2816     22.5293   1.2608458058e+01   4.4580987666e+01    0.2150606    0.2012018  -9.87 0.0007373161    1.369    0.269
        88 -10.8507    223.6757    213.9219   4.2798312413e+01   3.8063425287e+00    0.2973568    0.2288274  45.45   0.00210756    2.514    0.602
        89  -9.3752    114.5079     12.9833   1.3741103961e+01   5.3925428560e+01    0.2240047    0.1637815  60.51 0.0004977725    1.350    0.259
        90  -8.3424     94.0360     10.7145   1.6137675458e+01   5.9271276725e+01     0.162793    0.1074141  74.73 0.0005422856    1.345    0.256
        91  -8.9577    192.5990    223.6290   4.9286478831e+01   5.3816800424e+00    0.1932251    0.1158399  22.57  0.001061326    1.588    0.370
        92  -8.3564     10.3311    224.3431   9.1454553506e+01   2.3728075702e+01     0.122175   0.08870669 -30.24 0.0007050923    1.752    0.429
