#   1 NUMBER                 Running object number                                     
#   2 MAG_AUTO               Kron-like elliptical aperture magnitude                    [mag]
#   3 X_IMAGE                Object position along x                                    [pixel]
#   4 Y_IMAGE                Object position along y                                    [pixel]
#   5 X_WORLD                Barycenter position along world x axis                     [deg]
#   6 Y_WORLD                Barycenter position along world y axis                     [deg]
#   7 A_WORLD                Profile RMS along major axis (world units)                 [deg]
#   8 B_WORLD                Profile RMS along minor axis (world units)                 [deg]
#   9 THETA_WORLD            Position angle (CCW/world-x)                               [deg]
#  10 FWHM_WORLD             FWHM assuming a gaussian core                              [deg]
#  11 ELONGATION             A_IMAGE/B_IMAGE                                           
#  12 ELLIPTICITY            1 - B_IMAGE/A_IMAGE                                       
         1 -13.1944    197.4286     42.3269   4.3461285143e+01   3.0764188131e+01     1.145441    0.9282227 -68.07  0.003924698    1.146    0.127
         2 -13.9333    206.2848     33.4403   4.0190284863e+01   2.9855819660e+01     1.602902     1.255792  12.07  0.001307681    1.965    0.491
         3 -12.4034    234.0655      7.2259   3.1819655580e+01   2.6770880908e+01    0.6869032    0.4674585 -26.43  0.004205134    1.822    0.451
         4 -12.5970    228.2101      5.6785   3.1915768232e+01   2.8181792243e+01    0.6964858    0.4909862 -26.80  0.004376356    1.743    0.426
         5 -11.2079     41.5397      8.3631   6.9129097216e+01   6.9183292276e+01    0.2289342    0.1985931 -55.02  0.001516968    1.987    0.497
         6 -10.9310     54.5095      6.0927   6.2550070903e+01   6.7323767180e+01    0.2861634     0.161559   2.21  0.001504092    2.055    0.513
         7 -10.4205     29.3894      3.2117   7.2222212385e+01   7.1507089628e+01    0.1542422    0.1514121   9.91  0.001163328    1.733    0.423
         8 -10.6765     59.9529      2.5050   5.8760709793e+01   6.6697123099e+01    0.3242517    0.1060851  51.80  0.001384055    2.818    0.645
         9 -11.0564    104.4273    209.7149   1.0246615836e+02   1.6300197791e+01    0.4727349    0.1928418 -60.99  0.001898924    2.701    0.630
        10 -13.4025     28.2646    215.7334   1.1984684054e+02   2.5227918282e+01     1.160004    0.5221154  88.39  0.005576161    2.272    0.560
        11 -17.6032     10.5936    245.1692   1.2493400964e+02   2.1064286732e+01     6.226393     4.846829  40.88   0.02371801    1.458    0.314
        12 -11.3965    111.0995    203.2417   9.9998813260e+01   1.6622082657e+01    0.4038977    0.2767542  89.50  0.001536287    1.917    0.478
        13  -9.5377     32.2358    203.9382   1.1810771477e+02   2.7397708237e+01    0.2867033    0.1831351 -74.66 0.0009849833    1.430    0.301
        14 -10.6749    190.4506    206.1306   8.2878980251e+01   2.4482314532e+00    0.2765108    0.1738787  50.12   0.00134036    1.939    0.484
        15 -10.9998     61.3697    198.6759   1.1104830232e+02   2.5093545295e+01    0.3380226    0.2552168 -53.53 0.0004579475    1.499    0.333
        16  -9.5534     66.2368    194.3860   1.0940984232e+02   2.5437777787e+01    0.2950086    0.1923932  49.12  0.000825775    1.429    0.300
        17 -11.2438    121.5318    197.1942   9.6614721909e+01   1.6189501586e+01    0.5057717    0.2900368 -72.35  0.001216681    2.464    0.594
        18  -9.1990     82.1818    195.0120   1.0568343230e+02   2.3022740955e+01    0.2439591    0.1970783  42.84 0.0008762036    1.209    0.173
        19 -10.5796    147.7568    187.4220   8.8759807543e+01   1.3632033262e+01    0.4714128    0.3160292 -61.38  0.001553511    1.779    0.438
        20 -13.6026     57.8751    184.8050   1.1027676250e+02   2.8814859799e+01     4.925533      2.11227  16.67   0.01468147    5.907    0.831
        21 -11.8723     83.5832    158.9705   9.9823779451e+01   3.1533726974e+01    0.8156675    0.6442636 -77.99  0.004209206    1.273    0.214
        22 -13.1002     72.1039    153.6168   1.0207240077e+02   3.4599456274e+01    0.7086213    0.5441011 -61.53 0.0009864043    1.222    0.182
        23 -13.6840     68.6221    144.0642   1.0140086277e+02   3.7515941506e+01      1.99209     1.144647  89.58  0.003722253    2.603    0.616
        24 -10.0016    115.3995    200.1590   9.8525903960e+01   1.6581053054e+01    0.1962432     0.135419 -73.76  0.000952061    1.718    0.418
        25 -10.6319    109.7146    189.3877   9.8187553085e+01   1.9945176671e+01    0.3223281    0.2061832 -25.11  0.001332031    2.568    0.611
        26  -9.0131     71.9688    188.2283   1.0725989258e+02   2.6094030121e+01    0.2113246    0.1618429  69.18 0.0005139742    1.262    0.208
        27 -10.3367    120.0149    186.4554   9.5193458526e+01   1.8840868165e+01    0.2196471    0.1972578 -59.56 0.0004774506    1.155    0.134
        28 -13.7407     43.6319    110.7437   1.0289615808e+02   4.9042187392e+01     2.290688     1.468948  63.21   0.01085766    2.102    0.524
        29  -9.5859     80.4594    183.9603   1.0458172504e+02   2.5880476604e+01    0.2018972    0.1713446 -81.52 0.0005934008    1.130    0.115
        30 -16.8608      5.0532    213.7524   1.2436899123e+02   2.7961352680e+01     16.17723     1.007713 -75.63   0.02621733    8.810    0.886
        31 -10.1720     99.4017    181.0202   9.9386373587e+01   2.3611524210e+01    0.2734347    0.2313311  40.38 0.0006591198    1.176    0.150
        32  -8.8001     90.4012    181.2684   1.0169043923e+02   2.5001628138e+01    0.1827946    0.1338278 -77.29 0.0002399996    1.426    0.299
        33  -8.7428     92.9993    178.9914   1.0067731858e+02   2.5134043848e+01    0.2332299    0.1629378  71.42 0.0005052214    1.651    0.394
        34  -9.3449     46.8097    177.5215   1.1214665513e+02   3.1941202412e+01    0.2897774    0.1647318 -74.02   0.00100294    1.615    0.381
        35  -9.2744    242.6766    178.6650   6.7688272987e+01  -1.3607646320e+00    0.1372254   0.09039562  -5.89 0.0007050792    1.711    0.416
        36 -10.2883    187.1115    175.5411   7.7648704981e+01   8.7270404264e+00    0.3588438    0.3040621 -52.70   0.00115214    1.327    0.246
        37  -9.4655    148.1191    174.7928   8.6253562578e+01   1.6288274977e+01     0.259629     0.213332 -86.65 0.0007156989    1.547    0.354
        38 -11.6284     71.3446    171.5629   1.0511015348e+02   3.0220116704e+01    0.4790486    0.3055605 -35.16  0.002168687    2.172    0.540
        39  -9.6670     47.6074    171.7962   1.1126832088e+02   3.3247552097e+01    0.3425367     0.243043 -34.02  0.001190906    1.914    0.478
        40  -8.7953    193.4955    170.5078   7.5270606546e+01   8.5138265922e+00    0.1447489    0.1346295  -9.91 0.0007052811    1.020    0.020
        41  -9.6887    240.4742    169.4839   6.6222118906e+01   4.9150472074e-01    0.1350454    0.1119539 -17.16 4.697019e-05    1.037    0.036
        42  -9.2195    184.9630    167.9994   7.6530976626e+01   1.0621385189e+01    0.2242609    0.1874046 -83.19 0.0008249189    1.660    0.398
        43  -8.8462     37.3197    167.8608   1.1342996289e+02   3.5375715121e+01    0.2238531    0.1554209  54.17 0.0007386184    1.425    0.298
        44  -9.7421     32.3429    165.1707   1.1440103040e+02   3.6557978732e+01    0.2264631    0.1841946 -46.50 0.0006004648    1.422    0.297
        45  -8.0915    131.9852    161.0000   8.7410462396e+01   2.2503145121e+01    0.2541593   0.08672243  39.65 0.0007978325    2.911    0.656
        46 -11.4107     75.4814    167.0262   1.0333513302e+02   3.0747587293e+01    0.4201096    0.3134185 -63.45 0.0009134606    1.278    0.218
        47 -11.5613     90.6209    151.6538   9.6549830843e+01   3.2238710276e+01    0.7228603    0.4990147 -27.70  0.003199615    1.961    0.490
        48 -11.0104    133.7776    145.1551   8.3524085480e+01   2.5850068685e+01     1.286827    0.3398926 -54.68   0.00299663    5.522    0.819
        49  -9.4979    174.7891    149.4167   7.4665580693e+01   1.6456138218e+01    0.2851343    0.2114686 -41.63 0.0006504526    1.313    0.239
        50  -9.1065    111.2434    149.4323   9.0430076522e+01   2.9187380968e+01    0.3924316    0.2049568  63.95  0.001216363    3.638    0.725
        51 -12.4971     54.7887    146.8574   1.0585935446e+02   3.8634380305e+01     2.714086     1.026006 -45.63  0.009596515    3.131    0.681
        52 -10.6128     40.2666    146.7165   1.0996887124e+02   4.0343956635e+01    0.2993989    0.2626848 -29.69  0.001300644    1.362    0.266
        53  -9.2175    143.6195    145.2151   8.1041547861e+01   2.3830907296e+01    0.2270629    0.1450761 -38.58 0.0009505062    1.635    0.389
        54 -10.4151    103.6616    138.1736   9.0111787123e+01   3.3335827909e+01    0.5792053    0.3482544 -28.75  0.002201758    2.425    0.588
        55 -10.2688    105.9545    130.8796   8.7807255629e+01   3.4701373561e+01    0.4041108    0.3399934 -66.87  0.001304358    1.226    0.184
        56 -11.6045     91.2958    137.6290   9.3542256302e+01   3.5636308832e+01    0.2951919    0.2712077 -31.41 0.0004513591    1.162    0.140
        57 -10.3649     43.7212    138.4045   1.0774646724e+02   4.2074701851e+01    0.3074171    0.1762507 -46.10  0.001447937    1.800    0.444
        58 -12.0036     43.9592    129.6011   1.0625148657e+02   4.4279607477e+01    0.6181787     0.391452  71.72   0.00207241    2.002    0.501
        59 -10.0357    135.6041    128.7761   7.9176484161e+01   2.9276694178e+01     0.406902    0.1519653 -48.95  0.001303497    2.692    0.628
        60 -10.2385    112.5169    129.1177   8.5526270884e+01   3.3881121598e+01    0.3635036    0.3091878  10.34 0.0008316633    1.369    0.269
        61  -9.1501    160.5835    127.2787   7.2636862914e+01   2.4214060011e+01    0.3175575    0.1484888 -47.71  0.001098934    2.149    0.535
        62 -10.2598     99.6971    124.9691   8.8236306646e+01   3.7295096418e+01    0.3147081    0.2657841 -11.80  0.001144891    1.395    0.283
        63  -8.4510     93.5166    126.0355   9.0321826176e+01   3.8134530616e+01    0.2216471    0.1466026 -54.74 0.0004039706    1.452    0.311
        64 -10.8291    118.8305    122.9389   8.2242971048e+01   3.4103695081e+01    0.5838649    0.3779461   0.28  0.002028847    3.052    0.672
        65  -9.2575    108.3519    118.1601   8.4024352441e+01   3.7307592144e+01    0.2367954    0.2114633  19.32 0.0004076472    1.208    0.172
        66  -9.9932    231.4010    113.6630   5.5709480447e+01   1.1792318195e+01    0.2697429    0.2521534 -70.14 0.0008328842    1.151    0.131
        67 -10.0739    135.0000    112.4975   7.5156496913e+01   3.3088207995e+01    0.4668529   0.08932818 -44.89  0.001074009    5.142    0.806
        68  -9.6383    134.3394    100.9966   7.2185339562e+01   3.5734756394e+01    0.4493104    0.2630257 -69.10   0.00148895    3.164    0.684
        69 -11.3213    116.3856    108.7554   7.9241816213e+01   3.7888062087e+01    0.4800339    0.3964605  18.25   0.00231679    1.376    0.273
        70  -9.4604    205.4691    110.1698   5.9180991998e+01   1.7769812977e+01    0.2985726    0.2141944  41.80 0.0009601741    1.558    0.358
        71  -8.2313     66.2914    100.3085   9.2800854205e+01   4.8739065786e+01    0.1483615    0.1053086 -26.79 0.0002535346    1.581    0.368
        72  -9.1629    128.9164     96.1502   7.2245596046e+01   3.7968189669e+01    0.2373559    0.2142177  85.41 0.0005615282    1.246    0.198
        73 -11.1202     52.8235     93.4429   9.5804551575e+01   5.2164597063e+01     0.506615    0.3472949 -66.95  0.002544686    1.558    0.358
        74  -9.3256    156.6145     88.6602   6.3290384074e+01   3.3078340985e+01    0.3374285     0.224678 -76.60  0.001326076    2.322    0.569
        75 -10.9014     41.9542     89.1233   9.8718109441e+01   5.4432828871e+01    0.4443607    0.2056043  39.59  0.001927948    2.528    0.604
        76  -8.2699    117.3397     86.2813   7.2529421726e+01   4.2555216209e+01     0.156125    0.1206758   8.54 0.0003541097    1.626    0.385
        77  -8.5884     75.7011     85.0684   8.5356435010e+01   5.0793348130e+01     0.200179    0.1793241 -36.92 0.0003432891    1.049    0.047
        78  -8.5588    157.8241     82.6258   6.1312696253e+01   3.3926314110e+01    0.2084905    0.1451551  65.32 0.0003643201    1.571    0.363
        79 -10.5573    106.7792    248.8988   1.0677034480e+02   8.1952891120e+00    0.3525177    0.2439667  77.21  0.002050923    1.747    0.428
        80  -8.0257    105.5379     77.4978   7.3260529909e+01   4.6823806128e+01    0.1486746    0.1441921  -6.31 8.687543e-05    1.021    0.021
        81  -9.3057     59.7736     67.9733   8.5896734303e+01   5.6867756245e+01    0.2160131    0.1903308  11.46 0.0003285459    1.145    0.127
        82 -12.9321    185.9668     51.0284   4.7328690171e+01   3.2289618097e+01    0.9243128    0.8462516  11.96  0.001403124    1.354    0.262
        83  -8.2796    157.6938    235.3299   9.4515967287e+01   2.7203118436e+00    0.1259149   0.09721506  62.59 0.0007037935    1.658    0.397
        84  -8.3855    168.6200    233.7776   9.2028445840e+01   1.2518368683e+00    0.1519096     0.125884 -58.07 0.0003447869    1.560    0.359
        85  -9.6569     89.4405    211.4348   1.0610856635e+02   1.8247341344e+01     0.224967    0.1987783  79.21 0.0001820349    1.082    0.076
        86 -10.8122    107.5037    203.4964   1.0087503688e+02   1.7154346771e+01      0.29028     0.241229  87.92  0.001068146    1.285    0.222
        87  -9.7686    142.5982    208.7698   9.3648863298e+01   1.0141782257e+01    0.1859012    0.1363606 -66.17 0.0009503466    1.675    0.403
        88  -8.8328     73.1895     54.8190   7.6279066131e+01   5.7267083320e+01    0.1970987    0.1952303  16.00 0.0008239737    1.234    0.190
        89 -11.1951    192.8210    194.9198   8.0301119794e+01   4.0492242624e+00     1.135355     0.616533 -64.07  0.003592705    5.193    0.807
        90 -11.7381    111.5684    197.0037   9.8943567957e+01   1.7917503421e+01     1.037464    0.6145926  -2.17  0.003033459    5.739    0.826
        91  -9.1495    189.5365     14.9689   3.7477804140e+01   3.5959917888e+01    0.1790757    0.1250672 -33.30 0.0005426314    1.555    0.357
        92 -10.7456    157.8962    221.4652   9.2346667990e+01   5.1344347260e+00    0.4217384     0.181258 -58.69  0.001558364    3.760    0.734
        93  -8.7588     37.7936    215.7705   1.1787650931e+02   2.4160290856e+01    0.1687605    0.1093833  65.34 0.0004707296    1.330    0.248
        94 -10.0905    163.7186    217.4423   9.0452728146e+01   4.8988236087e+00    0.2684292    0.1182825  40.87  0.001139338    2.078    0.519
        95 -11.1212    184.7592    211.8271   8.5070970463e+01   2.3955023735e+00    0.3402706    0.2163567  32.07  0.001516377    1.453    0.312
        96 -10.3981    163.5312    211.8687   8.9561454122e+01   5.9581271180e+00    0.3615795    0.1519511  34.04  0.001450456    2.294    0.564
