#   1 NUMBER                 Running object number                                     
#   2 MAG_AUTO               Kron-like elliptical aperture magnitude                    [mag]
#   3 X_IMAGE                Object position along x                                    [pixel]
#   4 Y_IMAGE                Object position along y                                    [pixel]
#   5 X_WORLD                Barycenter position along world x axis                     [deg]
#   6 Y_WORLD                Barycenter position along world y axis                     [deg]
#   7 A_WORLD                Profile RMS along major axis (world units)                 [deg]
#   8 B_WORLD                Profile RMS along minor axis (world units)                 [deg]
#   9 THETA_WORLD            Position angle (CCW/world-x)                               [deg]
#  10 FWHM_WORLD             FWHM assuming a gaussian core                              [deg]
#  11 ELONGATION             A_IMAGE/B_IMAGE                                           
#  12 ELLIPTICITY            1 - B_IMAGE/A_IMAGE                                       
         1 -15.0246     96.2564     71.6192   9.3902037860e+01   4.9452730013e+01     2.052303     1.166624  25.80  0.003372469    2.365    0.577
         2 -14.9484     69.9301     56.2675   9.7607145317e+01   5.6943828715e+01     1.357054     1.190936 -22.30  0.007073534    1.044    0.043
         3 -14.5049     36.8950     82.8602   1.1658945585e+02   5.5237316081e+01      2.73429    0.8345798 -50.95   0.01112697    2.610    0.617
         4 -14.8746     45.0197     43.2726   1.0261064782e+02   6.2799078610e+01     2.196423     1.356876  -5.92  0.009856956    2.146    0.534
         5 -14.7390      7.9500     20.9609   1.1150451566e+02   7.0314379046e+01     1.789858    0.6323377 -44.03  0.009227509    2.044    0.511
         6 -11.8335    110.7406      4.1984   6.4072665207e+01   5.6579534490e+01    0.6211154    0.3550204  11.93  0.002871934    2.116    0.527
         7 -12.2846    104.6242      4.2864   6.5550406292e+01   5.7967479237e+01    0.5852765    0.5070859  39.42  0.002597323    1.061    0.058
         8 -12.2141     75.7067     13.4177   7.8117707685e+01   6.2962211522e+01    0.4878238    0.3878112 -10.63  0.001531726    1.146    0.128
         9 -12.3486     95.6119      3.6091   6.7539532533e+01   6.0020570543e+01      0.69441    0.4492625  -2.04  0.003684886    1.621    0.383
        10 -13.4960     87.1936      2.9325   6.9555766720e+01   6.1864835855e+01     1.351057    0.6939673  46.84  0.006720381    1.735    0.424
        11 -11.9571     82.2071     13.8034   7.6138218068e+01   6.1680687587e+01    0.3509859    0.2797275   0.01  0.001090131    1.150    0.130
        12 -12.7979     87.3141     11.6534   7.3555290310e+01   6.0919655564e+01    0.6148173    0.4539818  73.49  0.002075242    1.974    0.493
        13 -12.7184     83.7618     22.6339   7.9591919620e+01   6.0243545215e+01    0.6029271    0.4848355 -22.88  0.001053031    1.197    0.164
        14 -11.4137     64.7889     17.9323   8.4177368299e+01   6.4283234399e+01    0.4322388    0.2618127  23.48  0.001740894    1.757    0.431
        15 -11.6937     32.7464      4.0610   9.1156013080e+01   7.0824373209e+01    0.4430399    0.2672192  18.82  0.001839272    1.690    0.408
        16 -10.8280     33.2409     10.6903   9.4297109425e+01   6.9798775258e+01    0.2859649    0.1851861 -11.00   0.00144185    1.489    0.328
        17 -11.8171     29.7997     16.5942   9.8754422366e+01   6.9246598616e+01     0.378743    0.2801223  -0.19  0.001846542    1.304    0.233
        18 -11.5352     28.5451     11.1585   9.6835152200e+01   7.0252341064e+01    0.3808122    0.2214479 -44.10  0.001288154    1.666    0.400
        19 -11.4646    115.3428     11.5324   6.6045880851e+01   5.4797698487e+01    0.4309474    0.2603566 -35.41  0.002114887    1.787    0.440
        20 -12.3985    185.7808     11.4640   5.4005284238e+01   3.7042467360e+01    0.4566889    0.3207478  73.23  0.002380032    1.342    0.255
        21 -12.2602    123.9712     10.3193   6.3651961017e+01   5.2872463950e+01    0.5031337    0.2674874  49.53 0.0005947055    1.670    0.401
        22 -10.4065    150.3152      8.4438   5.8067050620e+01   4.6489471033e+01    0.2682383    0.1759338  47.46 0.0009747375    1.428    0.300
        23 -11.5366    193.3505      7.7078   5.2015289659e+01   3.5474167622e+01     0.272257    0.2125503  56.74 0.0009297026    1.262    0.207
        24 -11.3355    192.6834      4.6865   5.1222681553e+01   3.5934949441e+01    0.2486355    0.2062762  70.00 0.0007314796    1.127    0.113
        25 -11.8432    138.4670      4.8161   5.8768870264e+01   4.9821114400e+01    0.7003323    0.2993825  50.69  0.002483611    2.035    0.509
        26 -11.7582     73.1153      1.5111   7.3219670078e+01   6.4793507921e+01    0.2418726    0.1422091  47.61 0.0004098781    1.639    0.390
        27 -12.9658    219.1880    121.2429   7.8877395615e+01   1.2923301116e+01    0.5988176    0.2317599  43.97  0.002208509    2.668    0.625
        28 -10.6204    120.4844    103.9673   9.6216096320e+01   3.7971212354e+01    0.2373781    0.1453044 -46.03 0.0008841719    1.598    0.374
        29 -10.6382    134.4296     99.2136   9.1298296573e+01   3.6067431381e+01    0.3135737    0.2528204   9.22  0.001502127    1.522    0.343
        30 -11.4550    141.3908     97.3003   8.9019849941e+01   3.4932285907e+01    0.4127341    0.2639509 -23.50  0.001695218    1.990    0.498
        31 -10.8454    114.0849     97.0192   9.6108180339e+01   4.0734208360e+01    0.3515181    0.2534124 -56.85 0.0009025529    1.456    0.313
        32 -11.3720    188.1721    197.7085   1.0068982082e+02   6.6003002804e+00    0.3608778    0.2211213  34.95  0.001918677    1.446    0.308
        33 -12.9295     38.4796     33.3372   1.0172240907e+02   6.5402321715e+01    0.8033185    0.4452765  31.74  0.003815606    2.038    0.509
        34 -14.7220     81.9104     66.7901   9.6954471691e+01   5.2943063395e+01     1.730394     1.154592  -1.60  0.007829294    2.234    0.552
        35 -14.8073     61.1812     70.5338   1.0515058135e+02   5.5241137417e+01     1.544555     1.123076  36.64  0.007026345    1.549    0.354
        36 -10.9865     33.8483    177.2996   1.3006821117e+02   3.4299888239e+01    0.2276717    0.1499747   2.26  0.001214241    3.196    0.687
        37 -12.9106     69.4609     91.2555   1.0786892363e+02   4.9548782761e+01    0.6225409    0.4515747 -70.79  0.003293457    1.481    0.325
        38 -10.6825    188.2284     94.5228   7.7854818669e+01   2.4515020286e+01    0.3045954     0.239665 -64.38  0.001005632    1.525    0.344
        39 -11.3709     83.7429     94.5756   1.0427606452e+02   4.6675999598e+01    0.2639116     0.142129  32.07  0.001147255    2.140    0.533
        40 -12.6119      4.9858     83.8823   1.2732312628e+02   5.7337422597e+01    0.6023546    0.3153188 -56.34  0.003555442    1.509    0.337
        41 -12.1021    122.0071     80.6935   8.9242285444e+01   4.2498490145e+01    0.3624816     0.225247 -40.87  0.001599294    1.573    0.364
        42 -10.0574    149.0737     80.2303   8.2216973239e+01   3.6487203762e+01    0.3705231    0.2134112  -9.47 0.0009251454    3.563    0.719
        43 -12.3673    144.1494     74.9238   8.1778720812e+01   3.8628153666e+01     0.545716    0.3209482 -23.13 0.0009136945    2.096    0.523
        44 -12.5419      2.6978     74.8485   1.2672409157e+02   5.9459130189e+01    0.6201532    0.1439079 -62.05  0.002685714    2.644    0.622
        45 -11.5765    128.1375     81.8689   8.7953655732e+01   4.0943607490e+01    0.3926177    0.2929748 -73.01  0.001320397    1.841    0.457
        46 -10.1807    250.0957     74.3676   6.2723149554e+01   1.3471481481e+01    0.2178225    0.1712282 -21.54  0.000445736    1.247    0.198
        47 -11.7577    202.9858    172.0183   9.3085957496e+01   7.8964373524e+00    0.3532078    0.2112264 -34.44  0.001746167    1.751    0.429
        48 -13.1000    117.4144     68.2606   8.6601147918e+01   4.5891869242e+01     0.520375    0.3726679   1.60  0.001837235    1.896    0.473
        49  -9.9006    182.6684     72.0299   7.2623281408e+01   2.9712915811e+01    0.2049401    0.1887145 -29.56 0.0005065177    1.079    0.073
        50 -11.1685    197.7685    167.9012   9.3270791035e+01   9.5576936640e+00    0.2579398    0.1868879  69.26  0.001245074    2.104    0.525
        51 -11.1340      8.3668     65.2464   1.2306081038e+02   6.1268512921e+01    0.2418546    0.1729853 -55.69  0.001627931    1.093    0.085
        52 -10.4787    169.8671     63.1533   7.2471317360e+01   3.4365242154e+01    0.2370715    0.2226987  38.28 0.0004800483    1.066    0.062
        53 -11.7566    165.8955     62.9502   7.3211058103e+01   3.5395114344e+01     0.282462    0.2327792  55.95  0.000316212    1.210    0.174
        54 -10.6412    214.6312     61.1258   6.4191305789e+01   2.3498128603e+01    0.3287872    0.2276964  -9.99  0.001529164    1.771    0.435
        55 -12.4338    124.9134     57.8176   8.1077043286e+01   4.6131109853e+01    0.4304534     0.307169  49.25 0.0009250223    1.411    0.291
        56 -12.2240     58.4327     57.0247   1.0203503246e+02   5.8421417109e+01    0.3027906    0.2173353 -57.70 0.0009325314    1.470    0.320
        57 -10.3274    174.8008     56.3615   6.9439661513e+01   3.4183139640e+01    0.2349846     0.200393 -45.47 0.0005806866    1.192    0.161
        58 -11.8927    133.6961     53.9069   7.7500802338e+01   4.4757405969e+01    0.4674614     0.321437  65.34  0.001268765    1.693    0.409
        59 -11.7636     92.6068     52.9779   8.8775179779e+01   5.3713825845e+01    0.2642242    0.2307155  -4.51 0.0003323098    1.120    0.107
        60 -13.0871      3.3703     46.6652   1.2111225492e+02   6.5487074321e+01     0.704322    0.5277649 -87.13  0.002195952    1.562    0.360
        61 -10.8860    185.8415    167.2963   9.5513591053e+01   1.1973927924e+01    0.2227267    0.1730602  56.91 0.0008522479    1.453    0.312
        62 -12.2852     21.8866     22.5766   1.0516343943e+02   6.8978118120e+01    0.5822182    0.3164192   1.56  0.003161676    2.346    0.574
        63 -11.2892    145.4245     50.8139   7.3690207327e+01   4.2421639685e+01    0.3279199    0.2769864 -39.18  0.000843232    1.213    0.176
        64 -11.5015     97.4909     51.4442   8.6683026928e+01   5.3051205796e+01    0.2540305    0.2079142 -20.13 0.0007941361    1.186    0.157
        65 -11.4396    101.0357     49.4534   8.4869476674e+01   5.2694006689e+01    0.3365833    0.1941401  41.88 0.0009768553    1.758    0.431
        66 -11.9854     89.0299     48.2170   8.8194311852e+01   5.5231771237e+01    0.3074245    0.2582596 -73.13  0.001660342    1.658    0.397
        67  -9.8622    176.7573     45.9443   6.5883177436e+01   3.5212179902e+01    0.1895997    0.1268515 -27.45 0.0005099617    1.540    0.351
        68 -11.4102    157.4400     43.6041   6.8741705467e+01   4.0487928647e+01    0.2968939    0.2581845  20.74 0.0006325493    1.218    0.179
        69 -10.3255    122.2087     43.9325   7.6886412167e+01   4.9018631986e+01    0.2330255    0.1876833   8.86  0.001192387    1.339    0.253
        70 -10.4246    181.9925     43.5150   6.4247474817e+01   3.4203983778e+01    0.2221979     0.141953  60.69 0.0004542933    1.526    0.345
        71 -11.7570    216.8644     38.9210   5.7895194101e+01   2.5997736707e+01    0.5232319    0.2674752  56.19  0.001445944    1.954    0.488
        72  -9.2113    197.2889     41.3035   6.1208669904e+01   3.0585886755e+01    0.1445727    0.1100876  27.89 0.0005218972    1.566    0.362
        73 -11.0869     25.9320     38.2471   1.0899509340e+02   6.5695616964e+01    0.2195834    0.1488746 -16.96  0.001349513    1.541    0.351
        74  -9.3066    130.4837     37.5049   7.2489681546e+01   4.8027770160e+01    0.1468906    0.1372415  23.11 4.064729e-05    1.017    0.017
        75 -12.0137     82.8678     33.1581   8.4359172172e+01   5.8871972838e+01     0.414784    0.3221867   9.54  0.001137241    1.301    0.231
        76 -12.3781     79.2530     30.1171   8.4327619572e+01   5.9999497800e+01    0.5122253    0.3741177 -16.38  0.001710521    1.318    0.241
        77 -10.8099    176.6002     33.3755   6.2009492499e+01   3.6933238761e+01    0.2678245    0.2301673  48.11 0.0006833287    1.157    0.136
        78 -10.8645     25.4374     32.3003   1.0716521829e+02   6.6881162117e+01    0.3764644    0.1782259 -26.99  0.001819203    2.439    0.590
        79 -11.0656    242.0560     23.2345   5.1170760317e+01   2.1913553422e+01    0.3878726    0.2285411 -56.80  0.001496461    1.657    0.396
        80 -12.4532    215.7557    162.3142   8.8707255339e+01   6.9978401622e+00    0.4028518    0.2776768  13.27  0.002048856    1.626    0.385
        81 -10.1408    240.6687    159.3091   8.3666910639e+01   2.8238668252e+00    0.1204272    0.1075835 -68.33  0.000704135    1.668    0.400
        82 -11.8482    199.4537    155.4741   9.0366453649e+01   1.1293613876e+01    0.4270724    0.2233322 -47.45  0.001814016    2.268    0.559
        83 -11.9725    233.0154    153.9400   8.3844429815e+01   5.0114202922e+00    0.3086297    0.2240079  37.84  0.001515307    1.359    0.264
        84 -12.1956     18.9522    153.5686   1.3128148188e+02   4.0773574593e+01    0.2725721    0.2678733  75.10  0.002152405    1.366    0.268
        85 -11.1909    190.0022    152.9950   9.1713081599e+01   1.3626582992e+01    0.3475653    0.2120992 -46.17  0.001603764    1.811    0.448
        86 -12.2652    247.4590    145.9597   7.9700997580e+01   3.5081015928e+00    0.6751778    0.4317876 -48.16  0.003393994    1.997    0.499
        87 -10.4304    139.0659    152.1662   1.0258294937e+02   2.4025125331e+01    0.2217369    0.1986141  10.45 0.0008027605    1.267    0.211
        88 -10.4509    140.5490     21.0472   6.4304735986e+01   4.7654479596e+01    0.2920825    0.1966603  59.18 0.0007014303    1.399    0.285
        89 -10.5361    150.9658     20.0969   6.2005189404e+01   4.5126124531e+01    0.2369644    0.1573349  30.19 0.0006841685    1.686    0.407
        90  -9.2341    129.6647     20.2865   6.6275379501e+01   5.0429250141e+01    0.1395372    0.1098033 -70.46 0.0006709201    1.627    0.385
        91 -10.3069    209.0034     18.4995   5.3289097657e+01   3.0389807407e+01    0.2046034    0.1857455 -49.72   0.00071659    1.088    0.081
        92 -11.6912     58.5613    144.6521   1.2087662043e+02   3.8657573769e+01    0.4927242    0.3017746  73.79  0.002535727    1.851    0.460
        93 -13.1344     49.7187    142.0142   1.2272425458e+02   4.0298838031e+01    0.8185339    0.5264091  36.60  0.004607587    1.694    0.410
        94  -9.6724     90.3154    145.3393   1.1305229873e+02   3.4086154865e+01    0.1348315    0.1066942 -26.88 0.0007047919    1.702    0.412
        95 -12.1356    213.5558    142.3544   8.4800795038e+01   1.0628288390e+01     0.741484    0.3639404  53.77  0.003025836    2.385    0.581
        96 -12.1574     75.9505    139.4834   1.1569884698e+02   3.7544331479e+01    0.6506969    0.1947086 -59.31   0.00236141    3.035    0.670
        97 -12.1379    193.8310    137.0472   8.7394751614e+01   1.5644331848e+01    0.6152727    0.4194915  16.42  0.002778603    1.870    0.465
        98 -13.5731    203.4908    124.8079   8.2620904947e+01   1.5708987096e+01    0.8620993    0.8063039 -53.39  0.004828026    1.194    0.162
        99 -11.6650     34.0349    135.9113   1.2589525000e+02   4.3328179364e+01    0.2878785    0.1605733  37.03  0.001608517    1.935    0.483
       100 -11.3624     82.1328    134.1073   1.1317531096e+02   3.7877961441e+01    0.2612149    0.1833479 -67.88  0.001376718    1.369    0.269
       101 -11.3531    224.0586    134.1349   8.1033230388e+01   9.8218043354e+00    0.4086449    0.1952679  44.25  0.001731907    2.106    0.525
       102 -11.4293    122.3337    127.4954   1.0142388791e+02   3.2492360681e+01    0.3980895    0.3753775 -81.54  0.001395366    1.066    0.062
       103 -10.7221     64.3765    129.7314   1.1711493877e+02   4.1349011981e+01    0.2514645    0.1549405 -56.35  0.001306954    1.502    0.334
