#   1 NUMBER                 Running object number                                     
#   2 MAG_AUTO               Kron-like elliptical aperture magnitude                    [mag]
#   3 X_IMAGE                Object position along x                                    [pixel]
#   4 Y_IMAGE                Object position along y                                    [pixel]
#   5 X_WORLD                Barycenter position along world x axis                     [deg]
#   6 Y_WORLD                Barycenter position along world y axis                     [deg]
#   7 A_WORLD                Profile RMS along major axis (world units)                 [deg]
#   8 B_WORLD                Profile RMS along minor axis (world units)                 [deg]
#   9 THETA_WORLD            Position angle (CCW/world-x)                               [deg]
#  10 FWHM_WORLD             FWHM assuming a gaussian core                              [deg]
#  11 ELONGATION             A_IMAGE/B_IMAGE                                           
#  12 ELLIPTICITY            1 - B_IMAGE/A_IMAGE                                       
         1 -15.0640      2.5227     85.7826   1.0757603890e+02   5.8553068160e+01     3.619359    0.3812276 -66.47  0.009723986    6.038    0.834
         2 -14.8899      4.8861     54.4734   9.9528924536e+01   6.5306374306e+01     1.362959    0.6934145 -62.78  0.007139362    1.962    0.490
         3 -13.6916    128.2005     36.4741   4.7790817538e+01   4.8086892976e+01    0.7733949    0.6682301  -0.18  0.003620592    1.332    0.249
         4 -14.5758      8.0883      7.5021   7.9835076192e+01   7.3198784967e+01     1.448747    0.8074598   0.02  0.008776288    1.719    0.418
         5 -13.1572    235.1150      5.7811   2.7287322406e+01   2.7719211478e+01    0.2641689    0.1731043  68.00  0.001795851    1.611    0.379
         6 -13.1181     86.0778    219.4430   1.0238186178e+02   1.6745396612e+01    0.9571378    0.5768865  71.40   0.00435058    2.217    0.549
         7 -13.7252    101.0195    248.0357   1.0241504914e+02   8.7133082842e+00     1.587247    0.7282814  20.98  0.006357042    3.080    0.675
         8 -18.3620     16.7943    229.9832   1.1876308956e+02   2.2726436004e+01     4.235371     2.857399  88.08   0.02705527    1.304    0.233
         9 -12.0880    122.8772    221.7339   9.4057298780e+01   1.0767148891e+01    0.4474787    0.3141932  26.82  0.002342412    1.371    0.271
        10 -13.5961    165.1363    211.1498   8.2680024700e+01   6.1926980409e+00    0.7383528    0.5899347  27.34  0.003695981    1.179    0.152
        11 -14.6604    126.2538    187.3055   8.7579781288e+01   1.7773745428e+01     1.218269    0.6893211 -47.27  0.005268274    1.788    0.441
        12 -13.9141     53.8233    184.5300   1.0601885796e+02   2.9307891290e+01     1.063418    0.9289558 -29.07  0.005820358    1.364    0.267
        13 -12.8709    178.4583    188.6431   7.5557428316e+01   8.4426721843e+00    0.2701304    0.2395487  26.92  0.001528052    1.155    0.134
        14 -13.6335     60.6840    173.2238   1.0265504059e+02   3.1299806712e+01    0.6633564    0.4218057 -52.52  0.003202958    1.544    0.352
        15 -15.2353    132.9129    168.8735   8.2339885902e+01   2.0871921677e+01     1.529739    0.8808508  34.26  0.006414457    1.766    0.434
        16 -15.0877    130.0407    157.4271   8.0685633730e+01   2.4092751084e+01    0.9132591    0.8871163 -10.83  0.004917531    1.011    0.011
        17 -12.4884     71.2744    160.9723   9.7750100347e+01   3.3015541977e+01    0.5526002    0.3657833 -82.17  0.002491808    1.774    0.436
        18 -13.7586     54.2048    167.5052   1.0363134546e+02   3.3567238086e+01    0.7483321     0.462994 -30.45   0.00332526    2.199    0.545
        19 -11.7413     69.6467    152.6443   9.6775970473e+01   3.5385164435e+01     0.311207     0.223085 -29.13 0.0006479244    1.661    0.398
        20 -13.8898     58.9048    159.8810   1.0114610532e+02   3.4945036596e+01    0.8239258    0.6620046  24.51  0.003482383    1.369    0.269
        21 -14.7062    162.7087    139.1852   6.8473920067e+01   2.1807357310e+01    0.8994951    0.6465616 -62.23  0.004077514    1.662    0.398
        22 -14.1564    166.0254    131.9053   6.5996323428e+01   2.2682817486e+01    0.5383527    0.4356016  24.70  0.002667323    1.375    0.273
        23 -14.1207    150.8012    132.1579   6.9610172150e+01   2.5779958973e+01    0.5512791    0.4811789  38.54  0.002809939    1.179    0.152
        24 -12.2451    105.6548    115.8238   7.7682584702e+01   3.8611051496e+01    0.5721585    0.4796616  55.22  0.002297075    1.324    0.245
        25 -12.7978     72.2268    243.8860   1.0819367999e+02   1.3433075678e+01    0.4471993    0.2903601 -56.34  0.002556616    1.740    0.425
        26 -13.6507    127.2544    236.5254   9.5181685138e+01   7.1377372920e+00     1.257092    0.7314036  19.90  0.005987042    1.931    0.482
        27 -12.3885    143.6822     97.5398   6.2406963661e+01   3.4605855457e+01    0.5765014    0.4162097  64.88   0.00265313    1.618    0.382
        28 -13.5625    134.8011     95.3932   6.4004768376e+01   3.6998829405e+01    0.7426162    0.5585419   7.12  0.003368848    1.794    0.443
        29 -12.6928    113.5462     93.4092   6.9184034206e+01   4.1965580693e+01     1.013143     0.373261  44.16  0.003434796    2.715    0.632
        30 -12.9600    124.3711    101.1404   6.8349723389e+01   3.8080767353e+01    0.7359921    0.4011522 -36.84  0.002938703    1.931    0.482
        31 -12.9510    107.7008     86.8236   6.8950394269e+01   4.4511570729e+01    0.7237889    0.5196491  78.29  0.003095273    2.250    0.556
        32 -11.5092     79.6323    102.0689   8.2316690830e+01   4.6451225833e+01    0.4842291    0.3064267  18.41  0.002102358    1.905    0.475
        33 -12.5858     92.8747     80.8996   7.1729337540e+01   4.8642236893e+01    0.8424335    0.5035812  26.63  0.003617031    1.935    0.483
        34 -12.4529     91.4394     73.6107   6.9883397114e+01   5.0332317138e+01    0.4266149    0.3227579 -75.71  0.001991984    2.087    0.521
        35 -12.1027    105.4078     75.7837   6.6239871053e+01   4.7120337584e+01    0.6992345    0.3535431 -51.02  0.002738314    2.401    0.583
        36 -13.4805     83.9270     62.5076   6.8674639430e+01   5.3791847558e+01    0.7224765    0.5147548  54.92  0.003046753    1.687    0.407
        37 -12.7465     91.9916     60.1568   6.5224749999e+01   5.2627174410e+01    0.8581656    0.5178269 -36.06  0.003739976    1.706    0.414
        38 -12.6146     54.0551     59.1857   7.8680957129e+01   5.9404152563e+01     0.459108    0.2894568  37.73  0.002367225    1.683    0.406
        39 -13.7551    144.7933     51.7604   4.9082044570e+01   4.2184241406e+01    0.9437927    0.6065205  71.03  0.003600284    1.672    0.402
        40 -13.0425    192.4230    233.2914   8.0691552237e+01  -1.9001574990e+00    0.3693045    0.2223031 -22.07  0.001930155    1.759    0.432
        41 -13.4308    101.4335    226.8598   9.9743137047e+01   1.2926734521e+01    0.6579552    0.4221785  30.14  0.003390652    1.489    0.329
