#   1 NUMBER                 Running object number                                     
#   2 MAG_AUTO               Kron-like elliptical aperture magnitude                    [mag]
#   3 X_IMAGE                Object position along x                                    [pixel]
#   4 Y_IMAGE                Object position along y                                    [pixel]
#   5 X_WORLD                Barycenter position along world x axis                     [deg]
#   6 Y_WORLD                Barycenter position along world y axis                     [deg]
#   7 A_WORLD                Profile RMS along major axis (world units)                 [deg]
#   8 B_WORLD                Profile RMS along minor axis (world units)                 [deg]
#   9 THETA_WORLD            Position angle (CCW/world-x)                               [deg]
#  10 FWHM_WORLD             FWHM assuming a gaussian core                              [deg]
#  11 ELONGATION             A_IMAGE/B_IMAGE                                           
#  12 ELLIPTICITY            1 - B_IMAGE/A_IMAGE                                       
         1  -9.6127    188.0683     16.9717   6.8372769585e+01   3.5745801132e+01    0.4288597    0.1904388  16.61  0.001258139    4.164    0.760
         2 -11.0533    188.9447     12.0033   6.6582033748e+01   3.6001403110e+01    0.2331406    0.1950598 -25.39 0.0003433167    1.181    0.153
         3 -10.2088    155.8299     12.1093   7.1520675261e+01   4.4833543793e+01    0.2248255    0.1659879  29.16  0.001084532    1.358    0.264
         4  -9.5049    150.9780     11.6210   7.2170753394e+01   4.6160331679e+01    0.5434007    0.2020393  -6.53   0.00125053    4.186    0.761
         5 -10.3027    149.6053      5.9903   7.0181286638e+01   4.7072367334e+01    0.4344903    0.1688625 -44.38  0.001444417    3.248    0.692
         6 -12.1760    196.0948      9.8165   6.4972347689e+01   3.4304080625e+01    0.3515251    0.2350117 -13.41  0.001032332    1.508    0.337
         7 -11.0595    199.6063      6.7944   6.3586340335e+01   3.3648351026e+01    0.2469966     0.193296 -51.92  0.001045179    1.347    0.257
         8 -12.7921    196.3227      3.1480   6.2767135068e+01   3.4835452195e+01    0.4201882    0.2990185 -12.49  0.001631801    1.420    0.296
         9 -12.4703    123.8172      8.6716   7.6303861264e+01   5.3380773277e+01    0.4444765     0.245541  70.00  0.001858643    2.217    0.549
        10 -10.6567    107.1262      7.7984   7.9887237513e+01   5.7431596460e+01    0.2050493    0.1932392 -30.69 0.0005604594    1.212    0.175
        11 -10.4792     38.4929      2.5121   1.0196941691e+02   7.0608370017e+01    0.1265191   0.09788341 -22.32 7.157173e-05    1.013    0.013
        12 -14.6318    179.8509     74.2566   8.8326480478e+01   3.0320042205e+01     2.359668     1.389768 -44.11  0.009954137    1.849    0.459
        13 -13.9164    161.1620     67.1317   8.9975269732e+01   3.5967314088e+01    0.6582554    0.5668789  48.19  0.002459028    1.189    0.159
        14 -19.0465    231.8900     74.2370   7.9473904539e+01   1.7942453921e+01     17.48036     8.093231 -32.54   0.07261888    1.983    0.496
        15 -11.0335    133.6133    145.8714   1.1568486330e+02   2.7446324347e+01    0.5592354    0.1273516 -53.14  0.001532139    6.402    0.844
        16  -9.8019    101.1760    136.8414   1.2130383190e+02   3.4545300637e+01    0.1587534    0.1497053 -20.42 0.0003746551    1.292    0.226
        17 -11.8362    136.7563     88.7685   1.0206937643e+02   3.7637989066e+01    0.3388818    0.2998556  83.13 0.0009376539    1.341    0.254
        18 -12.8677    148.6263     82.1862   9.7371205130e+01   3.6284735027e+01    0.3460512    0.2780706 -34.63 0.0006036881    1.220    0.181
        19 -10.9554    155.0249    133.1334   1.0862965359e+02   2.5752078186e+01    0.2066859    0.1952578  48.66 0.0006281098    1.069    0.064
        20 -11.2166    136.0000    130.0541   1.1212698816e+02   2.9923948448e+01    0.4683431    0.1102514 -49.03  0.001387506    4.742    0.789
        21  -9.7186    113.0070     71.9622   1.0331122645e+02   4.5725508441e+01    0.1761636    0.1572343 -37.12 0.0003173054    1.057    0.053
        22 -12.0510    135.0098    118.5791   1.0990680430e+02   3.2276848377e+01    0.6693527     0.183433 -44.79  0.002154614    3.733    0.732
        23 -12.9088    131.6889     65.6153   9.6368700783e+01   4.3041146182e+01    0.8143442     0.326074 -35.31  0.002905398    2.458    0.593
        24 -12.5896    134.5916    107.5831   1.0746079520e+02   3.4468266765e+01     1.211651    0.2422639 -44.73  0.003258357    5.023    0.801
        25 -13.0442    160.8061    128.1347   1.0633489851e+02   2.5480924260e+01    0.4510986    0.3979146  18.05  0.002022685    1.141    0.123
        26 -13.1877    191.2247     57.9420   8.1238589202e+01   2.9925986211e+01    0.9492722    0.7080102 -12.29  0.004164402    1.347    0.258
        27 -14.1666    167.2676    114.7844   1.0189821048e+02   2.6452779127e+01    0.8989502     0.660997  16.15  0.003694638    1.600    0.375
        28 -12.1119    125.3199     55.7078   9.4675860717e+01   4.6211314248e+01    0.4084759    0.2796979 -77.06  0.001634918    2.657    0.624
        29 -12.2740    166.7774    105.2135   9.9626921497e+01   2.8203648339e+01    0.3039393    0.2673498 -82.90  0.001618337    1.439    0.305
        30 -12.8955    120.3551    103.1890   1.0986233699e+02   3.8064250698e+01    0.4069542     0.346185 -55.73  0.002279142    1.178    0.151
        31 -10.7926    111.8393    104.1202   1.1222680857e+02   3.9425557329e+01    0.1902586    0.1663765 -18.77 0.0007874144    1.314    0.239
        32 -11.7217    205.1559     38.6606   7.3013605235e+01   2.8869121841e+01    0.7850248    0.4645798 -51.80   0.00329955    2.030    0.507
        33 -10.9986    203.2470     43.0258   7.4650252495e+01   2.8830786050e+01    0.5683438    0.3851512 -76.31  0.002459394    2.101    0.524
        34 -12.7904    202.3032     49.6492   7.6843930456e+01   2.8239535286e+01    0.3409674    0.2726236 -63.58  0.001135027    1.517    0.341
        35 -12.7038    204.3367     47.3093   7.5810960288e+01   2.8021652263e+01     0.310899    0.2560418  39.99 0.0006611249    1.217    0.178
        36 -11.8072    213.1024     47.9606   7.4713162848e+01   2.5735608601e+01    0.3633717    0.2629746  72.42  0.001324589    1.604    0.377
        37 -11.4176    185.1079     59.8748   8.2931519206e+01   3.1186294821e+01    0.3804769    0.2667919 -51.36   0.00110672    1.683    0.406
        38 -11.8142    143.8770     99.4467   1.0323998252e+02   3.4133140262e+01    0.3462725    0.2884078 -10.04 0.0006130004    1.342    0.255
        39 -10.9656    138.9993    103.6737   1.0546022012e+02   3.4337692664e+01    0.2047335    0.1835582  41.53 0.0004468878    1.112    0.100
        40 -10.2826    164.9856     45.5062   8.2036573944e+01   3.8336780659e+01    0.2292867    0.1969713 -18.96   0.00116246    1.124    0.110
        41 -10.0587    181.2070     44.9738   7.8842188287e+01   3.4250891336e+01    0.2067504    0.1807469 -11.52            0    1.102    0.092
        42 -11.1905    131.2893     96.1328   1.0538646654e+02   3.7343759004e+01    0.2546054    0.2289968  70.85 0.0004077773    1.231    0.188
        43 -11.2128    175.9108     38.4796   7.7594703860e+01   3.6476632563e+01    0.2442497    0.1949607 -40.37 0.0003500328    1.300    0.231
        44 -13.1471    152.5773     92.3033   9.9328651901e+01   3.3586303191e+01    0.7007212    0.4717081  21.53  0.003096466    1.900    0.474
        45 -10.3210    189.8553     35.8902   7.4415679817e+01   3.3162838070e+01    0.2248101    0.1635108 -46.41 0.0008527202    1.485    0.326
        46 -11.4661    204.1203     31.0102   7.0762427181e+01   3.0019143930e+01    0.3581713    0.2296247 -49.12  0.001604179    1.731    0.422
        47 -12.2520     99.6696     30.7774   9.2337357093e+01   5.5879283093e+01    0.2608168    0.2454515  21.24 0.0009378525    1.135    0.119
        48 -11.4455    195.7079     29.3510   7.1404846730e+01   3.2397396978e+01    0.2368719    0.1953218 -30.14 0.0005633101    1.188    0.158
        49 -11.7530     95.8995     25.1110   9.1041215853e+01   5.7535945487e+01    0.3042944    0.1706352 -34.48  0.001110652    1.647    0.393
        50 -10.3849     61.8248     25.1450   1.0296475059e+02   6.3548977587e+01    0.1903537    0.1425121 -14.99  0.001083169    1.333    0.250
        51 -12.0503    101.6158     22.6101   8.8222406253e+01   5.6724295366e+01    0.2806573     0.215248 -15.33  0.001478687    1.215    0.177
        52 -12.1108    152.8144     19.8812   7.5047576511e+01   4.4785624202e+01     0.290585    0.2400495  -9.54 0.0004222853    1.182    0.154
        53 -10.5734    169.8254    228.1229   1.2097038078e+02   9.4468515327e+00    0.2421422    0.1156512  51.21  0.001014405    2.001    0.500
        54 -15.4161     34.0278    194.8388   1.4109187045e+02   3.2018201005e+01    0.8403358    0.7483749  50.81  0.003585001    1.425    0.298
        55 -15.0841     20.4249    200.8113   1.4370392266e+02   3.2309300330e+01     1.794873    0.6802847  64.66   0.01105331    2.232    0.552
        56 -14.5436      9.4084    206.2287   1.4571493578e+02   3.2400830414e+01     1.002299    0.5170612  62.71  0.007818209    1.393    0.282
        57 -11.3713    192.3107    194.1591   1.1254581119e+02   9.9255644080e+00    0.7225851    0.3780687 -60.68  0.002201929    9.339    0.893
        58 -13.2209     68.0712    144.5843   1.2996231778e+02   3.7597562319e+01     2.828125     1.137554  65.07  0.009400385    5.056    0.802
        59 -13.9295     58.4923    174.6714   1.3513772488e+02   3.2966392521e+01    0.5898108    0.4709359 -12.01 0.0009847041    2.308    0.567
        60 -15.0562     65.0599    169.1442   1.3332663118e+02   3.3215224157e+01     1.361516     1.021318  24.61  0.003238007    1.798    0.444
        61 -14.2072     69.9875    162.4905   1.3163670503e+02   3.3863879223e+01    0.7187774    0.4655821  48.64  0.001404457    1.399    0.285
        62 -10.2933    113.4880     95.0396   1.0960319145e+02   4.0986582186e+01    0.2085894     0.134324 -46.51 0.0003663519    1.498    0.333
