#   1 NUMBER                 Running object number                                     
#   2 MAG_AUTO               Kron-like elliptical aperture magnitude                    [mag]
#   3 X_IMAGE                Object position along x                                    [pixel]
#   4 Y_IMAGE                Object position along y                                    [pixel]
#   5 X_WORLD                Barycenter position along world x axis                     [deg]
#   6 Y_WORLD                Barycenter position along world y axis                     [deg]
#   7 A_WORLD                Profile RMS along major axis (world units)                 [deg]
#   8 B_WORLD                Profile RMS along minor axis (world units)                 [deg]
#   9 THETA_WORLD            Position angle (CCW/world-x)                               [deg]
#  10 FWHM_WORLD             FWHM assuming a gaussian core                              [deg]
#  11 ELONGATION             A_IMAGE/B_IMAGE                                           
#  12 ELLIPTICITY            1 - B_IMAGE/A_IMAGE                                       
         1 -13.5937     11.6655     23.8221   6.9600195811e+01   6.8955177218e+01    0.8504879    0.3598187 -19.41  0.004074824    2.821    0.645
         2 -13.0727     24.8337      4.1082   5.4596459578e+01   7.0109493540e+01     0.565385    0.3202739  11.05  0.003586611    1.571    0.364
         3 -11.8220      1.7239     24.7460   7.4906587819e+01   6.9559916093e+01    0.4917267    0.1212737 -48.16  0.002190039    3.333    0.700
         4 -12.8560     14.8630      9.0733   6.1746660514e+01   7.0651750100e+01    0.8048843    0.2793982 -25.90  0.003738778    3.186    0.686
         5 -13.1542      6.2154     10.9331   6.7019049349e+01   7.1211883553e+01    0.7917871    0.3907056 -23.01  0.004893502    1.723    0.420
         6 -12.5161     10.2348      2.0375   6.0838350302e+01   7.1945103282e+01    0.8833938    0.1650001  29.84  0.003425059    5.076    0.803
         7 -14.5237    246.2195     11.0875   1.2219413192e+01   2.3504899805e+01     1.671893    0.5831698 -46.09  0.008511253    2.366    0.577
         8 -11.7828     26.1152     16.2858   5.9513301052e+01   6.8548953928e+01    0.2645987    0.1307274 -19.91  0.001467278    2.006    0.502
         9 -12.2000     20.0271     13.7818   6.1305899613e+01   6.9534748285e+01    0.3486667    0.1700395 -19.15  0.001962947    2.019    0.505
        10 -10.9029     41.4861      2.4990   4.6602709828e+01   6.8009563912e+01    0.2717121    0.1295839  16.37  0.001388248    2.405    0.584
        11 -12.1032     57.0341    241.9894   9.7114969560e+01   1.5750742518e+01    0.4938901    0.2149889  56.04  0.002303912    2.153    0.536
        12 -11.8569    249.9950    232.7120   5.5475509060e+01  -1.2994337157e+01     0.361452    0.1802213 -34.69  0.001924587    1.832    0.454
        13 -11.1394    248.8655    250.0056   5.8728185829e+01  -1.5274513049e+01    0.3991315    0.1858098  27.73  0.002128502    1.994    0.499
        14 -11.1755    248.9652    245.1618   5.7870168825e+01  -1.4627057434e+01    0.3423951    0.2013021 -15.73   0.00198581    1.604    0.377
        15 -12.7173    242.7866    245.7003   5.9098826030e+01  -1.3910944420e+01    0.6764083    0.3338492 -17.47  0.003289969    2.379    0.580
        16 -12.3240    247.4484    239.2994   5.7116086293e+01  -1.3612051265e+01    0.4734752    0.2466947 -18.34  0.002197105    2.033    0.508
        17 -11.7386    226.0614    248.4352   6.2732244343e+01  -1.2051909138e+01    0.3030495    0.1926403  -9.86  0.001724618    1.594    0.372
        18 -12.4506    212.6423    248.0340   6.5285628419e+01  -1.0076790077e+01    0.4572763    0.2694871   6.98  0.002310015    1.990    0.497
        19 -11.3547     74.5274    250.4991   9.4417585204e+01   1.1532376562e+01    0.3589293   0.09174363  41.03  0.001355076    3.062    0.673
        20 -11.8400     65.3149    249.1094   9.6124611988e+01   1.3134622091e+01    0.4426596    0.1995288  49.25  0.002182095    1.855    0.461
        21 -11.2801     50.8849    250.0601   9.9030870973e+01   1.4913443632e+01    0.4266136    0.1491104  42.53  0.001967482    2.330    0.571
        22 -11.4090     45.1129    245.1698   9.9738657172e+01   1.6667273151e+01    0.3769971    0.2125447  66.81  0.001671705    1.607    0.378
        23 -12.0306     36.7729    248.5583   1.0158998506e+02   1.7023101939e+01    0.4693725    0.2269411  58.63  0.002537383    1.773    0.436
        24 -10.6644     27.4334    248.8729   1.0333876526e+02   1.8084030188e+01    0.3140696     0.156426  64.86  0.001748222    1.748    0.428
        25 -12.1867      2.2401    210.5231   1.0549718699e+02   2.8919853880e+01    0.8359302    0.2135264 -80.83  0.003098344    3.824    0.739
        26 -12.2122     16.0086    240.4247   1.0486281083e+02   2.1106895350e+01    0.5892417     0.269767  56.57  0.002449743    1.821    0.451
        27 -11.6422     20.1593    249.0401   1.0466437336e+02   1.8888065848e+01    0.4036829    0.1994537  53.40  0.001893552    1.634    0.388
        28 -11.7226     12.0817    248.8963   1.0608495930e+02   1.9808082436e+01    0.4259144     0.184458  53.45  0.001925221    1.843    0.457
        29 -11.1619      3.3696    250.2589   1.0766270971e+02   2.0453569221e+01    0.2761528     0.155907  40.90  0.001788462    1.756    0.431
        30 -12.3183      3.4180    243.2586   1.0727632511e+02   2.1848822659e+01    0.5366334     0.258422  76.01  0.003107118    1.770    0.435
        31 -11.9151      6.5797    236.3666   1.0632062189e+02   2.2940817388e+01    0.4947545    0.2448027  60.20  0.002903076    1.675    0.403
        32 -11.7909      4.6977    228.3080   1.0617520274e+02   2.4821742688e+01    0.4788669    0.2215636  76.29  0.002076106    1.974    0.493
        33 -11.6949      2.2737    220.9638   1.0617031955e+02   2.6629511175e+01    0.4077733      0.17922 -85.75  0.001717334    1.939    0.484
        34 -11.7610     29.5582    240.7199   1.0236623316e+02   1.9509782337e+01    0.4290626    0.2129336  70.05   0.00222738    1.908    0.476
        35 -12.0796    225.8923    240.9163   6.1460014043e+01  -1.0919885650e+01    0.3089519    0.1581408 -26.55  0.001539254    2.026    0.506
        36 -11.7720     72.4887    240.2906   9.3794324302e+01   1.3926293109e+01    0.3339472    0.1796556  56.76  0.001674084    1.720    0.419
        37 -10.6923     38.1731    240.3771   1.0069269600e+02   1.8540998138e+01    0.3120166    0.1370791  60.87  0.001507191    2.170    0.539
        38 -11.5879    107.4593    240.1201   8.6343323996e+01   8.5294511003e+00    0.3016499    0.1482301  51.71  0.001342283    1.966    0.491
        39 -10.6734     64.9775    240.0004   9.5314174419e+01   1.5066276628e+01    0.2221129    0.1276458  66.50  0.001141363    1.728    0.421
        40 -11.0141     45.1127    237.3464   9.9081029468e+01   1.8307831811e+01    0.3087752    0.1543508  66.26  0.001533463    1.996    0.499
        41 -11.2181     81.8364    236.4619   9.1410454365e+01   1.3342251343e+01    0.2915871    0.1543481  56.48  0.001387472    1.828    0.453
        42 -10.2868     33.0884    236.2081   1.0134866818e+02   2.0040660152e+01    0.2498636    0.1206394  73.81  0.001229472    2.139    0.532
        43 -10.5735     77.4935    246.4904   9.3408250673e+01   1.1907523655e+01    0.1311495    0.1063254  62.90 0.0001018763    1.018    0.017
        44 -11.1493    231.4958    234.4871   5.9240891011e+01  -1.0742635015e+01    0.2283009    0.1032831 -27.88  0.001035364    2.346    0.574
        45 -11.4445     14.2298    231.9939   1.0463925939e+02   2.3064819788e+01    0.4240962    0.2118997  71.46   0.00197371    1.802    0.445
        46 -11.0942     11.2157    225.6997   1.0478629537e+02   2.4725604683e+01    0.3613554    0.1913594  62.20   0.00163842    1.628    0.386
        47 -10.7805     59.7656    231.8954   9.5585411942e+01   1.7530755646e+01    0.2746105    0.1287184  58.45  0.001251976    2.133    0.531
        48 -12.0293     25.8653    228.8211   1.0218466652e+02   2.2469506729e+01    0.5348909    0.2551512  82.09  0.002647353    2.148    0.534
        49 -10.7077     48.6964    230.4003   9.7735666927e+01   1.9342461041e+01    0.3009472    0.1554051  76.73  0.001426967    2.167    0.539
        50 -10.3194     32.3397    229.3041   1.0094641554e+02   2.1614334335e+01    0.2640037    0.1283849  66.26  0.001314097    2.013    0.503
        51 -11.5428    236.8876    228.4155   5.7118901420e+01  -1.0573977215e+01     0.272851    0.1454838 -21.86  0.001346389    1.977    0.494
        52 -12.1598    249.0283    225.3260   5.4309039099e+01  -1.1772068022e+01    0.3803374    0.1831391 -33.25  0.001941626    1.866    0.464
        53 -11.0270     39.7946    230.8548   9.9585976939e+01   2.0374517292e+01    0.3327926    0.1824163  81.61  0.001735935    1.825    0.452
        54 -10.7096    244.0000    224.9653   5.5161861726e+01  -1.1034207532e+01    0.2012121   0.06375168 -38.88 0.0008024067    2.942    0.660
        55 -11.3066     18.6731    221.8466   1.0306990103e+02   2.4785234492e+01    0.3128696    0.1737213  78.03  0.001749629    1.619    0.382
        56 -10.5703     43.6670    221.3199   9.7931448632e+01   2.1998891494e+01    0.2182967    0.1222866  67.79  0.001111517    1.753    0.429
        57 -11.9057     12.0482    216.8578   1.0400989046e+02   2.6573265379e+01    0.4869385    0.2626511  62.95  0.002209893    1.648    0.393
        58 -11.0580     34.6719    217.3099   9.9448774673e+01   2.3999913871e+01    0.2976393    0.1657474  68.61  0.001553446    1.734    0.423
        59 -10.2750     24.5186    217.5010   1.0156037102e+02   2.5115785312e+01     0.236997    0.1302665  68.90  0.001007671    1.696    0.410
        60 -11.9061    248.6854    214.5488   5.2371678957e+01  -1.0064103484e+01    0.3792328    0.1878971 -27.50  0.001850627    1.940    0.485
        61 -10.8617     21.5171    211.4651   1.0168228589e+02   2.6802465098e+01    0.2971115    0.1737633  86.73   0.00165915    1.518    0.341
        62 -10.7488     28.7375    211.3268   1.0016255344e+02   2.6044839748e+01    0.2444336    0.1314015 -89.03  0.001253555    1.755    0.430
        63 -12.7840     12.3896    205.3748   1.0307988226e+02   2.9119342255e+01    0.5527687    0.2948247  66.07   0.00282165    1.760    0.432
        64 -10.3349    247.0000    205.9702   5.1049735090e+01  -8.4498863787e+00    0.2147835   0.06486941 -39.70 0.0008073493    2.977    0.664
        65 -12.2522      3.4664    197.0192   1.0428863790e+02   3.1855834437e+01    0.4520946    0.2272184  76.44  0.002273781    1.899    0.473
        66 -12.3329      3.8978    188.3926   1.0352724311e+02   3.3810587807e+01    0.6056107    0.2657262  72.15  0.002785996    2.533    0.605
        67 -10.2027    250.3812    200.7793   4.9449465884e+01  -8.0872878009e+00    0.1907996    0.1034179 -29.48 0.0009429432    1.673    0.402
        68 -11.6062     17.1337    195.9209   1.0129108139e+02   3.0838722109e+01    0.3010972     0.142895  45.25   0.00154591    2.036    0.509
        69 -11.2053     11.3342    190.8635   1.0211705535e+02   3.2575859011e+01    0.2077897    0.1267132  84.06  0.001120477    1.448    0.309
        70 -11.0839     17.0178    189.5381   1.0074381098e+02   3.2353263076e+01    0.2581671    0.1481209  84.57  0.001371386    1.633    0.388
        71 -10.0472     24.3260    186.6378   9.8805867929e+01   3.2321058448e+01    0.1414238   0.08125759  70.65 0.0007040901    1.791    0.442
        72 -12.2864     11.5437    184.1405   1.0147981002e+02   3.4142157510e+01    0.3699421    0.1857903  89.99   0.00184294    1.881    0.468
        73 -11.8380      5.3291    182.8802   1.0275840243e+02   3.4979747846e+01    0.2787111    0.1772356  83.35  0.001282672    1.370    0.270
        74 -12.1370      1.9096    178.2263   1.0312629917e+02   3.6354458474e+01    0.4648675    0.1918953 -81.77   0.00197605    2.095    0.523
        75 -12.4570      6.4058    171.2707   1.0147511990e+02   3.7645449253e+01    0.3513729    0.1742844 -88.73  0.001742997    1.898    0.473
        76 -12.0587      2.6319    165.4977   1.0182299358e+02   3.9317644106e+01    0.3895707    0.1976507  56.56  0.002016625    2.140    0.533
        77 -10.1762     23.3196    179.6640   9.8323260159e+01   3.4106314842e+01     0.138313   0.08337918  71.03 0.0005938965    1.704    0.413
        78 -10.7844     17.3976    170.1895   9.8742061205e+01   3.6968940679e+01     0.190331     0.103925 -85.01 0.0009501229    1.694    0.410
        79 -11.8779     11.0004    166.5131   9.9912003296e+01   3.8414014475e+01    0.2598814    0.1520344  87.92  0.001384714    1.618    0.382
        80 -11.8050      5.6596    161.1828   1.0067196276e+02   4.0123366097e+01    0.2516401    0.1588331  79.66  0.001424168    1.547    0.354
        81 -12.1168     10.0726    155.8795   9.9011081808e+01   4.1065401152e+01    0.3302295    0.1574559 -84.51  0.001544375    2.049    0.512
        82 -12.2251      3.8146    153.4301   1.0033235727e+02   4.2123875282e+01    0.3374991    0.1519191 -69.20  0.001685963    1.716    0.417
        83 -11.2593      2.1270    143.4206   9.9681035685e+01   4.4643385696e+01      0.22729    0.1206893 -76.57  0.001201667    1.554    0.356
        84 -11.9438      4.0855    136.8968   9.8394733774e+01   4.6079519143e+01    0.3268871    0.1534977 -82.28  0.001541805    2.080    0.519
        85 -11.2514    248.4234    129.6976   3.5430740737e+01   4.7897530174e+00    0.2729084    0.1123427 -45.01  0.001032897    2.089    0.521
        86 -11.5464      3.0851    127.9188   9.7549315430e+01   4.8286562826e+01    0.3185407    0.1554098 -83.10  0.001526927    2.088    0.521
        87 -10.7302    241.5928    125.7794   3.5655649355e+01   6.7644757591e+00    0.2078552    0.1133136 -49.80 0.0009529763    1.692    0.409
        88 -11.8427    248.7638    118.6336   3.3087548943e+01   6.7190009632e+00    0.2975679    0.1601589 -49.55  0.001417362    1.657    0.396
        89 -10.8150    248.4757    106.9855   3.0719512718e+01   8.8362569349e+00    0.1986278   0.09492882 -58.13 0.0007018462    2.459    0.593
        90 -11.5796    249.2776     97.7836   2.8719417274e+01   1.0278114841e+01    0.2493831     0.141889 -46.97 0.0009248836    1.491    0.329
        91 -10.1056      2.0000     94.9586   9.2925592425e+01   5.5975975195e+01    0.2077744   0.05638177 -65.86 0.0008035892    2.950    0.661
        92 -10.6741    242.6685     93.3275   2.8673203226e+01   1.2335596671e+01    0.1429244   0.09229801 -69.26 0.0007051417    1.712    0.416
        93 -11.0391    249.5707     87.7835   2.6643473692e+01   1.1910888224e+01    0.1958355    0.1022574 -51.48 0.0008698995    1.671    0.402
        94 -12.0720    248.6794     74.5110   2.4073594586e+01   1.4249423639e+01    0.4152156    0.1019436 -47.43  0.001444589    3.459    0.711
        95 -12.1823      2.9293     49.9496   8.2509595373e+01   6.5192467877e+01    0.4710995    0.1780906 -48.99  0.002462742    1.944    0.486
        96 -11.3001      8.4425     43.7945   7.8201605563e+01   6.5962650528e+01     0.282639   0.08522977 -49.95  0.001298636    2.607    0.616
        97 -12.0505     12.4072     37.3978   7.4261584702e+01   6.6769299597e+01    0.3509751    0.1279311 -40.39  0.001769567    2.157    0.536
        98 -12.2242      3.0395     33.4655   7.7348113408e+01   6.8077371072e+01    0.5246504    0.1235319 -45.40  0.002362414    2.892    0.654
        99 -11.1160     87.4864    250.5107   9.1787280926e+01   9.5960392354e+00    0.2754781     0.111127  38.64  0.001212604    2.171    0.539
       100 -12.7376    234.1891    244.5349   6.0505457303e+01  -1.2604425226e+01     0.472473    0.2738059  -5.17  0.002476491    1.965    0.491
       101 -12.0230    239.9547    239.3267   5.8505790491e+01  -1.2628496781e+01    0.2699885    0.1741672 -11.65  0.001578147    1.461    0.315
       102 -11.5876    243.4855    235.5367   5.7174690208e+01  -1.2548081982e+01    0.2452874    0.1076903 -36.01  0.001181752    2.137    0.532
       103 -11.4185    144.0130    247.5069   7.9475404350e+01   1.0051043190e+00     0.220392    0.1163611  38.10  0.001043667    1.622    0.384
       104 -11.5815    126.5030    247.5074   8.3222677801e+01   3.9311083153e+00    0.2636076     0.100098  46.54  0.001042236    2.413    0.586
       105 -11.5243     18.9164     30.4399   6.8682254336e+01   6.7325522825e+01    0.3016803     0.138468 -25.51  0.001577843    2.103    0.525
       106 -12.3999     98.0266    244.7613   8.8937825137e+01   9.1083823218e+00    0.4211541    0.2189837  59.95  0.001912673    2.148    0.534
       107 -11.6450     22.5095     22.1659   6.3698829967e+01   6.8171163165e+01    0.2871614    0.1438813 -19.09  0.001575332    2.000    0.500
       108 -11.7474    116.2921    244.4171   8.4998409904e+01   6.2196572741e+00    0.3073668    0.1813061  72.28  0.001344419    2.569    0.611
       109 -12.3827     85.0295    244.2153   9.1606352290e+01   1.1240296702e+01    0.3969646    0.1828823  49.55  0.001845756    1.902    0.474
