#   1 NUMBER                 Running object number                                     
#   2 MAG_AUTO               Kron-like elliptical aperture magnitude                    [mag]
#   3 X_IMAGE                Object position along x                                    [pixel]
#   4 Y_IMAGE                Object position along y                                    [pixel]
#   5 X_WORLD                Barycenter position along world x axis                     [deg]
#   6 Y_WORLD                Barycenter position along world y axis                     [deg]
#   7 A_WORLD                Profile RMS along major axis (world units)                 [deg]
#   8 B_WORLD                Profile RMS along minor axis (world units)                 [deg]
#   9 THETA_WORLD            Position angle (CCW/world-x)                               [deg]
#  10 FWHM_WORLD             FWHM assuming a gaussian core                              [deg]
#  11 ELONGATION             A_IMAGE/B_IMAGE                                           
#  12 ELLIPTICITY            1 - B_IMAGE/A_IMAGE                                       
         1 -13.8119    218.2461      8.3813   3.6452104797e+01   2.9406209774e+01     2.129226     1.165894  45.62   0.01039793    2.390    0.582
         2 -13.0961    177.2987     53.1120   5.3585583736e+01   3.3927241529e+01     1.779777     1.047762  32.59  0.004842454    2.334    0.572
         3 -13.4058    192.1685     40.2279   4.7572291000e+01   3.1987598054e+01     1.040882     1.013864  68.35  0.004000853    1.102    0.092
         4 -12.8999    197.3414     34.1908   4.5223407227e+01   3.1481873319e+01    0.7249098     0.682361  55.82  0.001444032    1.158    0.137
         5 -10.3554    189.8380     14.6954   4.0894308905e+01   3.5596649286e+01    0.2515025    0.1884441 -42.63 0.0009616676    1.356    0.262
         6  -9.7709     59.3374      8.3263   6.6824714739e+01   6.6319528942e+01    0.1348404    0.0799847  15.53 0.0007051605    1.725    0.420
         7  -9.9517     70.5844      2.7469   6.0066028774e+01   6.4829393841e+01    0.1687161    0.1090289 -28.34 0.0009634515    1.692    0.409
         8  -9.7710     50.4142    224.6737   1.1959838882e+02   2.1649113912e+01     0.185535    0.1074585  86.32 0.0006636971    1.684    0.406
         9 -12.0569    246.4214    247.0627   8.4638453667e+01  -1.1169733153e+01    0.7136646    0.3955553  -5.50  0.004178133    1.901    0.474
        10 -11.1473     65.7639    204.5328   1.1465728059e+02   2.3821694415e+01    0.3092872    0.1827583 -67.18   0.00130047    1.676    0.404
        11  -8.2195     70.2188    199.5990   1.1316482574e+02   2.4278119029e+01    0.2266006    0.1566108   8.19 0.0007008335    2.538    0.606
        12  99.0000     41.3562    206.2613   1.1990575387e+02   2.6479211735e+01    0.2162526    0.1810768 -22.25  0.001405925    1.940    0.485
        13  -8.8304     93.4977    205.5238   1.0877819398e+02   1.9647583703e+01     0.181247    0.1602949   1.82 0.0008396487    1.527    0.345
        14  -9.2721     96.4557    202.0301   1.0767995737e+02   1.9923795948e+01    0.2651382    0.1898027 -43.03 0.0008981349    1.753    0.430
        15 -10.9631    192.3935    194.3154   8.5491978250e+01   4.6284805945e+00     1.127693    0.6180248 -64.07  0.003440507    5.865    0.829
        16 -12.2194     56.4769    197.0283   1.1588341192e+02   2.6640920268e+01    0.7030032    0.2591649 -52.36    0.0028851    3.299    0.697
        17 -10.2913    203.9945    200.5123   8.4333482588e+01   1.5549844210e+00    0.2110738    0.1210582  36.39  0.001037255    1.606    0.377
        18 -10.0122     34.8463    197.2627   1.2050380151e+02   2.9126343060e+01    0.1604311    0.1206418  64.66 0.0003409308    1.136    0.120
        19  -9.2422     81.8560    194.7493   1.1000681684e+02   2.3687226021e+01    0.1879977    0.1769567  59.29  0.001202001    1.156    0.135
        20  -8.5448     78.2198    192.7023   1.1057248510e+02   2.4662851475e+01    0.1271311   0.08929384  76.89            0    1.454    0.312
        21 -11.3755    149.6087    188.1182   9.3527814840e+01   1.3667097598e+01    0.4849934    0.3406809 -75.05  0.001766157    2.077    0.519
        22  -9.2804     96.9493    190.6797   1.0602015235e+02   2.2281710233e+01      0.24818    0.1776618  77.24  0.001029328    1.548    0.354
        23  -9.8391     94.3249    187.0277   1.0610736349e+02   2.3499582348e+01    0.2503199     0.208221  54.97 0.0004817197    1.111    0.100
        24 -11.1256     98.7962    181.4202   1.0422130701e+02   2.4039286156e+01    0.5039809    0.3525493 -35.57  0.001943007    1.888    0.470
        25  -9.6700     60.9324    188.1730   1.1395012971e+02   2.8031270018e+01    0.2117447    0.1637701 -73.36            0    1.232    0.189
        26 -12.0820     67.8326    182.7155   1.1172003941e+02   2.8352001849e+01    0.6941957    0.6018807 -67.06  0.003287477    1.206    0.171
        27 -11.2048    143.5454    178.4128   9.3126410332e+01   1.6786350430e+01    0.3982155    0.2519668 -42.28   0.00166313    1.704    0.413
        28 -10.1070    188.1915    176.5350   8.2856251538e+01   8.5765380793e+00    0.3975078    0.3159911 -53.92  0.001841241    1.512    0.339
        29  -9.8531    149.3723    177.0644   9.1525228734e+01   1.5960443233e+01    0.2606435    0.2046822  47.87 0.0004003271    1.247    0.198
        30  -9.8988     58.3458    176.1166   1.1314285295e+02   3.1112256132e+01    0.2198568    0.1688813  54.69 0.0005444821    1.242    0.195
        31  -9.2618     84.1509    173.8391   1.0661171155e+02   2.8061765574e+01    0.1764018    0.1572365 -49.36 0.0004055186    1.261    0.207
        32 -10.7569    239.3339    173.5112   7.2335720447e+01  -2.0363068961e-01     0.276046    0.1207515  36.19  0.001191593    2.387    0.581
        33 -10.6485     43.5830    172.5560   1.1622288231e+02   3.3703721329e+01    0.5381614    0.1935175  49.72  0.001722889    2.822    0.646
        34  -9.0559    194.1733    171.8433   8.0638181045e+01   8.2901157828e+00    0.2052412    0.2039451  13.00 0.0007406247    1.188    0.158
        35 -10.7648    139.0038    170.8580   9.2752775875e+01   1.9252611871e+01    0.3635911    0.3424537  62.69  0.001163299    1.078    0.072
        36  -9.3422    185.6871    170.0133   8.2033015572e+01   1.0280211728e+01    0.2071451    0.1833179 -29.53 0.0005644551    1.141    0.123
        37  -9.8144    240.4577    169.4531   7.1296747169e+01   2.4223770040e-01    0.1350632    0.1151337  -9.32 3.112111e-05    1.020    0.020
        38 -10.0348    230.4819    167.4254   7.2648105426e+01   2.3008405111e+00    0.2564373    0.1174642 -45.46  0.001040547    2.524    0.604
        39  -9.0952     58.6640    250.5113   1.2001509105e+02   1.5797472896e+01    0.1065265   0.08612494  68.46 0.0001826863    1.110    0.099
        40  -9.1433    187.5847    162.3517   7.9992951019e+01   1.1361750092e+01    0.2754456    0.1401998 -45.75   0.00077348    2.078    0.519
        41 -11.6279     95.2242    151.0800   9.9979627434e+01   3.1695576966e+01    0.6596724    0.5295336 -36.46  0.002693497    1.416    0.294
        42 -10.8264    133.8688    145.5980   8.8774279609e+01   2.5861662388e+01      1.26292    0.3297459 -54.44  0.002956593    5.753    0.826
        43  -9.7699    187.1434    151.6160   7.7703129691e+01   1.3524716235e+01    0.2573917    0.2068475 -45.73 0.0007248361    1.301    0.232
        44  -9.7165    112.5118    150.4919   9.5313462537e+01   2.8826340386e+01    0.2649238    0.1825114  61.71 0.0009188012    1.697    0.411
        45  -9.6858    109.1892    147.4442   9.5566591702e+01   3.0146612853e+01    0.2856372    0.2262512 -81.52 0.0002919569    1.432    0.302
        46  -9.5115    174.7538    148.9438   7.9790744133e+01   1.6644965614e+01    0.2814582    0.2150326 -59.60 0.0009129345    1.562    0.360
        47 -10.0968     86.4884    143.2454   1.0085802558e+02   3.4999485330e+01     0.466757    0.2258985  55.49  0.001646212    2.746    0.636
        48 -10.9747    107.1395    137.5490   9.4035030293e+01   3.2867215874e+01    0.5316902    0.3620386 -32.08  0.002358115    1.787    0.440
        49 -10.7257    105.8881    130.6438   9.2848849968e+01   3.4739893476e+01    0.4021617    0.3392478 -59.37  0.001207214    1.166    0.142
        50 -11.6915     95.1085    137.2366   9.7283017373e+01   3.5050113404e+01    0.3051053    0.2693023 -44.15 0.0003777134    1.155    0.134
        51  -8.3539    100.6738    132.2490   9.4664165389e+01   3.5291690812e+01    0.1484343    0.1148419  70.96 0.0002776572    1.541    0.351
        52  -9.9378    135.6885    129.0529   8.4447490521e+01   2.9233207804e+01    0.3767335    0.1426769 -46.71  0.001235383    2.624    0.619
        53 -10.4811    114.4329    128.8395   9.0067140654e+01   3.3565689446e+01    0.3355066    0.2680486 -32.89 0.0006644409    1.347    0.258
        54  -8.8394    160.6655    127.3376   7.7842757237e+01   2.4191601640e+01    0.1623942    0.1277168 -85.52 0.0005614955    1.746    0.427
        55 -10.4503    102.0939    124.6061   9.2529720488e+01   3.6866685997e+01    0.3041025    0.2458199 -16.94 0.0006134458    1.503    0.334
        56 -10.5243    119.7600    123.0123   8.7199027608e+01   3.3880109201e+01    0.3990281    0.2751306  -6.13   0.00157342    2.355    0.575
        57  -9.0071    135.0000    119.8676   8.2320624404e+01   3.1439146214e+01    0.2608208   0.08919879 -45.48 0.0007948388    2.890    0.654
        58  -9.4193    109.9253    118.0703   8.8716239329e+01   3.6952792120e+01    0.2233086    0.2161604 -45.17 0.0003124467    1.003    0.003
        59 -10.0786    231.1911    113.6779   6.0414220309e+01   1.1276267179e+01    0.2773915    0.2646017  52.74  0.000759419    1.174    0.148
        60  -9.4645    167.7649    112.5521   7.2381497545e+01   2.5648951337e+01     0.327466    0.2370651 -67.63  0.001395679    1.828    0.453
        61 -11.3033    118.4232    110.3114   8.4307730954e+01   3.7056424014e+01    0.6870639    0.4480745  64.62  0.002770325    2.143    0.533
        62  -9.4839    205.5941    110.1397   6.3987195093e+01   1.7421246758e+01    0.2784772    0.2189044  41.15 0.0007246929    1.348    0.258
        63  -9.8059    134.5827    105.2041   7.8509773330e+01   3.4749665799e+01    0.4047173    0.1523408 -41.03  0.001304253    2.677    0.626
        64 -10.6050     54.7202    222.1313   1.1855643954e+02   2.1621450412e+01    0.2162251    0.1313508  52.69 0.0005281054    1.373    0.272
        65  99.0000     57.0396    218.8436   1.1781819904e+02   2.1988855400e+01    0.4388148    0.2001303  62.51  0.002130331    2.263    0.558
        66 -11.7711     63.3226    250.0813   1.1915244469e+02   1.5281878842e+01    0.2573034    0.1289309  52.90  0.001522911    1.569    0.363
        67  -9.1217     48.5230    217.5535   1.1939610558e+02   2.3301742735e+01    0.1869392    0.1116173  31.07 0.0006673576    1.938    0.484
        68  -8.7463    155.2961     82.3174   6.6736252486e+01   3.4540038337e+01    0.1584771    0.1232137  11.42 0.0002712132    1.609    0.378
        69 -10.0133    184.7108    212.5121   9.0351195305e+01   2.9255335506e+00    0.2383243    0.2290484 -72.05  0.001112233    1.371    0.271
        70  -9.3407     56.7269    209.2146   1.1701445286e+02   2.4006081893e+01    0.1893692    0.1304039 -80.25 0.0004253996    1.370    0.270
        71  -8.6855    184.4821     77.0429   5.9136587952e+01   2.8309098224e+01    0.2299569    0.1479301 -35.16 0.0005472086    1.537    0.349
        72 -12.4701     32.8580    206.8664   1.2166357270e+02   2.7301178814e+01    0.3388896    0.1559439  56.52  0.001142928    1.926    0.481
        73  -8.7901     75.6089    247.5594   1.1671873188e+02   1.4112307957e+01    0.1132898   0.09100287  60.04 0.0002573331    1.055    0.052
        74 -10.3415     71.8682    245.1150   1.1720559479e+02   1.5048262716e+01    0.2438094    0.1487917 -72.51  0.001528583    1.769    0.435
        75 -19.5193     17.9489    145.7022   1.1962173036e+02   4.2520907021e+01     19.37585      4.75955 -75.63   0.06647099    3.865    0.741
        76  -9.1212    167.8588    231.1408   9.6746046706e+01   2.7560498273e+00    0.1809566    0.1567373  38.83 0.0004312129    1.123    0.109
        77  -9.1268     44.4497    230.2838   1.2114944996e+02   2.1271884565e+01    0.1404806   0.08834695  78.98 0.0008600096    1.404    0.288
        78  -9.1953     58.5143    228.8008   1.1837406340e+02   1.9833345507e+01    0.1433745    0.1027145 -87.93 0.0004956139    1.320    0.242
