#   1 NUMBER                 Running object number                                     
#   2 MAG_AUTO               Kron-like elliptical aperture magnitude                    [mag]
#   3 X_IMAGE                Object position along x                                    [pixel]
#   4 Y_IMAGE                Object position along y                                    [pixel]
#   5 X_WORLD                Barycenter position along world x axis                     [deg]
#   6 Y_WORLD                Barycenter position along world y axis                     [deg]
#   7 A_WORLD                Profile RMS along major axis (world units)                 [deg]
#   8 B_WORLD                Profile RMS along minor axis (world units)                 [deg]
#   9 THETA_WORLD            Position angle (CCW/world-x)                               [deg]
#  10 FWHM_WORLD             FWHM assuming a gaussian core                              [deg]
#  11 ELONGATION             A_IMAGE/B_IMAGE                                           
#  12 ELLIPTICITY            1 - B_IMAGE/A_IMAGE                                       
         1 -12.2024    222.6034    148.0092   8.5441786669e+01   7.1359307466e+00     3.202245     1.188156 -32.67   0.01129441    2.963    0.663
         2 -13.5962    246.9768     74.5526   6.5460034946e+01   1.4576945561e+01     9.756513     2.126197 -32.20   0.02438833    6.874    0.855
         3 -13.2418    244.5302    152.0168   8.2574413285e+01   2.4722951418e+00     3.923099     1.017007 -42.36   0.01308389    3.659    0.727
         4  -7.7748    191.4904    166.4812   9.5452876225e+01   9.7889606350e+00    0.1464839    0.1362717   2.75 0.0008102338    1.020    0.019
         5 -12.3693     58.2432    239.9502   1.3606350829e+02   1.7730552052e+01     6.045513          nan  37.96   0.01170719   13.506    0.926
         6 -10.1891    215.3131    222.7230   1.0146458949e+02  -3.9132529199e+00     1.490819    0.7402659   4.10  0.004810864    5.397    0.815
         7 -12.2569     57.9399    249.3844   1.3684365489e+02   1.5973284406e+01     4.060916    0.4098844  34.71  0.008682895   12.080    0.917
         8 -12.5132     25.5917    248.0765   1.4278485119e+02   2.0122266380e+01      8.92328     2.005892  28.83   0.01666916   21.068    0.953
         9 -11.6273    238.9867    194.2994   9.1963384796e+01  -3.3186236380e+00     2.903533     1.211614 -18.00  0.008031118    6.787    0.853
        10 -11.1820    205.3960    232.5335   1.0500157323e+02  -3.8242095320e+00    0.6135751     0.385909  25.89  0.002429663    1.384    0.277
        11 -11.2881    246.6871    191.1543   9.0035228570e+01  -4.0181145507e+00     0.874869    0.4082853 -17.92  0.003536471    3.158    0.683
        12 -12.3060    194.3081    244.4339   1.0901884809e+02  -3.8423002653e+00     1.618468    0.6347837  24.71  0.006174669    3.476    0.712
        13 -12.7260    180.6236    241.0488   1.1117965549e+02  -1.2351035521e+00     5.422989     2.682487   9.05   0.01405175    8.631    0.884
        14 -14.2650    153.3156    245.6353   1.1731475611e+02   2.3872710866e+00     5.185209     2.214536  36.41   0.02420107    1.937    0.484
        15 -11.3645    228.0541    218.4991   9.8361983034e+01  -5.2226121707e+00    0.6704258    0.4031934  -5.77  0.003527484    1.936    0.483
        16 -11.1132    243.0827    198.9115   9.2118890805e+01  -4.6228621492e+00    0.4900873    0.2845038 -11.34  0.001453904    1.990    0.498
        17 -12.6249    211.7269    245.5106   1.0588445537e+02  -6.5617287669e+00     1.410257    0.7511777  11.44   0.00692755    2.399    0.583
        18 -10.9765    233.4505    210.6796   9.5987461262e+01  -4.9015414628e+00    0.5185909    0.3007318  -4.79  0.001830504    2.161    0.537
        19 -11.0967    240.2498    205.9317   9.3914001924e+01  -5.2228755852e+00    0.3967445    0.2829244   7.16  0.001277465    1.305    0.234
        20 -13.1593    230.2368    236.4927   1.0103876475e+02  -7.9914289628e+00      1.95742    0.9247395 -15.21   0.00869534    3.153    0.683
        21 -11.4287    238.7547    217.6334   9.6287032900e+01  -6.6564171639e+00     0.568539    0.3653615   0.16   0.00198403    1.576    0.366
        22 -11.6626    249.5636    246.8809   9.9354737660e+01  -1.1810359878e+01    0.5646639    0.2532571 -25.18   0.00311082    2.229    0.551
        23 -12.4831    233.4473    244.9437   1.0184330535e+02  -9.5021870873e+00    0.9980533    0.5369314   1.60  0.005192491    2.329    0.571
        24 -12.2824    248.0250    214.7438   9.4159915832e+01  -7.5618840937e+00    0.5833059    0.3457006 -20.49   0.00222345    1.573    0.364
        25 -13.0037    248.0271    236.4007   9.7898114752e+01  -1.0361623852e+01     1.622561    0.6606808 -17.52  0.006525486    4.020    0.751
        26 -12.3104    247.0672    225.3610   9.6188716502e+01  -8.8397444078e+00     1.021163    0.4736726 -16.39  0.004704806    2.831    0.647
        27 -10.6591     13.7292    240.3020   1.4453424629e+02   2.2875441212e+01     0.581547    0.1997086  39.88  0.003100672    2.307    0.567
        28  -9.9028     92.7751    235.8651   1.2864677676e+02   1.3661944891e+01    0.5322671     0.248218  35.39  0.002291449    1.974    0.494
        29  -9.7441     80.2583    236.2348   1.3128306141e+02   1.5430391001e+01    0.5019564    0.2273296  43.81  0.002495499    1.775    0.437
        30  -9.4002      4.3811    235.4650   1.4599687514e+02   2.4746826172e+01    0.2625611     0.184018  28.09  0.001559836    1.864    0.463
        31  -7.5206     73.2935    235.3074   1.3262940378e+02   1.6600295387e+01    0.1064844   0.09860984 -11.65 0.0001964558    1.583    0.368
        32  -7.9809     66.1305    234.0972   1.3398863609e+02   1.7828265352e+01    0.1759999    0.1526089  50.75 0.0008445694    1.206    0.171
        33  -8.9082     85.9421    231.1063   1.2958102446e+02   1.5608145838e+01    0.3023456    0.2257696  16.68  0.001547564    1.861    0.463
        34  -9.7804     57.7151    230.6276   1.3541268874e+02   1.9647136101e+01     0.431536    0.2731119  27.08  0.002286364    1.941    0.485
        35  -9.2479     36.7266    230.7675   1.3964111356e+02   2.2224254373e+01    0.3705727     0.266428   1.74  0.002086479    2.773    0.639
        36  -9.3334    101.6934    230.4365   1.2616075628e+02   1.3347451877e+01    0.3778941    0.2404181  31.87  0.001813562    1.582    0.368
        37  -9.0929     12.2473    231.2018   1.4435959762e+02   2.4806627949e+01    0.3084716    0.1495614  32.87  0.001526746    2.171    0.539
        38  -8.9285     46.6127    229.2066   1.3755659912e+02   2.1349812506e+01    0.3348474    0.1581314  40.81  0.001781588    1.806    0.446
        39  -9.8874    115.2757    227.8648   1.2293096219e+02   1.1686778160e+01    0.4357996    0.2424108  37.04  0.001770133    1.584    0.369
        40  -8.6256     31.2645    228.4612   1.4056301488e+02   2.3320694182e+01    0.2383953     0.152864  42.13   0.00112208    1.449    0.310
        41  -9.0132    108.0194    227.9389   1.2450552100e+02   1.2837223036e+01     0.267499    0.1626595  38.81  0.001071448    1.431    0.301
        42  -8.5770     93.6454    227.6315   1.2756412040e+02   1.5140302381e+01    0.2949233    0.1766048  34.37  0.001285988    1.611    0.379
        43  -8.7097     80.2771    228.0671   1.3046666433e+02   1.7045416582e+01    0.3435875    0.1662629  35.17   0.00165458    1.958    0.489
        44  -9.1058     21.2827    226.4652   1.4238773761e+02   2.4822485739e+01    0.3451602    0.2500145 -18.83   0.00199354    2.949    0.661
        45  -9.0754     71.0575    227.0300   1.3231604950e+02   1.8570322730e+01    0.4177162    0.1627511  37.62   0.00162776    2.243    0.554
        46  -8.9327      3.0719    227.2682   1.4587292576e+02   2.6486378995e+01    0.2733919    0.1270808  38.83  0.001635064    1.945    0.486
        47  -9.9876    121.8424    224.3239   1.2104438270e+02   1.1292967049e+01    0.3401181    0.2152469  31.15  0.001610708    1.557    0.358
        48  -8.5401      9.7003    225.0727   1.4452984359e+02   2.6289386393e+01    0.2617047    0.1014001  48.44  0.001426249    1.986    0.497
        49  -9.5960    129.4857    218.9157   1.1861822878e+02   1.1056479940e+01    0.2725665    0.1821603  32.62 0.0009306906    1.416    0.294
        50 -10.0430    130.3408    223.3308   1.1905756924e+02   1.0066003014e+01    0.4197484     0.249007  31.36  0.001469857    1.642    0.391
        51  -9.1237    136.0176    222.9389   1.1776812826e+02   9.1826189952e+00    0.2946087    0.1821992  30.06  0.001045034    1.591    0.371
        52  -7.6938     90.5002    224.5193   1.2789295590e+02   1.6243716786e+01    0.1330532    0.1095228  57.67 7.580496e-05    1.014    0.014
        53  -8.3470    110.1254    223.5282   1.2349827231e+02   1.3363994830e+01     0.206168    0.1162491  38.54 0.0009509522    1.551    0.355
        54  -8.4334    105.4242    223.4910   1.2452162161e+02   1.4125929210e+01    0.2714286     0.117553  36.81  0.001056062    2.068    0.516
        55  -9.0641    180.7988    221.0812   1.0798904437e+02   1.8960724353e+00    0.3149421    0.2223342  10.40   0.00120971    1.561    0.359
        56  -9.3535    186.1384    219.4035   1.0661903730e+02   1.2793414682e+00    0.3348993    0.2371695   6.98   0.00130198    1.568    0.362
        57  -8.0446     98.4525    221.8711   1.2585098133e+02   1.5553619615e+01    0.2616274    0.1694785  23.10  0.001307189    1.953    0.488
        58  -7.8842     84.2192    222.5730   1.2904013167e+02   1.7584210724e+01    0.1807176    0.1177819  30.28 0.0009567875    1.666    0.400
        59  -7.9760     76.4436    222.0280   1.3066722855e+02   1.8834224244e+01    0.2164264    0.1449162  44.33  0.001228967    1.299    0.230
        60  -8.2810     51.5925    221.9837   1.3595629106e+02   2.2214837985e+01    0.3063172    0.2373914  12.64  0.001659952    1.957    0.489
        61  -8.3658     55.9990    220.2134   1.3487536798e+02   2.2019171949e+01    0.1648551    0.1483918  69.73            0    1.183    0.155
        62  -9.7330     55.9873    216.5329   1.3454848155e+02   2.2800476880e+01    0.2629496    0.1608967 -77.00  0.000669713    1.613    0.380
        63  -8.6022     30.9969    221.9630   1.4018624726e+02   2.4686280884e+01    0.2898867    0.1287726  44.83  0.001549194    1.845    0.458
        64  -9.2817    115.5548    221.2023   1.2200461039e+02   1.2938516231e+01    0.2543782    0.1663399  39.46 0.0008134549    1.337    0.252
        65  -8.3046     16.9188    221.1560   1.4293062693e+02   2.6365813535e+01    0.2385561    0.1508343  27.72   0.00147346    1.958    0.489
        66  -8.0110     61.0212    220.2617   1.3381038733e+02   2.1346026960e+01    0.1874702    0.1381669  51.70 0.0007866852    1.159    0.137
        67  -8.4107     41.4688    220.0864   1.3791201910e+02   2.3862769622e+01    0.2067922    0.1670173  25.00    0.0009989    1.622    0.383
        68  -9.6379    211.0178    216.3354   1.0116992286e+02  -2.2906611758e+00    0.3387399    0.2620519   0.04  0.001464331    1.210    0.173
        69  -9.5775    202.7608    216.3573   1.0277536241e+02  -9.7034228859e-01     0.448438    0.3191386  -5.33  0.002059908    1.507    0.336
        70  -7.7022    204.6661    211.6876   1.0157772731e+02  -5.4329603060e-01    0.1723884    0.1161238  19.10 0.0006401017    1.452    0.311
        71  -9.0704    136.6976    217.8114   1.1686924261e+02   1.0037370194e+01    0.2524717     0.168932  30.62  0.001300679    1.445    0.308
        72  -8.8590    110.3924    218.4878   1.2278793057e+02   1.4326564532e+01    0.2814133    0.1181786  38.42  0.000916681    2.080    0.519
        73  -8.9131    180.0762    215.2805   1.0716440942e+02   2.9923833741e+00    0.3352212    0.1950158  18.15  0.001072763    2.148    0.535
        74  -8.8349    171.3109    214.0690   1.0879233798e+02   4.7129062923e+00    0.3532246    0.2393263 -16.50  0.001763607    1.923    0.480
        75  -9.8411    194.0574    215.6949   1.0438594200e+02   5.6475126814e-01    0.4548323    0.2681695  18.76   0.00219266    1.928    0.481
        76  -9.0226    141.7032    220.0235   1.1610442585e+02   8.7598592228e+00    0.3147699    0.1764591  37.50  0.001100519    1.557    0.358
        77  -7.9496    151.4854    215.4730   1.1327427237e+02   7.9158410730e+00    0.1385846    0.1210296  33.37 6.696202e-05    1.017    0.017
        78  -9.2362    125.0538    215.2934   1.1908069347e+02   1.2519963908e+01    0.2050644    0.1552647  42.77  0.001113306    1.150    0.131
        79  -8.2174    101.0943    215.1224   1.2442899713e+02   1.6519179289e+01    0.1809461    0.1649787  43.19            0    1.146    0.128
        80  -8.2809     10.0342    215.4929   1.4396530652e+02   2.8226281711e+01    0.2217586    0.1152014  23.49  0.001205394    2.630    0.620
        81  -9.5100    144.2240    213.9688   1.1462686254e+02   9.4670011699e+00    0.3166188    0.1864114  29.08  0.001160098    1.741    0.426
        82  -7.9322    189.6591    212.6965   1.0475219111e+02   1.7958491263e+00    0.1387504    0.1165039  14.96 0.0006639587    1.065    0.061
        83  -8.2226    186.1594    213.5929   1.0562220539e+02   2.2401151473e+00    0.2430509    0.1152443  28.54 0.0008089462    2.250    0.556
        84  -8.7956    133.0144    213.0184   1.1696768522e+02   1.1602926288e+01    0.2165862    0.1671511   5.80  0.001132224    1.695    0.410
        85  -8.3008    165.6829    214.2280   1.1001312922e+02   5.6641456306e+00    0.2699884    0.1836274   1.69  0.001295234    2.041    0.510
        86  -8.1263    155.3167    212.1096   1.1189915589e+02   7.8695764837e+00    0.2106756    0.1686517 -13.13  0.001075418    1.495    0.331
        87  -7.9182    200.5065    209.4612   1.0199964032e+02   5.0304020326e-01    0.2207035    0.1526545   4.01 0.0006463681    1.621    0.383
        88  -8.5311    186.9074    209.1511   1.0469177155e+02   2.8641585917e+00    0.2826341    0.1768699   9.43 0.0009958493    2.135    0.532
        89  -8.4010    177.3438    208.4468   1.0655689752e+02   4.6509226044e+00    0.2951666    0.1922867  12.64  0.001330088    1.916    0.478
        90 -11.4324    248.6698    202.2636   9.1783224864e+01  -5.9218965010e+00    0.7788281    0.3385274 -20.59  0.003221516    3.117    0.679
        91  -8.5290    193.3019    207.8621   1.0315742972e+02   1.9846303218e+00    0.2623681    0.1732554  27.42  0.001063758    1.418    0.295
        92  -8.2627    161.9817    208.0468   1.0977288347e+02   7.4437378650e+00    0.2200296    0.1620399   7.27 0.0008221378    1.648    0.393
        93  -8.9631    206.6183    205.8560   1.0014281372e+02   6.9464074802e-02    0.3140343    0.2130346   5.62  0.001248065    1.655    0.396
        94  -7.8610    146.4304    207.7350   1.1314371508e+02   1.0277665204e+01    0.1882593    0.1319211 -34.93 0.0009486674    1.698    0.411
        95  -8.3973    124.1189    205.8968   1.1790377097e+02   1.4583973185e+01    0.2022114    0.1676079  56.93  0.001131584    1.148    0.129
        96  -8.1605    183.3651    205.3518   1.0474903907e+02   4.1378921512e+00     0.198435    0.1437116   4.33 0.0006629252    1.595    0.373
        97  -8.8419    217.6124    202.8648   9.7475920726e+01  -1.2589145708e+00    0.2534587    0.1732853   3.03 0.0007899601    1.585    0.369
        98  -8.8234    223.6290    199.9508   9.5804338061e+01  -1.7725852758e+00    0.2454238     0.190884   0.27 0.0009836344    1.188    0.158
        99  -7.8233    220.6668    198.6935   9.6120517254e+01  -1.0969438289e+00    0.1921915    0.1389801 -17.10 0.0005778145    1.340    0.254
       100  -8.3965    198.1820    201.5933   1.0103169060e+02   2.2031412935e+00    0.2913896     0.188531   6.93  0.001168765    1.954    0.488
       101  -7.8127    206.4026    201.4908   9.9380683935e+01   8.1732723884e-01    0.1365618    0.1136736   3.08 0.0004940824    1.099    0.090
       102  -9.5447    231.2821    192.1836   9.2929499703e+01  -1.7867867264e+00    0.3177323    0.2079566  -9.38  0.001103725    1.664    0.399
       103  -9.8509    229.9910    198.3335   9.4332411397e+01  -2.5329325480e+00    0.3782553     0.239614  -0.68  0.001390112    1.855    0.461
       104  -8.3581    226.6984    196.3053   9.4550006772e+01  -1.6960926183e+00    0.1841838    0.1454519  22.33 0.0005208041    1.186    0.157
       105  -7.7592    193.2442    200.5935   1.0184648034e+02   3.2321668325e+00    0.1846751     0.118521  26.28 0.0005138245    1.538    0.350
       106  -8.0837    210.3759    198.5729   9.8060152079e+01   6.2654812696e-01    0.2312453    0.1473441  25.40 0.0008669698    1.548    0.354
       107  -8.9535    139.0139    199.0132   1.1338289384e+02   1.3351930644e+01    0.2087404    0.1878365  39.40            0    1.020    0.020
       108  -9.2126    132.9777    199.0137   1.1477540225e+02   1.4442667022e+01    0.2049955    0.1863138  43.45  0.001174508    1.014    0.014
       109  -8.4089    215.2306    196.3478   9.6705377542e+01   1.7531904132e-01    0.2242145    0.1547361 -21.75 0.0007475494    1.447    0.309
       110  -8.0271    202.9125    194.8381   9.8818818841e+01   2.5298748550e+00    0.2266634    0.1404802  13.11  0.001037305    2.044    0.511
       111  -8.3793    220.3068    186.3310   9.3810734525e+01   9.6050238145e-01    0.2139844    0.1591394 -19.25 0.0005641268    1.291    0.225
       112  -9.9797    219.9019    193.2763   9.5234280467e+01  -1.0534219762e-01    0.3193095    0.2236257   0.87  0.000844834    1.548    0.354
       113  -9.6832    223.8018    189.3498   9.3749086625e+01  -1.1887782284e-01    0.3608151    0.2665631 -36.51  0.002061909    1.367    0.268
       114  -8.0444    209.7088    192.6464   9.7062552688e+01   1.7229290989e+00    0.2103954    0.1420052   4.41  0.001044842    1.754    0.430
       115  -8.4252    215.0013    188.7126   9.5280330001e+01   1.4711430802e+00     0.312642    0.1595964 -23.96  0.001125974    2.423    0.587
       116  -7.4457    205.2939    189.3781   9.7296421564e+01   3.0475350574e+00    0.1454383   0.09991275  -3.08  0.000456174    1.746    0.427
       117 -12.6214    218.8740    133.0425   8.2782224495e+01   1.0542139100e+01      1.93655     1.006736 -16.52  0.002410685    4.122    0.757
       118  -7.9040    199.3160    165.3279   9.3606733006e+01   8.4771856662e+00    0.1500387    0.1097053   0.52 0.0003291317    1.676    0.403
       119  -8.1274    205.4179    162.2355   9.1735615197e+01   7.8693976797e+00    0.1971063    0.1322808 -48.10 0.0007329931    1.601    0.375
       120 -11.2553    217.2440    231.0344   1.0251208907e+02  -5.3922956262e+00     1.022333    0.4971929  17.05  0.004508146    2.752    0.637
       121 -10.1826    215.6783    149.5252   8.7029226160e+01   8.1989268665e+00    0.3194012    0.2493338 -51.90  0.001025373    1.402    0.287
       122  -9.6573    211.4676    152.2261   8.8406992899e+01   8.5294132380e+00    0.3477736    0.1987949 -27.89  0.001513474    1.908    0.476
       123  -9.2750    212.6281    156.8303   8.9186660949e+01   7.4674827267e+00    0.3137951    0.2361626  31.90 0.0008243165    1.376    0.273
       124  -8.5897    196.6891    157.9984   9.2564765799e+01   1.0377021550e+01    0.2770444    0.2029309  13.93  0.001322147    1.643    0.391
       125  -7.6184    187.6591    155.6620   9.3920434774e+01   1.2658501222e+01    0.1575058     0.115871   2.13 0.0007050257    1.765    0.433
       126  -9.8199    203.9952    153.8343   9.0197714965e+01   9.7058731870e+00    0.4120441    0.3073968  86.41  0.001875976    2.225    0.551
       127  -9.5619      2.7086    242.5513   1.4658956775e+02   2.3549760826e+01     0.330329    0.1597415  57.62  0.002113757    1.513    0.339
       128  99.0000    231.7534    175.2207   8.9509802075e+01   8.4704745677e-01     2.147577    0.6901238 -29.00  0.006338999    4.947    0.798
       129  -8.3653    194.5127    142.9860   8.9658239858e+01   1.3715086749e+01    0.2138682     0.129416 -17.07 0.0008100154    2.503    0.600
       130  -8.9547      4.4075    138.8126   1.3982608466e+02   4.6148224656e+01    0.1876105   0.08753701 -65.28 0.0009543328    1.731    0.422
       131 -10.3172    208.2932    137.2638   8.5663985901e+01   1.1930120627e+01    0.4099117    0.2625025  48.86  0.001921521    1.657    0.396
       132  -7.6350    160.4385    138.4126   9.6039332322e+01   2.2031199560e+01    0.1537109    0.1508856  29.71 3.745709e-05    1.014    0.014
       133  -8.8227    198.5119    136.9655   8.7474962563e+01   1.4033450844e+01    0.2341653    0.1423199 -39.65 0.0008504493    1.587    0.370
       134  -8.3584     10.4964    133.5124   1.3759167870e+02   4.7006507938e+01     0.126793     0.103394 -81.31 6.417102e-06    1.011    0.011
       135  -7.5902    163.6437    134.6779   9.4399851344e+01   2.2121498896e+01    0.1639078    0.1252693   5.33 0.0007045653    1.763    0.433
       136  -8.0572     31.6163    132.1625   1.3122223989e+02   4.5590542670e+01    0.1888732    0.1019849 -58.80 0.0009213518    1.609    0.378
       137  -8.5388      2.3269    129.3062   1.3949387667e+02   4.8556258823e+01    0.1254475   0.07635097 -49.24 0.0006349683    1.651    0.394
       138  -8.5828    211.8431    128.1004   8.2905166859e+01   1.2887236479e+01    0.2258828    0.1970834 -66.85   0.00070889    1.278    0.217
       139  -9.0242      7.9926    125.7428   1.3746897227e+02   4.9054763913e+01    0.1416248      0.11012  21.18 0.0008946759    1.578    0.366
       140  -8.1942    212.5237    121.9590   8.1355379389e+01   1.3868374257e+01     0.226539    0.1363222 -38.28 0.0006577434    1.560    0.359
       141  -9.8170    237.0555    185.4976   9.0608575330e+01  -1.6656664449e+00    0.3384833    0.2494289   2.96  0.001046184    1.355    0.262
       142 -10.4121     27.2099    240.0760   1.4204662770e+02   2.1470180219e+01    0.4720068    0.3117676  32.76  0.003085376    1.724    0.420
       143  -8.9699      3.7527    116.9703   1.3775497313e+02   5.1423180930e+01    0.1702192   0.08611219 -72.70 0.0005250273    1.581    0.367
       144 -10.2205    231.0664    115.6575   7.6818820679e+01   1.1140700039e+01    0.2771575    0.1962454 -30.77  0.001032188    1.365    0.267
       145  -8.3520    219.5983    113.8283   7.8244322162e+01   1.3830691087e+01    0.2114855    0.1220593 -48.03 0.0006656839    1.691    0.409
       146  -8.8702      8.5952    114.1972   1.3590876063e+02   5.1796115709e+01    0.1883445   0.08974501 -62.01 0.0009492832    1.654    0.395
       147 -11.5323    248.3860    133.5029   7.8072475683e+01   4.8372981167e+00     1.951008    0.3221003 -43.07  0.005031658    5.945    0.832
       148  -9.9922      4.4239    110.9446   1.3682707067e+02   5.2822906758e+01    0.4130372    0.1714597 -32.95  0.001774797    3.276    0.695
       149  -7.7078    130.0000    107.0301   9.5730068149e+01   3.5710997719e+01    0.1815422    0.1775605  53.72            0    1.015    0.014
       150  -8.7940    222.4292    104.2115   7.5541050288e+01   1.4911876599e+01     0.209512    0.1209014 -47.81 0.0008432099    1.651    0.394
       151  -9.5399     36.8496    240.3874   1.4024927303e+02   2.0304201546e+01    0.3520437    0.1907456  37.78  0.001437638    1.724    0.420
       152  -8.4991     30.9815    102.3295   1.2655351033e+02   5.2965190183e+01    0.2145522   0.06907122  45.45 0.0007049334    4.445    0.775
       153 -10.2441    241.0597    177.0947   8.8260697560e+01  -9.8968527470e-01    0.6739416    0.2300562 -33.35  0.002282127    2.875    0.652
       154  -9.1306    230.2122    185.4800   9.1822982832e+01  -5.5541629155e-01    0.2629337     0.187076  -4.58 0.0007515192    1.467    0.318
       155 -10.4939      7.8243     96.3548   1.3368299040e+02   5.6085347020e+01    0.3384735    0.1874011  76.74  0.001655119    2.396    0.583
       156  -9.9983      2.0603     94.6493   1.3545292504e+02   5.6791416956e+01     0.336898    0.1322389 -68.01  0.001608679    1.960    0.490
       157  -8.6522     24.4974     95.4824   1.2757125420e+02   5.5151142103e+01    0.1306235    0.1106405 -57.29 0.0003224261    1.001    0.001
       158  -9.0679    226.1297    170.4362   8.9546944635e+01   2.6087447944e+00    0.4813365    0.2721946 -13.27  0.001566093    2.613    0.617
       159  -8.3262    128.0066     91.0042   9.1720639837e+01   3.9556909679e+01    0.2180098    0.2146523  30.02            0    1.018    0.018
       160  -9.9169     10.0017     86.0242   1.3119192042e+02   5.8365092326e+01    0.1899026    0.1509408 -56.73  0.001235021    1.024    0.023
       161  -9.9197      5.7373     85.2490   1.3266039654e+02   5.8779870147e+01    0.2244955    0.1319867 -69.94 0.0007031867    1.442    0.306
       162 -10.8214    229.7427     83.4548   6.9629055433e+01   1.6807679676e+01    0.3466985     0.289967 -74.05  0.001997566    1.194    0.163
       163  -8.6243    223.9890    182.0292   9.2277262089e+01   1.0442941094e+00    0.2753508    0.1929355  -9.05  0.001086959    1.536    0.349
       164  -8.2633    115.9739     74.0715   8.9858889423e+01   4.5631931820e+01    0.2175022    0.2118452  37.05  0.001188847    1.020    0.020
       165  -8.6339     16.4813     74.4463   1.2635334558e+02   6.0588007131e+01    0.1242236     0.104724 -51.15 0.0001562597    1.037    0.036
       166 -10.2292      7.2255     78.9848   1.3098157674e+02   6.0128921417e+01    0.3856576    0.1641298 -85.67   0.00146727    3.826    0.739
       167  -9.0181    225.5251    178.0211   9.1195237249e+01   1.4450000435e+00    0.3298579    0.1713106 -37.57  0.001020133    1.830    0.454
       168  -9.2465     16.8181     62.6552   1.2340465778e+02   6.3141616363e+01    0.2282036    0.1113223   3.54  0.001100435    2.589    0.614
       169  -9.5428     10.7143     58.8799   1.2516313151e+02   6.4340825200e+01    0.2155447    0.1152487 -45.14  0.001202862    1.487    0.328
       170  -7.8005    218.1668    181.7629   9.3309639179e+01   2.0893591754e+00    0.1893818    0.1426534  -2.47 0.0006166929    1.381    0.276
       171  -9.2354      5.5895     55.7603   1.2671659929e+02   6.5285818843e+01    0.1625666    0.1023487 -70.48 0.0009508516    1.630    0.386
       172  -8.1394    128.9422     52.1200   7.9181877023e+01   4.6337254080e+01    0.2102015    0.1908488 -87.06  0.001143894    1.205    0.170
       173  -8.7984    172.0418     50.0049   6.9774208701e+01   3.5798665223e+01    0.2050533    0.1894523  83.08            0    1.015    0.015
       174  -7.7158    225.3094     44.6608   6.1175937762e+01   2.3595573407e+01    0.1447499   0.08578622 -64.28 0.0007044105    1.687    0.407
       175  -7.8411    210.9628    180.0388   9.4340856613e+01   3.6544417461e+00    0.2267581    0.1565881  -0.28  0.000990195    1.750    0.429
       176  -9.0159      2.8094     39.6400   1.2371246654e+02   6.8690960521e+01    0.2343856     0.135069 -86.46  0.001105259    3.483    0.713
       177  -7.9949    219.3653    175.6611   9.1857629420e+01   2.9132074708e+00    0.1902893    0.1183596 -26.38 0.0009256135    1.625    0.385
       178  -9.7016    224.3670     35.0962   5.9075772226e+01   2.5077251364e+01    0.2908883    0.2194745   4.20  0.001467779    2.208    0.547
       179 -10.0597    238.9693     33.2928   5.7296436514e+01   2.2063653035e+01    0.2152851    0.1520277  67.94 0.0006810648    1.479    0.324
       180  -7.8896    173.9054     34.0996   6.4963873077e+01   3.7465477892e+01    0.1735815    0.1532982  52.22            0    1.211    0.174
       181  -9.0993    101.0314    175.9975   1.1874698078e+02   2.5223850677e+01     0.207213    0.1899933  66.52 -0.003769674    1.009    0.008
       182  -9.7695    235.1113    179.6547   8.9801676844e+01  -4.2835161386e-01    0.3541645     0.222314 -17.73  0.001196195    1.686    0.407
       183  -8.2571    222.1520     22.1484   5.6338922013e+01   2.7181411463e+01    0.1745185    0.1211992 -68.79 -0.000430966    1.263    0.209
       184  -8.4735     18.2385     20.9101   1.0839961336e+02   7.0939283414e+01    0.1593299    0.1163583 -22.76            0    1.091    0.083
       185  -8.7683     14.9116     18.0180   1.0897597931e+02   7.1705922008e+01    0.1663034    0.1282139 -17.42  0.001178787    1.019    0.019
       186 -11.8669    248.6713    121.0735   7.5371807530e+01   6.8278547153e+00     1.306458    0.3401912 -42.65   0.00442943    3.366    0.703
