#   1 NUMBER                 Running object number                                     
#   2 MAG_AUTO               Kron-like elliptical aperture magnitude                    [mag]
#   3 X_IMAGE                Object position along x                                    [pixel]
#   4 Y_IMAGE                Object position along y                                    [pixel]
#   5 X_WORLD                Barycenter position along world x axis                     [deg]
#   6 Y_WORLD                Barycenter position along world y axis                     [deg]
#   7 A_WORLD                Profile RMS along major axis (world units)                 [deg]
#   8 B_WORLD                Profile RMS along minor axis (world units)                 [deg]
#   9 THETA_WORLD            Position angle (CCW/world-x)                               [deg]
#  10 FWHM_WORLD             FWHM assuming a gaussian core                              [deg]
#  11 ELONGATION             A_IMAGE/B_IMAGE                                           
#  12 ELLIPTICITY            1 - B_IMAGE/A_IMAGE                                       
         1 -12.7135    204.1531     21.2962   5.0408503215e+01   3.0765135302e+01     1.113029    0.8190398  24.91  0.002858572    1.666    0.400
         2 -12.5237    193.9752     33.4258   5.5336290669e+01   3.1992824251e+01     1.143489     1.032258  44.74  0.003982843    1.149    0.130
         3 -10.2015     49.4265      9.5063   8.2181039214e+01   6.8381090992e+01    0.3869463    0.1071162 -33.28  0.001392458    3.600    0.722
         4 -10.6385     40.9083      5.8590   8.4145536899e+01   7.0134709110e+01      0.28144    0.1684687 -16.99  0.001552449    1.715    0.417
         5 -10.2460     84.4338    233.6784   1.1933955467e+02   1.8571999214e+01      0.21066    0.1856149  86.73 0.0007819635    1.330    0.248
         6 -17.2181      8.8504    163.0673   1.2856615912e+02   4.0053899726e+01     16.13222     2.007752 -78.83   0.04572653    8.055    0.876
         7  -8.3093     99.5112    180.9082   1.1110124072e+02   2.5567156037e+01    0.1702968    0.1196285 -68.10  0.000693579    1.514    0.339
         8  -8.8552     58.9218    176.6799   1.1916549172e+02   3.2086659542e+01    0.2138686    0.1494712  88.24 0.0005561654    1.290    0.225
         9  -9.4600    169.3189    233.0118   1.0447745852e+02   6.0694802438e+00    0.1572096    0.1294089  36.92 0.0006035785    1.086    0.079
        10  -8.4609    195.8679    169.9606   8.9777826250e+01   1.0233895285e+01    0.2104201    0.1655613  14.79  0.001214111    1.291    0.225
        11 -11.1814     85.3757    164.5690   1.1203193385e+02   3.0945798526e+01    0.6579399    0.3440919  60.57 0.0006474978    2.053    0.513
        12 -12.1314     73.8781    160.3382   1.1407340010e+02   3.3468024314e+01    0.5905038    0.4299908 -59.11  0.001651316    1.469    0.319
        13 -12.8040     67.8619    144.1971   1.1335067108e+02   3.7741562609e+01     1.391443       0.7273  75.71  0.006080899    2.681    0.627
        14  -8.1527    139.8913    156.5242   9.8604315704e+01   2.3292560959e+01    0.1973342     0.125991  45.53 0.0003907187    1.434    0.302
        15 -11.6797     45.0653    149.8125   1.1948214860e+02   3.9319912563e+01    0.6407982    0.1930335 -67.30  0.002731811    2.869    0.651
        16 -10.7093     53.7981    148.4914   1.1727891239e+02   3.8593076535e+01    0.3964263     0.195204 -84.79  0.001895444    2.244    0.554
        17 -10.3543     58.2109    146.8934   1.1603414423e+02   3.8400532152e+01     0.316557    0.1824782  27.37  0.001642926    2.228    0.551
        18  -9.1107    134.0000    145.8875   9.7916230146e+01   2.6476745913e+01    0.5126389   0.08048142 -49.00  0.001237368    6.772    0.852
        19  -9.2723    105.1335    141.5924   1.0387547432e+02   3.2610249427e+01    0.4054542    0.2693007 -30.61  0.001891325    2.301    0.565
        20 -10.6676     92.6005    142.1749   1.0701215046e+02   3.4554542421e+01    0.2527987    0.2392004 -62.42  0.000424734    1.187    0.158
        21  -9.4384     76.8819    133.8264   1.0955015176e+02   3.8770168815e+01     0.183322    0.1400582  73.10 0.0004503056    1.298    0.230
        22  -9.0655    113.2920    131.6724   1.0001472407e+02   3.3278272825e+01     0.268236    0.2211556  17.50 0.0007433012    1.541    0.351
        23 -10.7792     45.4681    129.6053   1.1699487072e+02   4.3719211457e+01    0.2714482    0.2436774  61.66  0.001865745    1.190    0.160
        24  -9.3545    100.5598    127.9194   1.0245853005e+02   3.6336585760e+01    0.2703112    0.2180212 -25.83 0.0006545538    1.642    0.391
        25 -10.7200     91.9819    157.7799   1.0959137672e+02   3.1347654150e+01    0.5296376    0.3638353 -35.14  0.001771099    2.184    0.542
        26  -8.5714    106.0086    130.7974   1.0164672586e+02   3.4768041565e+01    0.2516355     0.200749 -61.38  0.001380622    1.247    0.198
        27 -11.6324     55.0000    120.9941   1.1325289292e+02   4.4562254902e+01    0.6091506    0.3774579  80.82  0.003149598    1.844    0.458
        28 -11.3239     40.1354    114.2667   1.1632632142e+02   4.7755673249e+01    0.5939927    0.2160552 -61.67  0.002670478    2.261    0.558
        29  -8.3725    110.0669    115.6810   9.7452819210e+01   3.7306622735e+01    0.1932501    0.1764408  55.89 0.0004238533    1.089    0.082
        30  -8.8816    167.9569    112.4772   8.2861437815e+01   2.5811770652e+01    0.2906554    0.2107591 -54.71  0.001043227    1.566    0.361
        31  -9.0128    114.6184    111.7667   9.5376090099e+01   3.7292209883e+01    0.2077264    0.1349201 -60.48 0.0009495452    1.650    0.394
        32  -9.2946    134.6238    106.1911   8.8946360120e+01   3.4406642625e+01    0.3321456    0.1498809 -43.33  0.001252604    2.247    0.555
        33  -9.6963     35.1935    111.8167   1.1735987613e+02   4.8807731133e+01    0.1947115    0.1488558  83.22  0.001158062    1.214    0.176
        34  -8.3655    109.0486    120.0532   9.8674403427e+01   3.6547073999e+01    0.2108026    0.1972601  82.91 0.0003704377    1.024    0.023
        35  -8.0134    205.5811    110.2028   7.4859275389e+01   1.7649099627e+01    0.1998766    0.1378454 -18.28 0.0003218184    1.580    0.367
        36 -10.7149     32.9362    105.2851   1.1707084624e+02   5.0511062022e+01    0.4911389    0.1319641 -69.10   0.00184632    3.221    0.689
        37 -14.9450     53.8327    204.8409   1.2258486536e+02   2.7348504706e+01     7.877572      2.81749  56.86    0.0391079    2.517    0.603
        38  -9.3966    158.9843     60.9379   7.0128381663e+01   3.7160563140e+01    0.3606714    0.2689344 -88.45 0.0008178044    1.755    0.430
        39  -9.2556    161.4572     54.9158   6.7683900593e+01   3.7495733824e+01    0.2809899    0.2140874  82.75 0.0006182901    1.566    0.361
        40 -10.6253     73.7522    179.8699   1.1638322988e+02   2.9519216128e+01    0.4107296    0.2484836 -45.93  0.002228499    2.374    0.579
        41 -11.2962    181.2879     46.9834   6.1478432634e+01   3.3523628768e+01    0.7201654     0.454834 -47.47  0.003176423    1.668    0.400
        42  -9.6449    194.0641    194.3653   9.4448656883e+01   7.0594477766e+00    0.4367099     0.286085 -43.86  0.002514774    1.880    0.468
        43 -11.3305    184.5160     41.1861   5.9141543936e+01   3.3475369828e+01     0.535876    0.4747385 -64.78  0.001199179    1.169    0.145
        44  -7.9819    164.4391    206.4933   1.0177845521e+02   1.0464834582e+01    0.1234852    0.1012882  40.42 1.474308e-05    1.007    0.007
        45 -11.0537    163.7047    225.3737   1.0448505894e+02   7.9505397926e+00    0.3936458    0.2552026 -49.39  0.002513032    2.014    0.504
        46  -7.9497    150.6550     23.3098   5.8953056352e+01   4.4711985702e+01    0.1550286    0.1110128 -65.72 0.0004934736    1.702    0.412
        47 -10.2089     92.4582    235.1667   1.1807782113e+02   1.7256652576e+01    0.2168422    0.1614141  71.78 0.0008902974    1.233    0.189
        48 -10.3356     77.9122    174.5543   1.1490638541e+02   2.9998377168e+01    0.2968442    0.2255109 -51.49  0.001618605    1.629    0.386
