#   1 NUMBER                 Running object number                                     
#   2 MAG_AUTO               Kron-like elliptical aperture magnitude                    [mag]
#   3 X_IMAGE                Object position along x                                    [pixel]
#   4 Y_IMAGE                Object position along y                                    [pixel]
#   5 X_WORLD                Barycenter position along world x axis                     [deg]
#   6 Y_WORLD                Barycenter position along world y axis                     [deg]
#   7 A_WORLD                Profile RMS along major axis (world units)                 [deg]
#   8 B_WORLD                Profile RMS along minor axis (world units)                 [deg]
#   9 THETA_WORLD            Position angle (CCW/world-x)                               [deg]
#  10 FWHM_WORLD             FWHM assuming a gaussian core                              [deg]
#  11 ELONGATION             A_IMAGE/B_IMAGE                                           
#  12 ELLIPTICITY            1 - B_IMAGE/A_IMAGE                                       
         1 -13.3555     30.5018     58.5805   1.3108538975e+02   6.1651353290e+01     1.543121    0.8456364  49.86   0.00764003    2.263    0.558
         2 -11.9411     42.8368     20.1739   1.1196658210e+02   6.8564457873e+01    0.6436086    0.3888689  38.99  0.002440797    1.868    0.465
         3 -12.8233    216.8892     16.1630   6.8062806366e+01   2.8239350494e+01    0.7506573    0.5358801  80.97  0.002291193    1.473    0.321
         4 -13.3723    189.1838      8.5527   6.8552155390e+01   3.5952138012e+01    0.7072846    0.4491774  84.49  0.003394244    1.655    0.396
         5 -11.7020     60.2938      7.7535   9.7023844711e+01   6.7855714699e+01    0.2672283    0.1896567  33.36  0.001365119    1.412    0.292
         6 -12.1047     43.6793      8.2256   1.0527621450e+02   7.0562130617e+01    0.3165991    0.2763085  18.59 0.0005289852    1.193    0.162
         7 -11.4603     56.3838      6.2155   9.7877026554e+01   6.8786631013e+01    0.5559761    0.2687188 -48.30  0.002316162    2.856    0.650
         8 -11.8611    166.1548      1.9007   6.8945402041e+01   4.2650997848e+01    0.6076598    0.1948192  70.87  0.002085062    2.933    0.659
         9 -11.5105     96.0777    224.3575   1.3586754846e+02   1.9218901940e+01    0.2834856    0.2339458  80.63  0.002220751    1.344    0.256
        10 -10.9888    103.9302    224.8364   1.3444785605e+02   1.8119270582e+01    0.1701919    0.1543932  84.61  0.001176509    1.312    0.238
        11  -9.8801     76.9424    225.7710   1.3953277906e+02   2.1400404750e+01    0.1453149   0.07006984  37.68  0.000816215    1.646    0.393
        12 -10.8430    149.7371    221.6689   1.2564607325e+02   1.2180326847e+01     0.366591    0.1967867 -39.61  0.002188657    2.473    0.596
        13 -10.7440    226.3868    221.2034   1.1242310696e+02   1.2567233699e+00     0.128678   0.09655754 -30.38 0.0009509377    1.752    0.429
        14 -10.0220    211.3811    218.1809   1.1441536844e+02   3.6495482521e+00    0.1324504    0.1017347 -36.63 0.0009536762    1.798    0.444
        15  -9.3867    107.4865    216.4912   1.3298723956e+02   1.8899104788e+01    0.1156025   0.08668239  49.22 0.0001550032    1.076    0.071
        16 -10.8179    224.0829    213.0344   1.1158011675e+02   2.3857537358e+00    0.3498972    0.1882806   5.55  0.001960534    2.285    0.562
        17 -11.0368    232.0283    211.7602   1.1011634284e+02   1.4030674640e+00    0.3307261    0.1443643  17.67   0.00153807    3.129    0.680
        18 -10.4210    238.7656    213.7635   1.0936718207e+02   2.8611069434e-01    0.1429727   0.07962666 -36.91 0.0008810718    2.445    0.591
        19 -10.5608    116.0170    210.0444   1.3067542049e+02   1.8704557004e+01    0.1884224    0.1187381  60.94  0.001001063    1.728    0.421
        20 -10.3570     48.9830    201.9928   1.4323832890e+02   2.8582460110e+01    0.1364687    0.1043342  60.11  0.001017622    1.016    0.016
        21 -10.8611      4.3884    198.9355   1.5174939699e+02   3.3385709094e+01    0.3207122    0.1006903  52.59  0.001837734    2.175    0.540
        22  -9.4758     12.2985    197.3003   1.5018566776e+02   3.3011088094e+01   0.08481782   0.07624824 -61.25 -0.0001541599    1.579    0.367
        23  -9.5125    133.1914    195.7859   1.2557995943e+02   1.8394180604e+01    0.1965477     0.115971  67.43 0.0009435423    2.773    0.639
        24 -12.2676    159.8828    191.7003   1.1974358002e+02   1.4810564121e+01    0.5131962    0.4201668 -89.51  0.002657966    1.857    0.462
        25  -9.7601    215.4578    193.9577   1.1000314685e+02   5.7083048567e+00     0.138491    0.1021405 -55.45 0.0008090747    2.565    0.610
        26  -9.9973     94.6924    187.0281   1.3247599294e+02   2.5560808200e+01     0.180596   0.09067076  88.60 0.0007041739    4.220    0.763
        27 -10.5086    183.3233    182.9919   1.1390398465e+02   1.2216655003e+01     0.255553    0.1515327 -27.16  0.001397945    1.982    0.495
        28  -9.5270    191.6608    178.3367   1.1157082254e+02   1.1465063695e+01    0.1156405   0.09831281  69.19 0.0007051115    1.757    0.431
        29 -10.0193    109.4106    186.2120   1.2925499754e+02   2.3581639115e+01    0.1586547    0.1139613 -83.02 0.0009497203    1.738    0.425
        30 -11.3520     34.6889    173.5533   1.4434104288e+02   3.5396543882e+01    0.2455846    0.1281141  67.33  0.001224791    1.757    0.431
        31 -11.8416    121.1498    167.3947   1.2412890686e+02   2.5117654498e+01    0.5483842    0.2114333 -51.76  0.002348131    2.909    0.656
        32 -10.3950     55.5830    167.9942   1.3918685285e+02   3.4247458299e+01    0.2447452    0.1296979  50.71  0.001365226    1.630    0.387
        33 -10.4565     99.0176    166.2019   1.2895604658e+02   2.8803518332e+01    0.2220918    0.1216943  57.91  0.001080105    1.991    0.498
        34  -9.7169     88.4734    167.9877   1.3160761128e+02   2.9995605659e+01    0.1752119    0.0997125  82.88  0.000809871    2.582    0.613
        35 -11.5841    105.9267    157.7188   1.2614107822e+02   2.9386337422e+01    0.5119588     0.340423  82.89  0.002595331    2.064    0.515
        36  -9.5785     52.3074    159.6656   1.3916939614e+02   3.6320967162e+01    0.1293796   0.07484196  64.59 0.0006428414    1.671    0.402
        37 -10.6926    167.8973    157.8000   1.1248823019e+02   1.8650670815e+01    0.2370637    0.1833988 -78.65  0.001250072    2.097    0.523
        38 -11.1984    119.3953    157.1457   1.2292246018e+02   2.7310959845e+01    0.2798409     0.242142  84.52  0.001711833    1.280    0.219
        39 -11.3975     28.2523    156.2404   1.4460866588e+02   3.9525620056e+01    0.4104708    0.1800493  71.01  0.001831561    2.372    0.578
        40  -9.8993    218.3099    156.6653   1.0282754665e+02   9.7899297019e+00    0.1117256     0.103649 -72.39 0.0005237953    1.677    0.404
        41  -9.8771      7.0720    155.8508   1.4953143719e+02   4.1392892619e+01    0.1401151    0.1151472 -76.91 0.0005682405    1.306    0.234
        42  -9.7540     67.6599    154.3336   1.3488829220e+02   3.5571110065e+01    0.1363411   0.08105523  64.69 0.0007051435    1.750    0.429
        43 -10.3432    189.7552    150.2632   1.0671627480e+02   1.5799756801e+01      0.28922    0.1906141 -58.68  0.001374212    2.516    0.603
        44  -9.6085     40.2418    151.6669   1.4134836595e+02   3.9308677689e+01     0.145243    0.1073559  27.72 0.0005069198    1.544    0.352
        45 -10.1300    233.7012    147.3390   9.8425544547e+01   8.3162059114e+00    0.1124503   0.09952419 -51.62 0.0005288786    1.662    0.398
        46 -10.0509     12.6619    146.9979   1.4774372254e+02   4.2802002893e+01    0.1864493   0.04514071 -58.61  0.000705047    4.466    0.776
        47 -10.9789    106.9595    145.5428   1.2396103526e+02   3.1640420221e+01    0.3944145    0.2241417  69.65  0.001616989    2.868    0.651
        48 -10.4278     55.7718    145.7775   1.3686777404e+02   3.8850704805e+01    0.2162073       0.1129  64.34  0.001050831    2.100    0.524
        49 -10.1707    148.4995    145.0109   1.1416565381e+02   2.4399195947e+01    0.1845683    0.1226018 -73.08 0.0007070223    2.565    0.610
        50 -11.7447     83.0339    129.9664   1.2749775211e+02   3.8678365278e+01    0.6128935    0.2282232 -66.45  0.002236529    3.302    0.697
        51 -12.0774     99.1320    128.4866   1.2294589286e+02   3.6476006293e+01    0.7147731     0.418362  80.51  0.002743542    3.238    0.691
        52 -11.3569     43.4245    122.7546   1.3746957437e+02   4.5348095979e+01    0.6852927    0.3056512  83.53  0.002683748    3.332    0.700
        53 -11.3198     27.4520    121.3403   1.4186126501e+02   4.7212744856e+01     0.626925    0.2263401  76.25     0.002053    5.013    0.801
        54 -11.5747    193.4097    118.4655   9.9127109598e+01   1.9939292693e+01    0.4974405    0.4071587 -61.36  0.002128905    1.627    0.385
        55 -10.6965     71.2351    120.0279   1.2910938537e+02   4.2583690951e+01    0.4062972    0.2214337  83.98   0.00161919    2.997    0.666
        56 -10.8715    140.6791    117.2171   1.1006592219e+02   3.1099163985e+01    0.3392493    0.1382681 -44.90  0.001268003    2.561    0.610
        57 -10.1419      2.3163    116.9789   1.4860595009e+02   5.0057419675e+01    0.1997097    0.0592785  75.79 0.0007048142    4.290    0.767
        58 -10.1077    232.3806    115.2030   9.1732076638e+01   1.2633544804e+01    0.1833278    0.1114959 -34.95  0.000450727    1.616    0.381
        59 -10.5816    108.6786    113.2370   1.1730686229e+02   3.8083709039e+01    0.4800964    0.2391139 -68.52  0.001643525    3.537    0.717
        60 -11.0044     78.8912    112.5321   1.2555472070e+02   4.3180843420e+01    0.4718599    0.2631541  86.78  0.001765587    3.317    0.699
        61 -11.9791    160.4850    111.9830   1.0427605183e+02   2.7954718125e+01    0.4883205    0.2876219  55.10  0.002136199    1.860    0.462
        62 -10.6396     58.9635    123.7072   1.3317798878e+02   4.3353277082e+01    0.5811877     0.267119  81.58  0.001905794    4.661    0.785
        63 -10.6486    174.4115    111.2409   1.0113293154e+02   2.5108014561e+01    0.3543619    0.2458614 -43.15  0.001734986    1.530    0.346
        64 -11.6818     14.8899    110.1609   1.4444892227e+02   5.0769265637e+01    0.5951569    0.3138284  77.03  0.003185777    1.854    0.461
        65 -10.6861    132.9028    108.3259   1.0985470045e+02   3.4416587378e+01    0.3813685    0.1648546 -47.92  0.001438148    2.439    0.590
        66  -9.5640     59.3199    109.6533   1.3087449627e+02   4.6532612721e+01    0.1414453     0.093169  71.27 0.0005386627    1.732    0.423
        67 -12.4664    141.1376    104.1309   1.0678862030e+02   3.3525996927e+01    0.6545206    0.4923355 -68.77  0.003124201    1.727    0.421
        68 -12.0640     44.5210    101.2932   1.3412832046e+02   5.0207860740e+01    0.6505763    0.3421169  77.21  0.002810737    2.653    0.623
        69 -11.8274    150.8143    103.3477   1.0430119725e+02   3.1603170970e+01     0.395997    0.2595064 -67.69  0.001624917    2.417    0.586
        70 -12.0523    127.7958    101.0255   1.0933461059e+02   3.6920945231e+01    0.5073243    0.3121397 -55.31  0.002232758    1.838    0.456
        71 -10.4485     81.6797    100.3687   1.2223273871e+02   4.5512172804e+01    0.2239497    0.1610998  73.98  0.001105201    1.703    0.413
        72 -10.5842     19.6804     97.9374   1.4170418607e+02   5.3251423357e+01    0.3370141     0.132425 -84.09  0.001452188    2.571    0.611
        73 -10.1590     94.7857     97.5910   1.1764524254e+02   4.3960223008e+01    0.2043394    0.1299466  51.42 0.0006617242    1.666    0.400
        74 -10.9953     63.0639     95.6713   1.2710832290e+02   4.9299864142e+01    0.4506215    0.2175016 -83.38  0.001500887    4.056    0.753
        75 -13.2079    170.5213     90.5111   9.6584359023e+01   2.9477857475e+01    0.5176547    0.4340276 -10.85 0.0009072096    1.251    0.201
        76 -11.2012     37.6208    121.0306   1.3892241082e+02   4.6334952851e+01    0.2020833     0.169847  46.67 0.0003000701    1.228    0.185
        77 -10.9110     34.3505     88.0199   1.3538359252e+02   5.4361717830e+01    0.5936882    0.1824732 -71.13  0.002199322    3.127    0.680
        78 -11.6731     87.4525     87.4994   1.1738618013e+02   4.7464944496e+01    0.4825401    0.3006932  59.25  0.002158684    2.000    0.500
        79 -11.1827     42.3308     87.6718   1.3254219583e+02   5.3653505196e+01    0.3628915    0.2211224  -3.71  0.001491774    2.732    0.634
        80 -10.7961     45.5455     81.7359   1.3025960121e+02   5.4710037503e+01    0.8370399    0.4034057  74.72  0.002611124    5.248    0.809
        81 -10.1573     47.6632     78.7027   1.2885551480e+02   5.5186394817e+01    0.2134523     0.191239 -14.78 0.0007741235    1.301    0.232
        82 -10.8855    104.3835     83.6979   1.1118079647e+02   4.5203913543e+01    0.3164053    0.2429001  88.31  0.001052901    1.749    0.428
        83 -12.4474    108.9226     99.6596   1.1407140021e+02   4.0935693109e+01    0.8404036    0.4996746  72.61  0.003035659    3.244    0.692
        84 -10.6712     24.3520     81.1049   1.3783857620e+02   5.6861009395e+01    0.3477345    0.1766678  76.60  0.001567147    2.567    0.610
        85 -10.6918     62.6975     74.7376   1.2244820186e+02   5.4203987768e+01    0.3607351    0.1792553 -68.99  0.001447601    2.502    0.600
        86 -11.0096     82.3731     73.3273   1.1518288901e+02   5.1468717188e+01    0.3655804    0.2389662 -89.48  0.001473077    2.743    0.635
        87 -11.4693    223.5491     70.9408   8.2223823870e+01   2.0275794046e+01    0.3039895    0.2689766 -61.70 0.0004975396    1.291    0.226
        88  -9.8714    195.3464     68.6848   8.5872756705e+01   2.7061000599e+01      0.15152    0.1115623 -64.19 0.0007047696    1.719    0.418
        89 -10.2412    219.2730     65.7776   8.1455757645e+01   2.1900504298e+01    0.3388305    0.2580473  -8.81  0.001479658    1.344    0.256
        90 -11.6854    221.5712    248.9096   1.1694703807e+02  -6.5446464130e-01    0.4120051    0.1632204  42.60  0.002372799    2.360    0.576
        91 -11.5991     18.8285     60.6811   1.3649107312e+02   6.2090702644e+01    0.5554174    0.1455189 -53.80  0.002199823    2.883    0.653
        92 -10.8429     40.3005     52.4565   1.2525670845e+02   6.2085116659e+01    0.4066469    0.2667539 -39.88   0.00122114    1.491    0.330
        93 -11.4952    232.5398     60.8793   7.8440278483e+01   1.9572729175e+01    0.2676488    0.1880722 -85.62  0.001350274    1.962    0.490
        94 -11.3594     11.9992     59.4866   1.3916711544e+02   6.2810321581e+01    0.3465631    0.2151767  35.33  0.002033534    1.845    0.458
        95 -10.6399      7.6578     55.8193   1.4041770128e+02   6.3907359073e+01    0.4546726    0.1939302 -80.45  0.002135098    2.216    0.549
        96 -10.0287     72.4214     58.2140   1.1405006444e+02   5.6415357775e+01    0.2055775    0.1302039 -59.72 0.0009564983    1.705    0.414
        97 -10.2535     92.3115     50.8378   1.0443194622e+02   5.4301257005e+01    0.3040614     0.123744 -48.07  0.001088205    2.610    0.617
        98 -11.8366     71.1024     42.3436   1.0887205622e+02   5.9915804723e+01    0.5746521    0.3243365  56.96  0.002418499    2.574    0.611
        99 -10.2617    157.1247     44.8570   8.5374233734e+01   4.0044379534e+01    0.2265924    0.2058395 -76.60 0.0005190133    1.202    0.168
       100  -9.9423     10.0060     44.0000   1.3711630935e+02   6.6516534965e+01    0.2110184    0.1205606  26.47  0.001194137    2.045    0.511
       101 -10.6973      5.8321     42.7485   1.3888903616e+02   6.7021223685e+01    0.3262461    0.2074074  73.17  0.001644591    1.885    0.470
       102 -11.5845     42.8800     38.1316   1.1944537190e+02   6.4940908434e+01    0.4005258    0.2967075 -31.59  0.001312368    1.322    0.244
       103 -10.6548    119.5421     33.5297   8.9617873287e+01   5.1194391817e+01    0.3171737    0.2611413 -60.98  0.001397093    1.419    0.295
       104 -11.2182     35.8439     38.4655   1.2292603630e+02   6.5673670383e+01    0.3509929    0.2513983 -81.27  0.001908909    1.804    0.446
       105 -10.3320     73.2684     32.1561   1.0381574778e+02   6.1464058917e+01    0.2635728    0.1951232  76.28  0.001256904    2.183    0.542
       106 -11.2874    103.8992     30.2566   9.2559877809e+01   5.5401776726e+01    0.5665343    0.3557623  65.91  0.002085088    1.965    0.491
       107 -10.8429     36.4982     23.3248   1.1672620421e+02   6.8761327635e+01    0.3689368    0.1888528  42.36  0.001777563    2.416    0.586
       108 -10.9356     21.1984    247.9551   1.5034441091e+02   2.3990318077e+01    0.1975711    0.1416867 -15.05  0.001339446    3.644    0.726
       109 -10.4435    239.7958     20.9186   6.7336700747e+01   2.2433683306e+01    0.2104446    0.1872931 -88.20 0.0006301599    1.196    0.164
       110 -11.3391     25.5100    242.0087   1.4944298447e+02   2.4462893654e+01    0.2014585   0.09496336  57.56  0.001269231    1.517    0.341
       111 -11.3229     22.4695    239.4753   1.4986212678e+02   2.5130993140e+01     0.179098   0.09430196  63.15 0.0009662836    1.436    0.304
       112 -10.7381      8.5086    240.4939   1.5219067921e+02   2.6240921818e+01    0.1667949    0.1085331  39.70  0.001081719    1.386    0.278
       113 -12.0474     29.8582    233.9862   1.4841150477e+02   2.5264386540e+01    0.5121338       0.1752  56.29  0.002923818    2.173    0.540
       114 -10.5144     12.8425    227.3148   1.5110099481e+02   2.7897379856e+01    0.1572046   0.09386482  65.67 0.0005049316    1.251    0.200
