#   1 NUMBER                 Running object number                                     
#   2 MAG_AUTO               Kron-like elliptical aperture magnitude                    [mag]
#   3 X_IMAGE                Object position along x                                    [pixel]
#   4 Y_IMAGE                Object position along y                                    [pixel]
#   5 X_WORLD                Barycenter position along world x axis                     [deg]
#   6 Y_WORLD                Barycenter position along world y axis                     [deg]
#   7 A_WORLD                Profile RMS along major axis (world units)                 [deg]
#   8 B_WORLD                Profile RMS along minor axis (world units)                 [deg]
#   9 THETA_WORLD            Position angle (CCW/world-x)                               [deg]
#  10 FWHM_WORLD             FWHM assuming a gaussian core                              [deg]
#  11 ELONGATION             A_IMAGE/B_IMAGE                                           
#  12 ELLIPTICITY            1 - B_IMAGE/A_IMAGE                                       
         1 -12.0801    191.3109     38.0725   5.2606905269e+01   3.2455809539e+01     1.008068    0.9480903 -57.95  0.003255437    1.054    0.052
         2 -12.2797    199.0502     29.0484   4.8945714756e+01   3.1611578260e+01     0.807755    0.7073028  35.67  0.001405062    1.313    0.238
         3 -11.7076     49.7405      9.9503   7.7089990273e+01   6.7876596820e+01     0.537452    0.2818676 -28.43  0.002931664    1.719    0.418
         4 -11.3749    223.1386      3.4246   3.9629235599e+01   2.8453717027e+01    0.6943274    0.4105353  60.64  0.003226685    1.708    0.415
         5 -10.6852    218.1378      2.8867   3.9916964680e+01   2.9725637225e+01    0.4127596    0.3022936  75.37  0.002036269    1.273    0.214
         6 -10.2060    216.6222     13.3462   4.2719895316e+01   2.8996289748e+01    0.3057919    0.1811001 -63.22 0.0008313263    1.704    0.413
         7  -9.1256    156.4827    218.9402   1.0248913151e+02   7.4484436573e+00     0.173422    0.1292068 -48.32  0.001020754    1.596    0.373
         8 -19.3813      8.7602    136.3505   1.2450327647e+02   4.5663679319e+01      17.9396     2.676047 -75.43   0.05095093    6.199    0.839
         9  -7.7631    102.3468    250.6692   1.1626403615e+02   1.1018747480e+01    0.1229458   0.06818169  64.24 -0.0001833681    1.761    0.432
        10  -8.2316     82.5273    195.0324   1.1424905094e+02   2.4171082617e+01    0.1840315    0.1168153 -70.26 0.0009775506    1.564    0.361
        11 -11.9528     64.5122    189.6173   1.1740157808e+02   2.7849239220e+01    0.7220687    0.6460369  81.19  0.003261217    1.182    0.154
        12  -7.9479     94.1980    250.1444   1.1762783997e+02   1.2287647775e+01    0.1595998    0.1020737  63.69 0.0005091059    1.325    0.245
        13  -9.5287    181.4754    218.2763   9.7598204457e+01   3.1957200074e+00    0.3561724   0.09384604  46.26  0.001221215    3.590    0.721
        14  -8.7660     99.4082    180.6971   1.0874056222e+02   2.4572940146e+01    0.2051893    0.1618819  23.17 0.0008673621    1.672    0.402
        15 -10.2896     76.4798    175.5352   1.1314382397e+02   2.9235383479e+01    0.2981104    0.2545846 -54.51 0.0007889387    1.387    0.279
        16 -10.7573     80.5581    170.2366   1.1150476021e+02   2.9815620324e+01    0.4354439    0.3046322 -40.50  0.002281862    1.951    0.488
        17  -9.1798     59.1494    176.6827   1.1712554339e+02   3.1356503317e+01    0.2284457    0.1628504 -69.98 0.0005955629    1.320    0.242
        18  -9.9163    112.9579    173.5982   1.0460730289e+02   2.3805579091e+01    0.3396958    0.1504924  52.83   0.00134461    2.384    0.580
        19  -9.1340    104.1132    172.8171   1.0649394486e+02   2.5496911710e+01    0.2940636    0.1846845 -53.56  0.001465279    1.669    0.401
        20  -9.7521     97.0541    169.2212   1.0755310664e+02   2.7462676181e+01    0.2787748    0.1765149  58.86  0.001381811    1.586    0.369
        21  -7.8638    162.2944    167.2945   9.2440045714e+01   1.5694821596e+01    0.1419537    0.1138031   6.26  0.000178842    1.560    0.359
        22  -8.3481     97.1715    192.0501   1.1079401676e+02   2.2542101841e+01    0.1790606    0.1778447 -56.08 0.0003781835    1.316    0.240
        23 -10.5252     94.0511    154.3271   1.0584002402e+02   3.1324530792e+01    0.5723562    0.3966755 -34.00  0.002261221    2.028    0.507
        24  -9.0481    237.2460    159.4236   7.6051698856e+01   2.1026800508e+00    0.1835292    0.1315427  54.16 0.0009567796    1.702    0.412
        25  -9.3762    134.3436    146.9141   9.4614081266e+01   2.5613275268e+01    0.5470868    0.1421025 -52.54  0.001494769    4.396    0.773
        26  -9.6224    106.2852    139.5282   1.0001918659e+02   3.2647119826e+01    0.5421259    0.2873693 -38.13  0.002111092    2.528    0.604
        27 -10.7612     94.1861    139.5900   1.0313711504e+02   3.4729461761e+01    0.2975464    0.2830207   2.51 0.0004521068    1.284    0.221
        28  -9.2103    106.0090    130.8884   9.8285573368e+01   3.4704081990e+01    0.3537633    0.2426128 -53.89  0.001692434    1.404    0.288
        29 -10.1309    114.3819    130.0153   9.5911071691e+01   3.3345496126e+01    0.3808857    0.2700694 -45.10  0.001412413    1.436    0.304
        30  -9.3561    101.4526    126.3302   9.8502079099e+01   3.6587726977e+01    0.2969382    0.2386884 -36.14 0.0007347148    1.399    0.285
        31  -9.3334    164.1752    218.0114   1.0086550659e+02   6.2579706865e+00    0.2005752    0.1458587  -5.38 0.0009100686    2.019    0.505
        32  -8.4872    109.6420    119.1004   9.4648289484e+01   3.6763399882e+01    0.2091989     0.179076 -54.01 0.0004050375    1.122    0.109
        33  -8.7431    167.6155    112.5782   7.8583524211e+01   2.5629292460e+01    0.3250209    0.2304605 -78.29  0.001321386    2.091    0.522
        34  -8.5146     73.1953    218.2062   1.1853067881e+02   2.0896507304e+01    0.1694808    0.1446992  71.89 0.0004971957    1.152    0.132
        35 -10.0154    115.1455    109.4792   9.0773180496e+01   3.7891117111e+01    0.4027997    0.1991322  45.84  0.001570648    2.100    0.524
        36  -8.6573    205.1782    110.3060   7.0309455916e+01   1.7205476793e+01    0.2445461    0.1888057  33.17 0.0007581406    1.416    0.294
        37  -7.6198    115.3246    101.6706   8.8655571153e+01   3.9602882465e+01    0.1572699    0.1213637 -88.15 0.0007050094    1.700    0.412
        38  -8.6497    130.8649    213.9100   1.0680188413e+02   1.2726236048e+01    0.1706489    0.1355886  71.74 0.0003852061    1.288    0.223
        39  -9.1796    184.6221    213.1828   9.6182005345e+01   3.4186251672e+00    0.1682758    0.1196242 -24.72  0.000585527    1.681    0.405
        40  -9.2014    107.8374    203.5134   1.1006497814e+02   1.8518066710e+01    0.2102633    0.1568306  77.63 0.0005467939    1.350    0.259
        41  -8.9138     96.8502    200.5849   1.1195125274e+02   2.0855096099e+01    0.3227935    0.2384856 -27.11  0.001546041    2.389    0.581
        42  -8.3227    155.5030     80.5198   7.2254552810e+01   3.4855072243e+01    0.1556171     0.154327 -52.91 -1.738546e-05    1.007    0.006
        43  -8.0305     66.6012     70.8495   9.4799370173e+01   5.4846801633e+01     0.188792    0.1219943 -58.85 0.0004063626    1.621    0.383
        44  -9.6137    193.0920    195.2658   9.1456535198e+01   4.7012685263e+00    0.6026514    0.2804427 -58.27  0.001880209    5.637    0.823
        45  -9.3523    158.6705     60.6359   6.5370303218e+01   3.7577406010e+01    0.3045511    0.2514282 -68.26 0.0005930188    1.370    0.270
        46  -8.5926    161.0420     54.6624   6.2971799310e+01   3.7933179093e+01    0.2148973    0.1954847  58.69 0.0005042366    1.082    0.076
        47 -11.4161    179.5979     48.3322   5.7531685958e+01   3.4077378389e+01     0.705797    0.5184622 -23.20  0.001498154    1.475    0.322
        48 -11.1864    134.9283    247.9309   1.1023552246e+02   6.4691810441e+00    0.4405178     0.341663 -42.18   0.00302633    1.751    0.429
        49  -9.6987    127.9932    243.8144   1.1102060386e+02   8.1912818595e+00    0.1645231    0.1189706  80.46 0.0008417148    1.629    0.386
        50  -9.5741    124.0851    248.5812   1.1223735937e+02   8.0633245525e+00    0.2489244    0.1578234  71.75  0.001488422    1.858    0.462
        51  -8.6237     58.2755    227.2462   1.2204387734e+02   2.1191592429e+01    0.1729089    0.1246695  82.30 0.0003442646    1.180    0.153
        52  -8.9541     61.4359    220.4484   1.2092300616e+02   2.2054450572e+01    0.2294242    0.1646638 -57.20  0.001505407    1.803    0.445
