#   1 NUMBER                 Running object number                                     
#   2 MAG_AUTO               Kron-like elliptical aperture magnitude                    [mag]
#   3 X_IMAGE                Object position along x                                    [pixel]
#   4 Y_IMAGE                Object position along y                                    [pixel]
#   5 X_WORLD                Barycenter position along world x axis                     [deg]
#   6 Y_WORLD                Barycenter position along world y axis                     [deg]
#   7 A_WORLD                Profile RMS along major axis (world units)                 [deg]
#   8 B_WORLD                Profile RMS along minor axis (world units)                 [deg]
#   9 THETA_WORLD            Position angle (CCW/world-x)                               [deg]
#  10 FWHM_WORLD             FWHM assuming a gaussian core                              [deg]
#  11 ELONGATION             A_IMAGE/B_IMAGE                                           
#  12 ELLIPTICITY            1 - B_IMAGE/A_IMAGE                                       
         1 -14.2240     68.2433    144.3210   1.0825909391e+02   3.7151087614e+01     3.581868     1.636278 -85.49  0.003078697    4.906    0.796
         2 -14.0320    222.4588     15.9555   3.9750431286e+01   2.7476536633e+01     1.213578    0.9918166  41.20  0.003559691    1.527    0.345
         3 -13.8755    197.7337     38.6861   4.8520229400e+01   3.0741742001e+01      1.59311     1.180778   6.14  0.004511273    1.863    0.463
         4 -14.0455    206.2277     32.6026   4.5752343004e+01   2.9413920818e+01     1.533114     1.246793 -22.10  0.006277771    1.382    0.277
         5 -12.5616    213.9276     25.0858   4.2893192130e+01   2.8455881165e+01    0.5281194    0.4220164  36.19  0.001135879    1.562    0.360
         6 -10.7673    189.8098     15.2529   4.3048705470e+01   3.5551835697e+01    0.2800751    0.2247685 -39.10 0.0008681166    1.291    0.225
         7 -10.1962      2.0198      3.2189   9.5708137477e+01   7.3915516513e+01    0.2194452   0.09680578 -35.69  0.001288636    1.683    0.406
         8 -10.4867     47.4285      2.0553   7.1180331971e+01   6.8993819073e+01    0.2045892    0.1614228  43.81  0.001342179    1.611    0.379
         9 -13.7643     86.7943    227.3400   1.1466488807e+02   1.6279663306e+01     1.549429    0.6989599  56.98  0.002763147    2.196    0.545
        10  -9.5521    174.6024    249.8294   1.0045689291e+02  -1.0439363987e+00    0.2150428    0.1680792  64.26  0.001378318    1.737    0.424
        11 -12.3445     63.9665    237.9796   1.1992468577e+02   1.7423132746e+01    0.8329013    0.2744455  46.42  0.002841597    2.316    0.568
        12 -15.1646     86.8784    246.9558   1.1650190479e+02   1.2743151116e+01     8.653973     2.913582  30.20   0.02677223    6.637    0.849
        13 -13.3394      5.0964    187.6037   1.2752697519e+02   3.3928654078e+01     1.163318    0.5851134 -82.21  0.004378829    1.589    0.370
        14 -13.0087     23.9780    225.1642   1.2622703493e+02   2.4530855739e+01    0.7880601    0.4407494  74.54    0.0031222    1.461    0.316
        15 -13.6143     30.8590    247.8123   1.2631469937e+02   1.9630376549e+01    0.9747111    0.9492773  -1.51    0.0082767    1.786    0.440
        16 -16.1009     43.6285    197.0984   1.2047470522e+02   2.8052414814e+01     9.508178     3.612608  77.09    0.0320242    4.963    0.799
        17 -12.0811     63.6041    180.2756   1.1442322454e+02   2.9295887762e+01    0.4114871    0.2887141 -38.23  0.001471005    2.030    0.507
        18 -12.0455     68.4655    174.8438   1.1262973423e+02   2.9885167023e+01    0.3210503    0.2653936 -50.58 0.0009108831    1.402    0.287
        19  -9.5315     99.6396    180.8411   1.0616184143e+02   2.3880555801e+01    0.2198742    0.1829723  35.52 0.0006283497    1.278    0.217
        20 -11.3931     42.1821    177.7569   1.1898204119e+02   3.2468463018e+01    0.4405168    0.3190978   2.77  0.001552128    2.348    0.574
        21 -13.6051     65.5022    160.8292   1.1146670628e+02   3.3552974456e+01    0.5946634    0.3810071 -49.11  0.003058968    1.708    0.415
        22 -11.6360     77.8930    164.9695   1.0900086184e+02   3.0856539668e+01    0.2843069    0.2564622 -87.78  0.000362202    1.034    0.033
        23 -13.7432     82.6662    158.3482   1.0678662611e+02   3.1714816531e+01     3.356451      1.24559  54.10  0.001049475    3.892    0.743
        24  -9.4449    145.5616    168.5084   9.3214312085e+01   1.8339353324e+01     0.146009      0.14068  35.54 9.798689e-05    1.017    0.017
        25 -10.2296    230.4764    166.4788   7.4977709284e+01   2.1894785609e+00    0.1396559     0.120993  -4.58 4.513027e-05    1.003    0.003
        26  -9.7811    193.2768    165.8988   8.2114976887e+01   9.3727047555e+00    0.2649961    0.2457217  49.65  0.001097343    1.213    0.175
        27 -11.3215     32.8154    155.9631   1.1888935175e+02   3.8484995928e+01    0.3045939    0.2016458  78.24  0.001368104    1.432    0.301
        28 -13.3410     37.3571    208.4622   1.2264804005e+02   2.6388922943e+01     0.541213    0.3979323  39.76  0.001718937    1.488    0.328
        29  -9.9522    137.5944    171.1601   9.5587560682e+01   1.9304572085e+01    0.2042733    0.1374344 -39.19 0.0005246875    1.662    0.398
        30  -9.7260    174.7582    148.3797   8.2224656083e+01   1.6570813568e+01     0.291914    0.1874469 -51.43 0.0009152447    1.726    0.421
        31  -9.9812    134.2200    148.0123   9.1725963789e+01   2.5057993802e+01    0.4626022    0.1585593 -50.62  0.001484066    3.008    0.668
        32 -10.4444    133.5937    141.7745   9.0511829233e+01   2.6593004587e+01    0.5832948    0.2295664 -55.45  0.001873619    3.042    0.671
        33 -14.7108      9.7058    207.8416   1.2781086890e+02   2.9344666589e+01     1.178391    0.9307275 -89.97  0.003758399    1.204    0.169
        34 -14.8306      7.3689    244.9471   1.2996469634e+02   2.2581406813e+01      1.36457     1.003193  41.28   0.01100185    1.593    0.372
        35 -10.8989     99.9538    142.2806   9.9388031182e+01   3.2776550440e+01    0.6050605    0.3767746 -26.16  0.002399129    2.612    0.617
        36 -12.4088     87.1264    142.2969   1.0283232150e+02   3.4879754738e+01    0.3091633    0.2581145 -46.58 0.0005119096    1.245    0.197
        37 -10.0518     81.4125    141.4034   1.0421010633e+02   3.5976002645e+01    0.3366106    0.2014676  64.77 0.0005434037    2.179    0.541
        38 -14.1858      9.5639    231.0135   1.2900102639e+02   2.4883876495e+01     1.048222    0.4888668  64.20  0.004921887    1.655    0.396
        39  -9.7099     28.6258    136.2203   1.1766043648e+02   4.3569757221e+01    0.1775319   0.09544006 -62.91 0.0001910547    1.544    0.352
        40  -9.5521    135.3208    134.3036   8.8359625002e+01   2.7933824484e+01    0.1569996    0.1246147  -3.64 0.0002038348    1.632    0.387
        41  -8.8756     37.6600    133.2714   1.1484590501e+02   4.3426970733e+01    0.1311454   0.08841667  69.35 0.0003454785    1.607    0.378
        42 -10.1043    109.8089    131.7717   9.4505890297e+01   3.3526970858e+01     0.338232    0.2534572  -9.00 0.0009109807    1.918    0.479
        43 -10.2192    106.3927    131.2075   9.5312406178e+01   3.4286226995e+01     0.360045    0.3031821 -79.50  0.001836915    1.279    0.218
        44  -9.5518    158.5331    130.5055   8.1716412956e+01   2.3808799989e+01    0.1553872    0.1538533 -17.76 8.893438e-05    1.021    0.020
        45 -10.8375     97.1981    128.0065   9.7155430505e+01   3.6676236781e+01    0.3144197    0.2575048 -28.40 0.0006599972    1.400    0.286
        46  -8.8226    125.6511    127.3115   8.9210605114e+01   3.1504664360e+01    0.1610075     0.123784  82.22 0.0007045683    1.716    0.417
        47 -10.0467    116.3622    126.0348   9.1400157730e+01   3.3638328016e+01    0.3580055     0.238624 -70.16  0.001200876    1.905    0.475
        48 -10.4345    135.5191    123.5107   8.5690669149e+01   3.0329525141e+01    0.2401795    0.1501357 -56.41 0.0007264438    1.761    0.432
        49  -9.8856    106.9385    120.0832   9.2588324264e+01   3.6825096690e+01    0.2174997    0.2086717 -46.81 0.0002837984    1.025    0.025
        50 -11.4339     46.9324    129.4241   1.1170406045e+02   4.3396557999e+01    0.3715362     0.212015  29.89  0.001863353    2.023    0.506
        51 -10.9439     23.7748    117.0284   1.1646611760e+02   4.8587957976e+01    0.2688267     0.177998 -77.66 0.0006834453    1.299    0.230
        52  -9.8885    168.3511    113.2757   7.5014242801e+01   2.5198631091e+01    0.3788389    0.2532567 -74.73  0.001241734    2.523    0.604
        53 -10.3240     52.2621    250.2971   1.2287317624e+02   1.6703911305e+01     0.244757    0.1215851  41.30 0.0008509929    1.740    0.425
        54  -9.9022    135.0000    112.9573   8.3106145878e+01   3.2798754541e+01    0.2650753    0.0891468 -44.86 0.0007997185    2.924    0.658
        55  -9.8909     39.8662    113.2074   1.1108967982e+02   4.8078417085e+01    0.1983052     0.163052  89.01 0.0005030686    1.236    0.191
        56 -10.1417    205.3671    110.3654   6.6566034162e+01   1.7201587258e+01    0.3446625    0.2481075  35.50  0.001106239    1.526    0.345
        57 -10.6057     29.1180    106.6797   1.1327677846e+02   5.0633398856e+01    0.2602493     0.155613 -60.40 0.0005441009    1.347    0.258
        58 -10.0381    134.4973    102.9141   8.0501842693e+01   3.5108554446e+01    0.3192327    0.1534927 -38.95  0.001062123    2.122    0.529
        59 -11.9136    248.9202    102.4016   5.7407615310e+01   9.1996230357e+00    0.4170257    0.2435431 -35.83  0.002017962    1.489    0.328
        60 -10.4053     39.2988    102.1631   1.0925371310e+02   5.0796668991e+01    0.2814835    0.1190937  49.87  0.001096737    3.422    0.708
        61 -12.5984    247.3234     89.5375   5.4614749283e+01   1.1578506765e+01     0.628296    0.4520355   1.46  0.003115115    1.935    0.483
        62  -9.1545     73.3429     84.0032   9.3537896471e+01   5.0881872056e+01     0.199293    0.1670762 -50.26 0.0004220062    1.126    0.112
        63 -13.6398     47.0417    221.9659   1.2181770249e+02   2.2562175551e+01    0.9962595    0.5843921 -88.56  0.001418441    1.588    0.370
        64 -10.2965     13.5505     60.1285   1.0949850267e+02   6.2439174591e+01    0.2175057     0.172847 -49.91 0.0004234778    1.037    0.036
        65  -9.5039    155.5724    199.8600   9.6685313978e+01   1.0219120195e+01    0.2960182     0.134841 -58.47  0.001124162    3.247    0.692
        66 -13.0091     27.8160    215.7058   1.2495800374e+02   2.5969298356e+01     1.177956    0.4225587  82.21  0.003593984    3.661    0.727
        67 -11.3226    193.1462    193.3661   8.7670406160e+01   4.5261126151e+00    0.7800449    0.4527061 -52.76  0.003549141    2.350    0.574
        68 -11.0845    139.2555     44.9651   6.0988512194e+01   4.4728407952e+01    0.3869704    0.2999424 -79.29 0.0008558014    1.695    0.410
        69  -9.9360    144.8067     41.7744   5.8672784518e+01   4.3807324417e+01    0.2029481    0.1717765 -67.92 0.0003768381    1.369    0.270
        70  -9.9715     67.1701    195.6367   1.1537359805e+02   2.5429659603e+01    0.2685833    0.1583722  62.76  0.001424727    1.644    0.392
        71 -11.8366     20.7078    195.4244   1.2496369406e+02   3.0851822921e+01    0.4001125    0.1971813  33.51  0.002276536    2.217    0.549
        72 -10.1288    150.0746    189.7302   9.6134868901e+01   1.3155038612e+01    0.3014489    0.2072382 -69.13  0.001439538    1.971    0.493
