#   1 NUMBER                 Running object number                                     
#   2 MAG_AUTO               Kron-like elliptical aperture magnitude                    [mag]
#   3 X_IMAGE                Object position along x                                    [pixel]
#   4 Y_IMAGE                Object position along y                                    [pixel]
#   5 X_WORLD                Barycenter position along world x axis                     [deg]
#   6 Y_WORLD                Barycenter position along world y axis                     [deg]
#   7 A_WORLD                Profile RMS along major axis (world units)                 [deg]
#   8 B_WORLD                Profile RMS along minor axis (world units)                 [deg]
#   9 THETA_WORLD            Position angle (CCW/world-x)                               [deg]
#  10 FWHM_WORLD             FWHM assuming a gaussian core                              [deg]
#  11 ELONGATION             A_IMAGE/B_IMAGE                                           
#  12 ELLIPTICITY            1 - B_IMAGE/A_IMAGE                                       
         1 -14.4811    151.0191     58.1655   8.6367040718e+01   3.9898837380e+01     1.292754     1.085154  -0.36 0.0009896415    1.341    0.255
         2 -14.9397    162.4184     43.6261   7.9382260391e+01   3.9215391361e+01      1.36296     1.092377 -14.02    0.0034936    1.378    0.274
         3 -14.7911    176.0928     11.0494   6.6987509030e+01   3.9571025322e+01     1.262255     1.065001  60.26  0.004457617    1.124    0.110
         4 -12.6865    190.1392     14.1575   6.6148414626e+01   3.5653505829e+01    0.3890105    0.2611762 -18.95  0.001531706    1.697    0.411
         5 -11.4485    138.6423    242.9122   1.2847951263e+02   7.5018893626e+00    0.3426063    0.2440055 -65.94  0.002247737    1.793    0.442
         6 -20.0697     76.1959    175.2014   1.3258332236e+02   2.9734331805e+01     16.72482     6.702823 -66.48    0.0725738    2.498    0.600
         7 -10.9270    126.8765    250.7789   1.3143420199e+02   8.1480897079e+00    0.1469053   0.07318565  45.31 0.0008300308    1.542    0.351
         8 -11.1634     12.8981    242.7302   1.4987248501e+02   2.4178593373e+01     0.141672    0.1144566 -64.87  0.001163156    1.827    0.453
         9 -10.6915     24.9662    185.4653   1.4443552623e+02   3.3734893505e+01    0.1643489    0.1191249 -87.76 0.0003500902    1.130    0.115
        10 -12.6702    118.3685    181.5515   1.2420321389e+02   2.1713821014e+01    0.6316653    0.3286089  67.67  0.002397904    3.200    0.688
        11 -10.9666     31.1768    182.6698   1.4296985507e+02   3.3678615557e+01    0.2764925    0.1837099  19.51  0.001664796    2.344    0.573
        12 -11.2387     27.6781    179.7281   1.4343872577e+02   3.4655917753e+01    0.2929981     0.218259 -28.45  0.001828564    2.389    0.581
        13 -12.5194    159.9991    179.5015   1.1494631573e+02   1.4475016319e+01    0.4087527    0.2135569  32.81  0.001536787    2.145    0.534
        14 -12.8139    199.0624    178.5627   1.0691433747e+02   7.1294821094e+00    0.6432223    0.3918979 -62.00  0.002699827    3.001    0.667
        15 -13.4049    195.3789    168.8287   1.0568842409e+02   9.4676582334e+00    0.4760834      0.44357  43.50 0.0006998271    1.133    0.117
        16 -12.5745    193.1570    164.1585   1.0516618214e+02   1.0713382833e+01    0.4693976    0.3003887  41.66  0.002175088    1.487    0.327
        17 -13.2398    176.8387    170.1930   1.0968291014e+02   1.2897610483e+01    0.4205462    0.3190479 -33.32  0.002225506    1.418    0.295
        18 -11.9775    187.8993    174.7610   1.0835119800e+02   9.9174674755e+00    0.2635378    0.1905564 -70.95  0.001253761    2.188    0.543
        19 -12.2547    141.4841    174.5003   1.1798815555e+02   1.8949783151e+01    0.2912081    0.2534239  50.40 0.0009683117    1.063    0.060
        20 -13.5430    138.0659    171.3364   1.1816799745e+02   2.0222624102e+01    0.6750192    0.4516945  52.92  0.002192092    1.455    0.313
        21 -12.1258    125.9278    172.0532   1.2098113283e+02   2.2317160098e+01    0.3286974    0.2683715 -67.24   0.00109994    1.284    0.221
        22 -11.9537     26.1883    173.3966   1.4321942401e+02   3.6145228842e+01    0.2531985    0.1872778  85.46 0.0003667519    1.059    0.056
        23 -10.5066    151.1007    241.6977   1.2609614384e+02   5.7050081299e+00    0.1630611     0.122746  39.91 0.0005674427    1.100    0.091
        24 -11.4817    165.6484    172.0856   1.1237438795e+02   1.4758218369e+01    0.1978797     0.182528 -38.06  0.001147815    1.161    0.139
        25 -14.5941    145.0647    169.5367   1.1630300015e+02   1.9252898041e+01    0.9915706    0.6594517  66.10   0.00464076    1.868    0.465
        26 -10.9947     28.7025    239.9095   1.4724310615e+02   2.3006275104e+01    0.1414194   0.09147536  70.40 0.0003878495    1.116    0.104
        27 -11.8203    230.1239    166.2509   9.8692149631e+01   3.2129347868e+00     0.247263    0.1742648 -56.33  0.001103612    2.089    0.521
        28 -11.9983    122.1520    165.5608   1.2069909872e+02   2.4352813961e+01    0.5267268    0.2379736  57.42  0.001194106    2.948    0.661
        29 -11.5330     21.7066    238.3643   1.4828467498e+02   2.4021162385e+01    0.1153577   0.09528738  77.90  0.000970951    1.309    0.236
        30 -12.2843    129.4271    161.7240   1.1834320792e+02   2.3818967012e+01    0.4843419    0.2387684  42.13  0.001395808    1.957    0.489
        31 -11.7797     17.4351    156.8795   1.4367738099e+02   4.0532678702e+01    0.4737922    0.2346815 -62.76  0.002209042    1.809    0.447
        32 -11.6586    191.2343    157.8632   1.0422444553e+02   1.2209810035e+01    0.3931303    0.2367004  27.25  0.001710865    1.994    0.499
        33 -14.5888    134.2910    146.3299   1.1417759113e+02   2.6143063405e+01     1.508795    0.5430648 -57.43  0.004586552    3.923    0.745
        34 -12.5325    160.3198    152.3049   1.0951893199e+02   1.9638803141e+01    0.3122213    0.2570834 -18.94 0.0009044422    1.413    0.293
        35 -10.6525     22.9760    156.0818   1.4236810232e+02   4.0208041508e+01    0.1763238    0.1398606  89.13 0.0004051583    1.022    0.022
        36 -11.0077    131.1530    235.5341   1.2897285620e+02   9.8204054133e+00    0.1839243    0.1546619 -76.78 0.0005719238    1.400    0.286
        37 -13.2070    162.8487    154.8211   1.0949879331e+02   1.8622647753e+01    0.3913268    0.3668486 -25.20  0.001071099    1.120    0.107
        38 -14.5812    144.0132    143.4149   1.1128589556e+02   2.4805939331e+01     1.120233    0.5744107 -61.56  0.004103706    2.761    0.638
        39 -10.4182    163.0278    250.5208   1.2507150187e+02   2.5836265802e+00    0.1760824   0.09079263  41.33 0.0003485717    1.502    0.334
        40 -12.2600    174.3787    148.5016   1.0566393664e+02   1.7443745783e+01    0.3533424    0.2874291 -62.62  0.001092295    1.439    0.305
        41 -11.7904     27.3415    145.5929   1.4029399856e+02   4.2137048187e+01    0.2492897    0.2111574 -57.27 0.0007634116    1.338    0.253
        42 -11.1006    139.1900    250.1591   1.2921049978e+02   6.3517615548e+00    0.2129986    0.2029968  85.52     0.001675    1.285    0.222
        43 -14.1931    135.7544    128.1239   1.0979911639e+02   2.9751954455e+01     1.554527    0.3685595 -50.46  0.003987883    4.888    0.795
        44 -10.9783      9.2271    137.4363   1.4379438903e+02   4.5493883332e+01    0.2169604    0.1511538 -55.62  0.001440524    1.494    0.331
        45 -10.0856    133.4072    229.2251   1.2779549748e+02   1.0470052649e+01    0.1427406     0.112774 -84.42 0.0004916594    1.512    0.339
        46 -12.8135    160.6647    128.0448   1.0394492417e+02   2.4435610567e+01    0.4600336    0.3803684 -60.13  0.001949276    1.316    0.240
        47 -10.9746     17.1551    224.6466   1.4832464526e+02   2.6920382607e+01    0.1166813   0.08061611 -85.13 0.0005762443    1.316    0.240
        48 -12.8918     22.7857    220.1244   1.4712692436e+02   2.7170804273e+01    0.2705602    0.1568602 -69.74  0.001841642    1.760    0.432
        49 -12.3259    140.3735    120.7573   1.0690694113e+02   3.0353986331e+01     0.298624     0.241966  82.45 0.0007506331    1.495    0.331
        50 -10.9758    133.5716    248.4960   1.3001383603e+02   7.4616768834e+00    0.1161737    0.0905128  49.85 7.259982e-05    1.014    0.014
        51 -10.6336    130.8102    213.5000   1.2626641474e+02   1.3547977473e+01    0.1926056    0.1523868  89.72 0.0006293783    1.452    0.311
        52 -11.2113    167.4896    112.6661   9.8575312197e+01   2.5963197522e+01    0.3153511    0.2416068  86.82  0.001191708    1.761    0.432
        53 -10.5337     15.9879    209.5115   1.4769806646e+02   2.9851772717e+01    0.1013409   0.09937901  71.49 0.0004173747    1.605    0.377
        54 -13.1541     11.4601    206.1005   1.4830346762e+02   3.0941425526e+01    0.3736787    0.2415749  36.56  0.002187925    1.795    0.443
        55 -10.8017    205.2274    110.1988   9.0341856822e+01   1.7686131503e+01     0.303445    0.1986642  39.93 0.0009847992    1.629    0.386
        56 -10.3561     22.7099    205.1195   1.4623171429e+02   3.0023712245e+01    0.1771209    0.1221291 -47.90  0.001160765    2.272    0.560
        57 -11.6327    134.1753    244.3121   1.2943945919e+02   7.9913064906e+00    0.2559118    0.1702615 -40.17  0.001453989    2.114    0.527
        58 -11.1795    139.9301    200.2989   1.2256131769e+02   1.4339564190e+01    0.3540511    0.2121218  39.71  0.000796133    1.524    0.344
        59 -10.5846    143.9848     80.7455   9.5043263562e+01   3.7646195638e+01    0.2137675     0.204431  53.00 0.0004822148    1.060    0.057
        60 -10.4226    160.1609    247.7984   1.2523847214e+02   3.4036826575e+00    0.2182445    0.1431095  14.66  0.001086039    2.213    0.548
        61  99.0000     15.5490    246.8151   1.4964523720e+02   2.3222554460e+01    0.1666189   0.07123029  85.85  0.001044419    2.080    0.519
        62 -13.1008    166.3742     35.1168   7.5956094209e+01   3.9343913830e+01    0.4187671    0.4095277  79.13 0.0008523833    1.022    0.022
        63 -11.0640     13.5317     59.9900   1.3084872561e+02   6.2418321865e+01    0.1800482    0.1594374  57.35 0.0004425372    1.455    0.313
        64 -10.5386    144.5447     33.9706   7.9656976764e+01   4.5034523852e+01    0.2587612    0.1975532  80.52 0.0006482049    1.497    0.332
        65 -13.5144    125.1437    241.4102   1.3073249426e+02   9.8382210111e+00    0.4716322     0.172674 -54.04  0.002266486    3.330    0.700
