#   1 NUMBER                 Running object number                                     
#   2 MAG_AUTO               Kron-like elliptical aperture magnitude                    [mag]
#   3 X_IMAGE                Object position along x                                    [pixel]
#   4 Y_IMAGE                Object position along y                                    [pixel]
#   5 X_WORLD                Barycenter position along world x axis                     [deg]
#   6 Y_WORLD                Barycenter position along world y axis                     [deg]
#   7 A_WORLD                Profile RMS along major axis (world units)                 [deg]
#   8 B_WORLD                Profile RMS along minor axis (world units)                 [deg]
#   9 THETA_WORLD            Position angle (CCW/world-x)                               [deg]
#  10 FWHM_WORLD             FWHM assuming a gaussian core                              [deg]
#  11 ELONGATION             A_IMAGE/B_IMAGE                                           
#  12 ELLIPTICITY            1 - B_IMAGE/A_IMAGE                                       
         1 -15.2004      6.2622     69.2590   1.1504236536e+02   6.1448953762e+01     1.480532    0.8361276 -86.07   0.00542167    1.462    0.316
         2 -14.1110      6.7496     46.7604   1.1160678408e+02   6.6601149111e+01     1.189552    0.8645766  72.79  0.007815011    1.409    0.290
         3 -13.7461     58.5067     63.8415   9.4217655938e+01   5.7534211714e+01     1.658775     0.864135 -37.10  0.006977344    2.679    0.627
         4 -14.8286    119.7612     54.6746   7.1737331974e+01   4.7771914592e+01     1.228967    0.9352009  34.47  0.001974111    1.480    0.325
         5 -13.7538    131.7877     32.4401   6.0470222326e+01   4.8475905589e+01     1.149243     0.527473 -34.55   0.00439472    2.082    0.520
         6 -14.7027    121.9842     37.3943   6.4734507847e+01   5.0201207726e+01     1.290251    0.6454445  45.42  0.004634591    2.109    0.526
         7 -12.3885    232.5025      2.3581   3.6991983300e+01   2.4845709384e+01    0.5383801    0.3064886  51.19  0.002097843    1.948    0.487
         8 -15.5462    218.2019     16.7714   4.2287202466e+01   2.7113004389e+01     2.464348     1.320437 -20.03    0.0109248    1.797    0.443
         9 -14.3119    189.2829     26.4681   4.8476118461e+01   3.3718917641e+01     1.973389    0.6715364 -50.93  0.005620886    4.171    0.760
        10 -13.3655    139.3437     21.9958   5.4725087852e+01   4.7908386277e+01     0.770062    0.3910873  57.19  0.001049232    1.881    0.468
        11 -14.9618    166.7587     30.0267   5.2931822760e+01   3.9426859545e+01     1.273507      1.25114  77.99   0.00426848    1.019    0.019
        12 -14.6240    188.2265     13.3322   4.4246308764e+01   3.5407627485e+01     1.803226    0.7857588 -47.09  0.006713381    2.392    0.582
        13 -13.4479      2.5978     10.8404   1.0502892581e+02   7.4861242394e+01    0.7314355    0.3071956 -67.66  0.003766696    1.945    0.486
        14 -13.1256      8.0172      2.6785   9.7782597193e+01   7.6224004153e+01    0.6392266    0.3995347  40.98  0.002311771    2.069    0.517
        15 -16.0582     13.7705     19.7788   1.0111477782e+02   7.2210365599e+01     2.016387     1.072369 -48.14   0.01082438    1.579    0.367
        16 -12.8297    120.2535     26.6123   6.0755728493e+01   5.2281097904e+01    0.7295876    0.4979967  45.96   0.00340197    1.491    0.330
        17 -15.0492    147.3473     30.2904   5.6428147351e+01   4.4664602698e+01     1.554876      1.08299  59.71  0.004795378    1.417    0.294
        18 -12.6071     71.8019     17.0686   7.0933081939e+01   6.4749065776e+01     0.565351    0.2898771 -42.16  0.002543467    1.859    0.462
        19 -15.3801     97.7496     12.4490   6.0070979356e+01   5.9786395497e+01     1.751441    0.8880287  54.25   0.00527371    1.949    0.487
        20 -14.4058     42.3934      3.9530   7.6634317632e+01   7.2049202014e+01     1.323432    0.7183548 -34.85  0.005970543    1.652    0.395
        21 -12.0898     49.0171      3.5059   7.2999101333e+01   7.1059734628e+01    0.2433766    0.2105815  45.00 0.0007248156    1.338    0.253
        22 -15.2500    212.2524     41.0091   5.0111374751e+01   2.6034353472e+01     3.123553    0.9511554  72.83  0.008895657    4.721    0.788
        23 -12.0759    153.2554      8.8394   4.7109214052e+01   4.5584702979e+01     0.340539    0.2701472  10.69  0.001088745    1.390    0.281
        24 -11.3188    160.4998      6.1634   4.5061552273e+01   4.3821839105e+01    0.2917096    0.2152391  37.43 0.0007259651    1.440    0.305
        25 -11.0148     58.9819      6.4484   7.0237798538e+01   6.8857432399e+01    0.2426705    0.1655952 -50.76  0.001273312    1.681    0.405
        26 -11.0015     68.2778      5.2350   6.5747214657e+01   6.7251718344e+01    0.2891531    0.1394106 -48.25  0.001178003    2.616    0.618
        27 -12.0712    119.6724      3.6893   5.0623173379e+01   5.5289037595e+01    0.4427329    0.1958198  74.05  0.001611916    2.621    0.618
        28 -11.7756    117.3028      1.6513   5.0127488742e+01   5.6120992795e+01    0.2543489    0.2130388 -89.23 0.0008896576    1.315    0.239
        29 -11.7365     78.2142      2.4194   6.0575202617e+01   6.5541647427e+01    0.3412839    0.2786286  43.06  0.001257873    1.239    0.193
        30 -10.9759     83.0286      1.2324   5.8366205438e+01   6.4614702488e+01    0.2668745    0.1420171  61.54  0.001189409    2.029    0.507
        31 -11.5678     60.1019     17.2671   7.5769455120e+01   6.6880384597e+01     0.320189    0.1755439 -44.51  0.001531751    1.704    0.413
        32 -11.9349     61.6060      1.9942   6.6421059338e+01   6.9016781823e+01    0.3332437    0.2371327  55.16  0.001298028    1.605    0.377
        33 -14.6120     23.9635     13.9093   9.2618276409e+01   7.2546250821e+01    0.8263038    0.5302762  27.24  0.003237377    1.850    0.459
        34 -12.0570     77.3427    156.9327   1.0524083576e+02   3.4702228297e+01    0.3840443    0.2279372  38.90  0.001558664    1.621    0.383
        35 -11.9532     52.2261    250.4175   1.1677027163e+02   2.2717461474e+01    0.1730025   0.07197802  60.12  0.000880508    1.845    0.458
        36 -12.3877     56.8459    246.9215   1.1588619128e+02   2.2672094186e+01    0.3895591    0.1013641  40.64   0.00219267    2.486    0.598
        37 -13.6029     28.3225    246.0159   1.2032487862e+02   2.5806062081e+01    0.5639339    0.2296645  68.47  0.004013822    2.027    0.507
        38 -11.7726      2.6750    249.8351   1.2431787529e+02   2.7694287507e+01    0.2685538   0.09878321  44.53  0.001769505    1.656    0.396
        39 -13.8278      8.9931    245.6089   1.2328436806e+02   2.7705854407e+01    0.6286945    0.2469258  52.26  0.003132871    1.491    0.330
        40 -13.2708     73.8656    153.4441   1.0562534892e+02   3.5862239569e+01    0.6181381    0.3888068  41.47   0.00288574    1.486    0.327
        41 -11.1946    112.6692    157.3260   9.7504603399e+01   2.9207195252e+01     0.132451   0.08664424  69.47 0.0007050918    1.707    0.414
        42 -12.6196    208.8725    154.6328   7.8490426278e+01   1.2167212147e+01    0.5810277    0.3032658  45.71  0.003030912    1.703    0.413
        43 -11.6529    121.4945    156.5063   9.5495274092e+01   2.7867692186e+01    0.1275591    0.1094143  52.97 9.686301e-06    1.037    0.036
        44 -11.8042     85.9239    152.7231   1.0279181839e+02   3.4273674303e+01    0.3659882    0.2069971 -52.97  0.001973511    2.091    0.522
        45 -10.7818    133.4137    152.5262   9.2346568442e+01   2.6471394175e+01    0.1281437    0.1121138  52.27 4.958675e-05    1.020    0.019
        46 -11.8455    103.1632    150.2423   9.8560578513e+01   3.2067013012e+01    0.3195447    0.2458101 -37.11  0.001884889    1.811    0.448
        47 -11.8250     24.4676    150.7426   1.1675217909e+02   4.2190241124e+01    0.2708789    0.1986785 -84.56  0.001866467    1.273    0.215
        48 -11.2761     60.3159    149.2967   1.0829888402e+02   3.8483829216e+01    0.1032208   0.09433149 -35.16 0.0003336843    1.607    0.378
        49 -13.5022     29.9862    169.3692   1.1668693907e+02   3.8037356212e+01    0.5728822    0.4081546 -46.34  0.002757751    2.259    0.557
        50 -10.9474    154.8087    157.5924   8.8852849679e+01   2.1760611553e+01    0.1944644    0.1062555  53.27 0.0009576107    1.768    0.434
        51 -11.4678     88.5753    139.6743   1.0038748847e+02   3.6435654926e+01    0.2691445    0.2113988 -48.95  0.001628529    1.562    0.360
        52 -12.0760     44.8231    132.7167   1.1033252059e+02   4.3777406638e+01    0.4129752     0.152154  44.87  0.001978839    2.319    0.569
        53 -12.8382    246.2883    133.3946   6.8483742371e+01   7.7854300795e+00    0.4066779    0.3184704 -15.51   0.00264709    1.222    0.181
        54 -14.5803    230.2400    129.2813   6.9990787744e+01   1.1195554145e+01     1.168533    0.8743325  53.43   0.00695967    1.492    0.330
        55 -12.8406    133.8903    102.8614   8.2264179283e+01   3.5459943695e+01      1.25294    0.3019663  50.70   0.00351869    4.345    0.770
        56 -13.6576    120.1607    102.3522   8.5476539585e+01   3.8392395436e+01    0.6808612    0.3590699  43.26  0.002520886    1.892    0.471
        57 -12.5504     76.9518    117.1049   9.9789996819e+01   4.2912261496e+01    0.5757563    0.3813053 -75.13  0.003132327    1.507    0.336
        58 -13.7799     86.0798    113.3888   9.6689775894e+01   4.2289780506e+01     1.438502    0.9342393 -30.95  0.006013836    2.636    0.621
        59 -14.5770    106.0982    121.5167   9.3068576746e+01   3.7190768243e+01     1.533956     0.957803  39.22  0.007719308    1.639    0.390
        60 -15.1184    106.2955    106.1410   8.9877848653e+01   4.0306825646e+01     1.469535     1.250215   2.06  0.007382365    1.643    0.391
        61 -12.5203     28.4758    122.9648   1.1362970808e+02   4.7587648551e+01    0.3309226    0.2100021 -79.76  0.002070097    1.367    0.269
        62 -11.3160     59.7140    125.4515   1.0562250855e+02   4.3520314563e+01     0.278152    0.1825125  19.95  0.001307316    2.277    0.561
        63 -12.0671    182.1693    121.9833   7.6548532222e+01   2.1864823145e+01    0.4925985    0.3230745  80.26  0.002089526    2.798    0.643
        64 -10.9987     25.7421    127.2191   1.1472042651e+02   4.6933182313e+01    0.1797644    0.1409147 -71.10 0.0009170545    1.340    0.254
        65 -11.9480      4.7210    119.2770   1.1967676496e+02   5.0381609953e+01    0.4703839    0.3232589  -3.83  0.003015987    2.446    0.591
        66 -12.0766     22.6059     71.8513   1.0931043852e+02   5.9680042611e+01    0.3789792    0.2308487  14.94 0.0007113896    2.249    0.555
        67 -14.1355     17.7901    111.0276   1.1550051149e+02   5.1159016534e+01    0.8746342    0.6424384  76.10   0.00430412    1.104    0.094
        68 -13.9790    171.3109    243.1251   9.7382468237e+01   8.3387792707e+00    0.7719735    0.3625454  36.93  0.005081966    1.553    0.356
        69 -13.7237     96.6779    238.8616   1.0897005276e+02   1.8958748868e+01    0.4842852    0.2864127  44.23   0.00243612    1.212    0.175
        70 -13.4574      2.2256     97.2270   1.1897018311e+02   5.5358826646e+01    0.8328544    0.2683749 -87.89  0.003733482    2.718    0.632
        71 -14.8146     24.9962     94.4355   1.1163461399e+02   5.4266517989e+01     1.763826     1.194719  -0.20   0.01010518    2.394    0.582
        72 -11.9998    121.1651    111.9162   8.7403897074e+01   3.6295000065e+01    0.3044693    0.1859413  59.02  0.001413543    1.734    0.423
        73 -11.5903     45.3057    109.9641   1.0750751789e+02   4.8683376784e+01    0.3817452    0.2338214  76.89  0.002099905    1.627    0.385
        74 -10.6826     10.7762    134.3188   1.1900020855e+02   4.6750326595e+01    0.1303843   0.09911332  29.02 0.0009312421    1.622    0.383
        75 -12.1643     33.2404    104.8408   1.1037478547e+02   5.1127509084e+01    0.3534501     0.278449 -57.99  0.001691014    1.403    0.287
        76 -12.5454     62.3711     99.4160   1.0083530669e+02   4.8916984181e+01    0.6840032    0.3481023  60.02  0.003083983    2.306    0.566
        77 -12.8801     51.2770     98.9995   1.0411295031e+02   5.0449755281e+01    0.6885857    0.4716034   9.81  0.002989945    2.384    0.581
        78 -12.7106     49.2953     94.3294   1.0394833623e+02   5.1754752431e+01    0.3882053    0.2262898  66.10  0.001388661    1.895    0.472
        79 -13.3174    249.0977     96.4924   5.9986875832e+01   1.1256210012e+01       0.7523    0.2124966 -27.41  0.002811958    3.075    0.675
        80 -12.9416    137.1403     95.7407   7.9722931843e+01   3.6110169871e+01    0.4920083    0.3471022  66.94   0.00169659    1.599    0.375
        81 -12.4953    125.3039     92.4502   8.1737172918e+01   3.9292122212e+01    0.3491275    0.2236346 -64.66   0.00154152    1.943    0.485
        82 -11.4770     42.9983     91.0974   1.0540802219e+02   5.3227502598e+01    0.2799211    0.1631462 -78.27 0.0009590045    1.584    0.369
        83 -12.2802     89.7368     88.3216   9.0330960667e+01   4.7103547497e+01     0.480798     0.315019  50.29  0.001560379    1.536    0.349
        84 -12.8315    149.6069     85.1399   7.4035270774e+01   3.5235542551e+01    0.6374502    0.3541479  35.81  0.002543576    2.208    0.547
        85 -14.9065    163.2601     70.7417   6.6975029023e+01   3.4396045450e+01     2.333297     1.145553  66.81  0.008441249    2.598    0.615
        86 -13.8553    160.6746     80.9673   7.0490341549e+01   3.3337819933e+01    0.8829858    0.5905123  27.69  0.003438442    1.891    0.471
        87 -14.3632    169.2799     77.3831   6.7733935414e+01   3.1843579984e+01    0.8179666    0.5822649  51.94  0.002734716    1.377    0.274
        88 -12.9216    132.0446     85.9965   7.8350325996e+01   3.9079183083e+01    0.5852523    0.3319672  44.67  0.002525722    1.780    0.438
        89 -13.3004    135.4716     79.7067   7.5748258053e+01   3.9493137011e+01     1.263408    0.6802502  34.24  0.004795357    2.519    0.603
        90 -11.2140     34.4192     86.8514   1.0753325101e+02   5.5117654144e+01    0.1991636    0.1857787  15.64 0.0008116295    1.391    0.281
        91 -13.6053    237.3847     80.3099   5.7601544895e+01   1.5504900765e+01    0.6585798    0.4094622  76.49  0.003104729    2.320    0.569
        92 -13.3298    188.6152     84.2146   6.6049053508e+01   2.6124799898e+01     0.807042    0.3481032  42.88  0.002638913    2.469    0.595
        93 -13.3360     65.8972     49.0437   8.6908595034e+01   5.9675020366e+01    0.5561982    0.4801456  88.57  0.003247879    1.284    0.221
        94 -11.9690    147.3374    239.0206   1.0073991364e+02   1.2113955096e+01     0.138599    0.1087257  45.23 0.0009311182    1.138    0.121
        95 -12.5506     79.8248     61.0802   8.5907346572e+01   5.4755331736e+01    0.5079916    0.4459245 -49.03   0.00178301    1.104    0.094
        96 -13.6690     81.2919     54.6497   8.3307215296e+01   5.5848767721e+01      1.61663    0.5767457  47.87  0.005824769    3.067    0.674
        97 -13.7055     72.3325     75.3222   9.2469917353e+01   5.2887147879e+01     1.181434    0.7237439  14.85  0.003727442    3.232    0.691
        98 -13.6000     87.6100     65.1506   8.4626413193e+01   5.2478832025e+01    0.8819203    0.6346717 -10.23  0.003118293    2.320    0.569
        99 -13.0183     54.9143     81.9708   9.9802965277e+01   5.3885825881e+01    0.5068808    0.3647515 -47.90  0.001848688    1.493    0.330
       100 -13.9124     60.9581     75.6245   9.6350133360e+01   5.4518597927e+01    0.6157025    0.4158018 -47.12  0.001075948    1.541    0.351
       101 -13.2601    213.2977     78.6156   6.0529964621e+01   2.1096809068e+01     1.006611    0.6308292  83.54  0.004297518    2.504    0.601
       102 -12.9331    216.7812     73.5793   5.8678553442e+01   2.0937204898e+01    0.7741821    0.4810625 -61.08  0.003368673    2.320    0.569
       103 -12.2012    114.0350     80.2487   8.1352498002e+01   4.4101356634e+01    0.4243645    0.3500236 -59.94  0.001118308    1.220    0.180
       104 -10.8888     90.2885     81.4358   8.8428881429e+01   4.8497709054e+01    0.2539886    0.1717529 -76.16  0.001196673    1.778    0.438
       105 -11.8806    176.8088    110.8501   7.5014868955e+01   2.4734142660e+01    0.3751778    0.2665601 -11.81  0.001841787    1.746    0.427
       106 -11.2428     42.1516     76.9455   1.0315719938e+02   5.6590012483e+01    0.2169039    0.1823389  50.43  0.001378081    1.278    0.217
       107 -14.3558    198.2553     69.4529   6.0341047281e+01   2.5909106544e+01     1.223135    0.8331422  27.65   0.00429894    1.701    0.412
       108 -12.0420    242.1234     71.5302   5.4792856241e+01   1.5492081331e+01    0.3898628    0.2737799 -61.47  0.002005878    1.887    0.470
       109 -13.7622    133.4616     65.9958   7.2066395859e+01   4.2485482543e+01    0.9307666    0.7582301  -4.08  0.003571334    1.523    0.344
       110 -11.9635    100.3861     65.1662   8.0696310387e+01   4.9986753286e+01    0.4338532    0.3280356 -40.84  0.001982865    1.333    0.250
       111 -12.3952     38.1436     68.2972   1.0285590044e+02   5.9032112372e+01    0.6085882    0.2564029  35.21  0.002828111    2.544    0.607
       112 -11.9241    142.8251    235.5038   1.0112586220e+02   1.3142464688e+01    0.1675904    0.1149406  82.23  0.001167014    2.325    0.570
       113 -12.8794    135.4120     50.5177   6.6400883190e+01   4.4707884449e+01     0.689828    0.3617524  39.26  0.002562552    2.289    0.563
       114 -10.9774     14.2516    223.7113   1.2190365006e+02   3.0386512212e+01    0.3801199   0.09764384  59.84  0.002163209    2.639    0.621
       115 -13.0134    110.0859     42.1762   6.9744113425e+01   5.2255240947e+01    0.6540672    0.2772891  46.70  0.001575498    2.458    0.593
       116 -12.1156     25.0216    217.4514   1.1988447164e+02   3.0306868219e+01    0.5047716    0.1908171  56.16  0.003306108    1.784    0.439
       117 -12.0149     24.3907     59.9049   1.0649552397e+02   6.2303270897e+01    0.2918037    0.1999941 -64.83 0.0007774586    1.220    0.181
       118 -10.6592     38.7539     60.1784   1.0079727322e+02   6.0841389051e+01    0.2208204     0.120836  72.99 0.0009530283    2.790    0.642
       119 -10.9361     47.5529     56.8909   9.6473314575e+01   6.0562594412e+01      0.21499    0.1731012  79.12 0.0009589453    1.351    0.260
       120 -12.4735    247.4047     53.6204   4.9602028241e+01   1.6312989002e+01     0.543925    0.3458796 -43.87   0.00280308    1.583    0.368
       121 -12.6124    249.0225     48.9949   4.8237381661e+01   1.6447560354e+01    0.4244283    0.3751649  15.27   0.00260232    1.168    0.144
       122 -11.7064    230.4749     55.3176   5.1950862935e+01   1.9955262949e+01    0.4454051    0.1945257  65.73   0.00180093    2.555    0.609
       123 -13.6576    103.2290     50.7352   7.4940704703e+01   5.2233431578e+01    0.9341605     0.649327 -72.07 0.0004832565    1.955    0.488
       124 -12.2239     98.0010     50.4975   7.6428918380e+01   5.3395944214e+01    0.4288982    0.3101021 -83.86  0.001398891    1.952    0.488
       125 -10.4962     39.3380     52.3451   9.8561887006e+01   6.2568598561e+01    0.1349517   0.08846623 -36.78 -0.0001514697    1.776    0.437
       126 -11.9060     23.6896     49.7592   1.0462037492e+02   6.4705753027e+01    0.4692697     0.194431 -36.50  0.001829763    3.855    0.741
       127 -13.6905     25.8098    227.4909   1.2011084079e+02   2.8703513921e+01     0.464186    0.3056657 -66.97  0.003820515    2.092    0.522
       128 -13.4100     20.8443    225.1093   1.2085357526e+02   2.9547201869e+01    0.3717585    0.2861346  77.79  0.002532317    1.327    0.247
       129 -12.9949    237.6200    230.6172   8.6025607818e+01   2.6317649627e-01    0.1975757     0.142846  30.90  0.001641782    1.179    0.152
       130 -11.8471     40.4907    243.7853   1.1833918243e+02   2.4867909173e+01    0.2185433    0.1260882  70.19  0.001804914    1.428    0.300
       131 -13.1076     66.3623    223.2397   1.1303508724e+02   2.4891220881e+01    0.6023704    0.4016296  39.79   0.00462148    1.409    0.290
       132 -12.2734    169.9813     43.6421   5.7082328684e+01   3.6757890645e+01    0.3649811      0.31685  45.96  0.001531949    1.167    0.143
       133 -11.0612     55.5218     41.0688   8.8187281382e+01   6.2965120980e+01    0.1832977    0.1693755 -52.42 0.0003580417    1.040    0.038
       134 -12.6659     94.6212    218.6017   1.0776976907e+02   2.1986980783e+01    0.2854185    0.1515611  50.63  0.001503637    1.377    0.274
       135 -12.6031     75.9098     37.4491   7.8786306186e+01   6.0305752489e+01    0.3636666    0.2720116  40.65  0.001051417    1.454    0.312
       136 -12.1196     69.5860     36.7187   8.0858947501e+01   6.1590097394e+01    0.4264825     0.241988  37.82  0.001003536    2.009    0.502
       137 -13.7419    241.8736     34.5550   4.5116104793e+01   1.9558559613e+01    0.8455567    0.6829572  72.12  0.002869525    1.373    0.272
       138 -14.2905    178.0128     57.6110   6.0195336097e+01   3.2673695234e+01    0.9832945    0.7628617 -33.93  0.003194854    1.268    0.212
       139 -11.7124     58.5691     35.3769   8.4729639601e+01   6.3686949120e+01    0.4972957    0.2485469  36.66  0.002254811    2.311    0.567
       140 -12.2563     46.1155     33.9350   8.9593398986e+01   6.5791377160e+01    0.4995607    0.2838774 -40.96  0.002499932    1.716    0.417
       141 -12.4220    185.7476    213.6725   9.1655275599e+01   9.2606887108e+00    0.1686199    0.1508538  24.82  0.001378601    1.239    0.193
       142 -13.1428      9.1106    210.8425   1.2240941366e+02   3.2857296908e+01    0.5797365    0.3343134  39.29  0.004525536    1.566    0.362
       143 -11.3440    136.8351    211.3573   9.9637742684e+01   1.6985807993e+01    0.1670641    0.1402171  73.07 0.0008309944    1.364    0.267
       144 -11.5549     27.4097     33.2719   9.8308940427e+01   6.8090059578e+01    0.3592898    0.2208401 -65.53  0.002008802    1.439    0.305
       145 -11.2276     31.4039     31.0727   9.5555271402e+01   6.8165774311e+01    0.2046366    0.1664422  -4.00 0.0007178792    1.513    0.339
       146 -12.4651     41.8734    206.9494   1.1644625726e+02   3.0216088779e+01    0.2804721    0.1182667  65.41   0.00143729    2.058    0.514
       147 -10.5567     89.4365     30.4195   7.1092704247e+01   5.8898802270e+01    0.1411438       0.1345 -28.42 2.537107e-05    1.007    0.007
       148 -12.8779     56.5629     27.4419   8.2216217365e+01   6.5585012043e+01    0.5843928    0.3093369  47.74  0.001855545    2.209    0.547
       149 -12.8288     67.7217     24.5615   7.6233949947e+01   6.4226749572e+01    0.7003454    0.3773007  41.28  0.003247785    2.047    0.511
       150 -13.8469     62.9672    214.4694   1.1308439431e+02   2.6615731685e+01    0.5922861    0.2883542  55.13  0.003927996    1.519    0.342
       151 -10.9569     97.9854     27.1826   6.6980029117e+01   5.7557969552e+01    0.2253552    0.1985173 -76.20  0.001214937    1.301    0.231
       152 -11.8585     46.4581     21.0882   8.3916995823e+01   6.8348670500e+01    0.3628233    0.2456313 -40.28  0.001369538    1.315    0.240
       153 -11.1813    150.8972    206.8086   9.6653803098e+01   1.5435239176e+01     0.251675    0.1237546  35.51  0.001416127    1.806    0.446
       154 -12.4293     57.2620    203.2312   1.1340399297e+02   2.9070070626e+01    0.3726245    0.1904439  83.86  0.002343757    2.091    0.522
       155 -12.9011     40.6009    195.4534   1.1606412348e+02   3.2256240544e+01    0.3612825    0.1372684  84.86  0.001853271    3.111    0.679
       156 -13.4230     22.3234    181.2401   1.1888020255e+02   3.6622032575e+01    0.4711321     0.385551 -79.95   0.00298303    1.458    0.314
       157 -14.8139      8.3789    183.5336   1.2170127454e+02   3.7502632805e+01    0.9412791    0.6861056  57.68   0.00776678    1.146    0.127
       158 -14.3454     16.1697    175.7888   1.1986512194e+02   3.8189664067e+01     1.154718    0.2900827  45.66  0.005918403    2.509    0.602
       159 -10.4689    212.3190    200.3485   8.5564570036e+01   6.5442643549e+00    0.1166059   0.06907687  19.19 0.0006724779    1.734    0.423
       160 -12.8187    163.9754    194.5600   9.2783950179e+01   1.4933109755e+01    0.3944606    0.2496352 -62.90  0.002296544    2.594    0.614
       161 -12.5319    201.0410    192.0788   8.6128248721e+01   9.1906898984e+00    0.2964611    0.2204762  11.10  0.001659943    1.368    0.269
       162 -13.3278    157.7598     43.8008   5.9341473781e+01   3.9983221815e+01    0.9776642    0.6190438  26.94  0.003992362    2.075    0.518
       163 -13.9545     18.2998    161.4905   1.1874391274e+02   4.0667533450e+01     1.857855     1.025877  17.39   0.01063491    2.982    0.665
       164 -11.8105     49.1454    181.4187   1.1351004385e+02   3.3741738343e+01    0.2944857    0.2077869 -61.75  0.002081289    1.797    0.444
       165 -13.2645    197.2831    179.6865   8.4809425572e+01   1.1214715727e+01    0.5411122    0.3687527 -67.84  0.002768325    3.375    0.704
       166 -12.5681     17.0458    195.1650   1.2047801854e+02   3.4699353002e+01    0.6763256    0.2531695 -79.50  0.004093183    2.563    0.610
       167 -10.7161    100.8351    176.0085   1.0242782332e+02   2.7799064876e+01    0.1554206    0.1256624  59.10            0    1.021    0.021
       168 -12.8183    124.6068    167.8121   9.6508981067e+01   2.5409674753e+01    0.3124217    0.2052183 -69.47    0.0017901    1.919    0.479
