#   1 NUMBER                 Running object number                                     
#   2 MAG_AUTO               Kron-like elliptical aperture magnitude                    [mag]
#   3 X_IMAGE                Object position along x                                    [pixel]
#   4 Y_IMAGE                Object position along y                                    [pixel]
#   5 X_WORLD                Barycenter position along world x axis                     [deg]
#   6 Y_WORLD                Barycenter position along world y axis                     [deg]
#   7 A_WORLD                Profile RMS along major axis (world units)                 [deg]
#   8 B_WORLD                Profile RMS along minor axis (world units)                 [deg]
#   9 THETA_WORLD            Position angle (CCW/world-x)                               [deg]
#  10 FWHM_WORLD             FWHM assuming a gaussian core                              [deg]
#  11 ELONGATION             A_IMAGE/B_IMAGE                                           
#  12 ELLIPTICITY            1 - B_IMAGE/A_IMAGE                                       
         1 -13.0260     37.6978     50.6064   9.8643088689e+01   6.2471973768e+01     0.778286    0.6536053 -23.58  0.003687829    1.100    0.091
         2 -11.6083    101.1937     28.2723   6.6829315084e+01   5.6099705486e+01    0.4268624    0.2386606 -29.75 0.0004384546    1.795    0.443
         3 -11.9667     81.5570     35.7891   7.6113904880e+01   5.8909298195e+01    0.7213147    0.3142928 -36.23  0.003032132    2.207    0.547
         4 -11.7031     60.8781     24.8968   7.9107278098e+01   6.4066036531e+01    0.7159289    0.2934469 -41.67  0.003135924    2.538    0.606
         5 -11.1893     64.0868     14.4676   7.3056407001e+01   6.4988909362e+01    0.6182927     0.298326  19.66  0.002536783    3.101    0.678
         6 -12.0505     81.0549      6.8900   6.3591598277e+01   6.2750001256e+01     0.737442    0.4378798  21.76  0.001318479    1.747    0.427
         7 -12.1663     74.0210      7.1690   6.6002177802e+01   6.4073545171e+01    0.3580379    0.2772933 -41.01 0.0003034762    1.646    0.392
         8 -12.0193     75.8314     16.0354   6.9541645217e+01   6.2719645252e+01    0.5311043    0.3186693  34.75  0.002353384    1.566    0.361
         9 -11.3800     70.1127     15.4325   7.1277708860e+01   6.3828496849e+01    0.5090206     0.242388 -15.48  0.002150098    2.605    0.616
        10 -12.0650    131.8533     21.3067   5.6503208786e+01   4.9887861111e+01    0.8624214    0.5013856  57.54  0.003002165    1.579    0.367
        11 -12.0238     85.0096     20.5480   6.8509977557e+01   6.0411557505e+01    0.4932214    0.4348732 -65.30  0.001195477    1.616    0.381
        12 -10.9543    120.2813     21.3810   5.9112384470e+01   5.2658482181e+01    0.3218747    0.2382538  -0.67 0.0004848556    1.484    0.326
        13 -12.0699     20.5961     18.1721   9.4382868838e+01   7.0061535805e+01    0.3950329    0.3679719 -58.54  0.001205013    1.600    0.375
        14 -11.0275     30.9380     13.2429   8.6937010336e+01   6.9813875662e+01     0.271303    0.1482318 -32.11 0.0004023969    1.532    0.347
        15 -10.9801    107.2902     18.4722   6.1170833126e+01   5.5975576084e+01    0.3402735    0.2685925   4.76 0.0009925634    1.284    0.221
        16 -10.7054     44.2149     19.8366   8.3820758599e+01   6.7211039395e+01     0.323114    0.2686751  25.97  0.001599565    1.366    0.268
        17 -11.5572      4.3354     18.4983   1.0299146786e+02   7.1196661858e+01    0.3776882    0.2715397  27.90  0.002685866    1.810    0.448
        18  -9.8038     50.7266     11.1049   7.6791714430e+01   6.7537317118e+01    0.2770338    0.1503462  -3.57  0.001286751    2.430    0.588
        19 -10.1859    157.3571     12.7125   4.8853715168e+01   4.4393108977e+01    0.3692308    0.1971586 -57.50  0.001545412    2.440    0.590
        20 -11.3724    118.1956     12.7729   5.6252079870e+01   5.4081495339e+01    0.2851989    0.2428137 -27.82 0.0003094611    1.277    0.217
        21 -11.7213    113.8886      7.6813   5.5204174991e+01   5.5583610754e+01    0.4037577    0.3117791  47.53   0.00133036    1.145    0.127
        22 -10.3372     55.1247     13.1511   7.5962585227e+01   6.6603713341e+01    0.3865803    0.1545212 -30.87  0.001558297    2.345    0.574
        23  -9.9306     58.6846      9.6861   7.2828139582e+01   6.6476930080e+01    0.2577507    0.1552149  20.64  0.001410819    1.673    0.402
        24 -10.3249    138.4004     11.5700   5.1685779447e+01   4.9298191533e+01    0.3614376    0.2076821 -42.86  0.001694409    1.970    0.492
        25 -10.9694    133.2663     10.8168   5.2378692741e+01   5.0642327132e+01    0.3116387    0.2295293   7.82  0.001065723    1.540    0.351
        26 -10.7774      6.2865      8.6175   9.7843390874e+01   7.2764434202e+01    0.3168927      0.13511 -42.23  0.000404329    1.745    0.427
        27 -10.4602     39.3420     10.3953   8.1506877154e+01   6.9214574081e+01    0.2847045    0.2263803 -67.37  0.000926754    2.748    0.636
        28 -11.3415     22.5287      7.4138   8.8357587485e+01   7.1576247941e+01    0.3560172    0.2747567 -47.41  0.002342509    1.723    0.420
        29  -9.5405    183.1499     10.1428   4.4477921068e+01   3.8036366508e+01      0.19052    0.1464004 -69.17  0.000461067    1.316    0.240
        30  -9.7799    107.7049      9.4469   5.7367209368e+01   5.6834390193e+01    0.2263909    0.1194439 -19.50 0.0009536782    2.019    0.505
        31 -11.4112    149.6460      5.8848   4.7800662771e+01   4.7006821695e+01    0.5548542    0.2849844  45.76  0.001251199    1.880    0.468
        32 -10.5820    127.1716      8.1061   5.2563009279e+01   5.2387875385e+01    0.2113576    0.1672396  33.35 0.0005372894    1.215    0.177
        33 -11.2519     92.0159      6.2590   6.0074707232e+01   6.0575785378e+01    0.4375322    0.2442806  17.11  0.001164777    2.108    0.526
        34  -9.3303     43.4347      7.9471   7.8388607741e+01   6.8995559098e+01    0.1544427   0.09620913 -49.00 0.0008068188    2.567    0.610
        35 -10.4184    100.0700     12.6169   6.0641532007e+01   5.8209558481e+01     0.274057    0.1890795 -15.39 0.0006567971    1.489    0.328
        36 -10.4326    164.4279      5.4853   4.5502138417e+01   4.3279023424e+01     0.234174    0.2043445  75.47 0.0005209192    1.040    0.038
        37 -11.1679     17.0121      2.2471   8.8690373697e+01   7.2869376192e+01    0.3528029    0.2017128 -35.34  0.001094342    1.454    0.312
        38 -11.1400     11.4884      2.8219   9.2103245934e+01   7.3278602142e+01    0.3364757    0.1839721 -20.01  0.001874053    1.641    0.391
        39 -11.8566    242.5450      4.0403   3.7255541584e+01   2.4253424811e+01    0.3961795    0.2162402 -62.02  0.002085513    1.694    0.410
        40 -10.2660    228.5233      4.9865   3.8560559931e+01   2.7373333908e+01    0.1980092    0.1554055  89.77 0.0006780167    1.148    0.129
        41  -9.5678    175.6344      5.7108   4.4106240126e+01   4.0391152938e+01    0.1450658   0.09124199  43.91  0.000625951    1.703    0.413
        42 -10.0221    131.9640      5.3259   5.0614053084e+01   5.1470082416e+01    0.2025296    0.1558341  54.39  0.001135932    1.147    0.128
        43 -10.5693     27.1882      3.1781   8.3731663600e+01   7.1678017631e+01    0.2112968     0.141866  13.98  0.001028211    1.392    0.281
        44 -10.0546    167.0396      1.8217   4.4017306092e+01   4.2941536561e+01    0.3127638    0.1729304  80.98  0.001098004    1.810    0.447
        45 -12.7999     32.0455      2.0514   8.0667231845e+01   7.1251346254e+01    0.2733967    0.1859423  16.68  0.000589087    1.351    0.260
        46 -10.1948     72.6852      2.1320   6.4007252540e+01   6.4837802682e+01    0.2237718    0.1507562  36.56 0.0004215176    1.302    0.232
        47  -9.3523    131.9954      1.2404   4.9112188339e+01   5.1810102175e+01    0.1700476     0.102665  64.09 0.0003226417    1.481    0.325
        48  -9.3173     76.3438    212.2934   1.1641137299e+02   2.1257556322e+01    0.1063508   0.09796616 -11.19 0.0007029539    1.661    0.398
        49 -10.2084    247.1252    250.1109   8.9402461992e+01  -1.1058075364e+01    0.2233165     0.136125  11.81  0.001463132    1.441    0.306
        50 -10.5336    250.3559    246.1231   8.8243854684e+01  -1.1078784479e+01    0.3281887    0.1465837 -27.11  0.001865055    2.356    0.576
        51 -12.3086    226.2739    246.2208   9.2333649125e+01  -7.7254548806e+00    0.5114912    0.3204054   1.81  0.003163135    1.726    0.421
        52  -9.8710     72.6170    250.1051   1.2038669586e+02   1.4859771436e+01    0.1634194    0.1459343  31.58  0.001252176    1.587    0.370
        53 -10.1385      5.3776    235.1447   1.3071529952e+02   2.5188759702e+01    0.2179738    0.1646738  75.84  0.001289395    1.173    0.147
        54 -11.9938     29.0148    248.3996   1.2754517506e+02   2.0434418202e+01     0.549511    0.2408311  73.62  0.003309336    2.044    0.511
        55 -12.0880     17.3091    238.2942   1.2893764903e+02   2.3444810960e+01    0.9584388    0.1962839  36.04  0.004179025    4.401    0.773
        56 -12.3136     20.7040    248.7893   1.2888361158e+02   2.1261086622e+01    0.6095943     0.191224  43.75  0.003219055    2.334    0.572
        57 -12.8812      7.0620    244.6282   1.3083334865e+02   2.3361229973e+01    0.7986093    0.4415449  41.37  0.004961385    1.754    0.430
        58  -9.6889      2.3015    212.3246   1.3023313185e+02   2.9704691024e+01    0.1529436    0.1162688  84.85  0.000620191    1.176    0.150
        59 -11.9644      4.7539    207.4755   1.2957507679e+02   3.0424220159e+01    0.5881535    0.2196511  83.88  0.003067282    2.448    0.591
        60  -9.8632     37.7956    217.5409   1.2422108590e+02   2.5093763462e+01    0.1843685    0.1030839  35.17  0.001108581    1.969    0.492
        61 -10.0101     10.8823    208.4324   1.2853621916e+02   2.9671325509e+01    0.1666938    0.1230045 -77.94 0.0006993066    1.371    0.270
        62 -11.2232     19.0868    202.8375   1.2671932369e+02   2.9992340731e+01    0.3398772    0.2267947 -89.50  0.001889609    1.210    0.174
        63  -9.0962     67.7195    203.7042   1.1728843001e+02   2.4163229657e+01    0.1047945   0.09533649 -45.57 0.0002652363    1.537    0.349
        64  -9.4883    223.6188    201.8217   8.5355859265e+01  -1.6241467903e+00    0.1633043    0.1167594 -42.81 0.0005373659    1.709    0.415
        65 -10.4527     31.1489    215.9296   1.2532581840e+02   2.6145187106e+01    0.2190742    0.1474799  42.63  0.001402873    1.516    0.340
        66  -9.6593     34.5350    201.3343   1.2368064616e+02   2.8690514058e+01    0.1433326    0.1389691   8.50 0.0008829702    1.591    0.371
        67 -10.3844    175.4184    202.6903   9.4800433049e+01   6.6775291588e+00    0.2346059    0.1866794  42.92 0.0005415397    1.154    0.134
        68 -10.1198    215.6240    194.8293   8.5537708297e+01   7.6780192805e-01    0.2009267    0.1503562  -8.15 0.0005356652    1.364    0.267
        69  -9.6685    211.2035    188.7693   8.5222998796e+01   2.4854196384e+00    0.1956487    0.1459614   3.55   0.00107125    1.406    0.289
        70  -9.4510      1.5765    188.2374   1.2916138297e+02   3.4563280511e+01    0.1444362   0.08067416 -74.77 0.0005608748    1.532    0.347
        71  -9.4868     61.7781    185.0563   1.1660198014e+02   2.8889865933e+01    0.1659989   0.09341911 -73.11 0.0008725093    1.670    0.401
        72 -10.5519     16.5882    183.7867   1.2596186120e+02   3.4174836544e+01    0.2488021    0.1666277 -85.99  0.001248233    1.196    0.164
        73 -10.1499     15.4711    180.5349   1.2596178622e+02   3.4970143085e+01    0.2028652    0.1791755  67.48 0.0008953802    1.279    0.218
        74 -10.0280    167.0081    183.5143   9.3142498857e+01   1.1642116815e+01    0.2207071    0.1294972  41.48 0.0008302871    1.567    0.362
        75  -9.2651     58.3733    182.2918   1.1704517784e+02   2.9930887790e+01    0.1155578   0.09717907 -34.18 0.0007023616    1.728    0.421
        76  -9.5235      2.0139    180.3080   1.2863192096e+02   3.6176038174e+01      0.15314    0.1132832  72.18 0.0005335339    1.114    0.102
        77  -9.9925    244.2604    178.3717   7.7155352556e+01  -1.7076768887e+00    0.2412289    0.1413448 -19.93 0.0008886735    1.728    0.421
        78 -10.9189    224.0870    178.4566   8.0775104249e+01   1.7881894277e+00    0.2433288    0.2222847   6.95 0.0004104498    1.104    0.094
        79  -9.2031     36.4586    178.4486   1.2141423303e+02   3.3341658764e+01    0.1211759   0.09698033  84.15 0.0001903586    1.026    0.025
        80  -9.5198     70.1925    177.6031   1.1387598688e+02   2.9411131856e+01    0.1586553    0.1242592  27.00 0.0005175337    1.607    0.378
        81  -9.6666     46.6909    177.4142   1.1909593193e+02   3.2425957323e+01    0.2302265    0.1016016  41.17  0.001138078    2.149    0.535
        82  -9.6268    200.4712    176.4987   8.4900648098e+01   6.4864265938e+00    0.1420994    0.1253883  11.78 6.856254e-05    1.050    0.048
        83 -10.0858    100.9727    176.0070   1.0660652413e+02   2.5139507764e+01    0.1928552    0.1743996  73.91            0    1.016    0.016
        84 -11.0291     18.1342    173.0741   1.2486578905e+02   3.6339391247e+01    0.4009845    0.1640944  59.49  0.001994388    2.390    0.582
        85 -10.9419     12.8113    170.4657   1.2579329886e+02   3.7380864409e+01    0.3353478    0.1394538 -88.88   0.00167164    2.184    0.542
        86  -9.6262     75.4572    170.9948   1.1181797577e+02   3.0161327724e+01    0.1813409    0.0989123 -44.37 0.0008059358    2.450    0.592
        87  -9.6501      4.6347    168.2084   1.2734964713e+02   3.8547788807e+01    0.1694913   0.07907142 -70.80 0.0009609851    1.756    0.431
        88 -10.8379     44.5673    162.7607   1.1802567535e+02   3.5972711150e+01    0.3430211     0.177495 -73.90  0.001763116    1.704    0.413
        89 -10.8825     50.8114    164.8127   1.1680158234e+02   3.4782766466e+01     0.442471    0.2141977 -53.98  0.001824738    2.171    0.539
        90 -10.2672     48.2011    159.7852   1.1682897667e+02   3.6244060253e+01    0.2959517     0.224024  39.10  0.001332192    1.463    0.317
        91  -9.3126    210.0179    166.0000   8.0870394862e+01   6.4454239944e+00     0.226516   0.07731559  44.45 0.0007065539    2.880    0.653
        92  -9.5999     67.2084    165.2117   1.1298883830e+02   3.2620149291e+01    0.1909988    0.1358673  71.74 0.0008447121    1.372    0.271
        93  -9.4032    200.4527    162.5631   8.2022797009e+01   8.9214211254e+00    0.1419037    0.1334542  11.88 0.0002128729    1.041    0.040
        94 -12.4157     37.1657    159.3645   1.1938569623e+02   3.7553513202e+01    0.6861497    0.2692741 -74.16 0.0007231517    2.267    0.559
        95 -11.1946     22.5512    156.5068   1.2249485753e+02   3.9630164414e+01    0.4663314    0.3786971  83.69  0.003235942    1.063    0.059
        96  -9.3263    247.3053    158.6195   7.2558757616e+01   7.0665820625e-01    0.1295314    0.1036493 -58.44 9.783726e-05    1.783    0.439
        97  -9.1645    147.6476    156.3150   9.2133930414e+01   2.0876443127e+01    0.1549316    0.1169184  78.69  0.000704629    1.734    0.423
        98  -9.0331    197.9966    154.3314   8.0734167646e+01   1.0901289365e+01    0.2346999    0.1216777  64.68 0.0007052187    4.385    0.772
        99 -10.2586     12.2037    153.2840   1.2458201011e+02   4.1242749370e+01    0.2495586    0.1632383  17.10  0.001540076    2.191    0.544
       100 -10.3228    178.0191    151.4183   8.4261600485e+01   1.5605190348e+01    0.2708626    0.2519425 -75.75 0.0009884427    1.231    0.187
       101  -9.9941    207.1161    146.2130   7.7110819937e+01   1.0493972606e+01    0.2217238    0.1931322   9.36 0.0006507848    1.146    0.127
       102 -11.2678     11.1267    145.5411   1.2416500884e+02   4.3079937148e+01    0.3489021    0.2527704  48.27  0.002356286    1.480    0.324
       103  -9.9425     30.8283    144.8316   1.1931950400e+02   4.1551500707e+01    0.1858943    0.1442366 -68.66 0.0005859492    1.175    0.149
       104 -11.1427     20.3726    141.7468   1.2157054344e+02   4.3206071605e+01    0.4586095    0.1999169  74.80  0.001442761    2.967    0.663
       105 -10.5099     15.7513    139.8323   1.2251476712e+02   4.4025908831e+01    0.2836894    0.1340637  11.16  0.001314035    3.725    0.732
       106 -10.3750      2.8034    143.9289   1.2598242608e+02   4.4052903730e+01    0.1816539    0.1276859 -66.20  0.001225921    1.309    0.236
       107  -9.3375    220.3131    143.7198   7.4043318560e+01   8.2344702326e+00    0.1342309    0.1157226 -76.06  0.000361314    1.569    0.363
       108 -10.4916     54.6717    133.2831   1.1157126356e+02   4.1745379251e+01    0.3021017    0.2921445  62.60  0.001969772    1.192    0.161
       109 -10.8770      2.6729    137.3647   1.2547279273e+02   4.5543917706e+01    0.3726493    0.1175062 -71.90  0.001374192    2.320    0.569
       110 -10.1041      5.4655    133.2644   1.2442861643e+02   4.6289180357e+01    0.2320475    0.1450731 -85.58 0.0006880471    1.273    0.214
       111  -8.6891    143.6814    137.2982   8.8947145958e+01   2.5790329952e+01    0.1547101    0.1216085  83.81 0.0007019769    1.616    0.381
       112 -10.8615      9.1769    136.7466   1.2383482972e+02   4.5232922144e+01    0.2005084    0.1532445 -73.40 0.0002612054    1.126    0.112
       113 -10.3304     21.5218    136.1085   1.2068241340e+02   4.4419097730e+01    0.2208426     0.164555  51.21  0.001427247    1.435    0.303
       114  -9.3469    138.0016    135.4894   8.9925144114e+01   2.7367286690e+01    0.2162313     0.136512  19.24 0.0008100607    2.511    0.602
       115  -9.0701    122.6889    135.3280   9.3747100395e+01   3.0475391905e+01    0.1558616    0.1182725  84.12 0.0003638851    1.665    0.399
       116  -9.2933    250.0038    134.2407   6.6804676028e+01   4.0016001316e+00    0.1669584    0.1156491  44.98 0.0008769792    1.588    0.370
       117 -10.0917    106.9935    133.1895   9.7380205197e+01   3.3913410666e+01     0.254801    0.2157698 -54.12  0.001129131    1.153    0.133
       118  -9.9229     79.6258    133.0222   1.0472861309e+02   3.8464058257e+01    0.1980657    0.1651711 -65.46  0.001099681    1.103    0.094
       119 -11.2822     37.3131    130.5161   1.1585554691e+02   4.4298503517e+01    0.3470904    0.2559588 -75.04  0.001444351    1.133    0.117
       120 -10.0861     33.2093    125.8352   1.1632471097e+02   4.5805909589e+01    0.2022163    0.1518328  72.71 0.0003254729    1.357    0.263
       121 -10.2210     73.9875    129.4983   1.0562057026e+02   4.0131579124e+01    0.2732044    0.1947924 -63.13 0.0006802335    1.277    0.217
       122 -10.4403     14.2001    125.6159   1.2141827360e+02   4.7438045014e+01    0.2143651    0.1462567 -74.30  0.001347639    1.151    0.131
       123 -11.4445     10.5556    122.6206   1.2205438589e+02   4.8392374725e+01    0.2681303    0.2190672  62.22  0.001312695    1.315    0.240
       124 -11.3765      2.1716    124.4309   1.2443483528e+02   4.8521540108e+01    0.4432504    0.1317634 -67.73   0.00114889    2.361    0.576
       125 -10.0441    219.9534    124.3026   6.9585424405e+01   1.1686693191e+01    0.2007653    0.1905291  18.64 0.0006500989    1.081    0.075
       126  -9.6645    226.0039    124.0000   6.8443419321e+01   1.0459013246e+01    0.2253305   0.08339109  50.34 0.0007943463    2.887    0.654
       127 -10.4101     21.1578    121.1633   1.1901449912e+02   4.7949281742e+01    0.1884065    0.1409774 -53.42 0.0008198305    1.322    0.244
       128  -9.3772     32.9482    118.9635   1.1541768518e+02   4.7463508927e+01    0.1576564    0.1229934 -71.72 0.0003499912    1.054    0.051
       129 -11.9346     23.1864    107.2182   1.1651582938e+02   5.1070085416e+01    0.5240101     0.311852  61.30  0.002314863    2.038    0.509
       130 -11.9297     16.8011    115.2950   1.1948055163e+02   4.9656557400e+01    0.4159494    0.3092951 -52.11  0.001949014    1.327    0.247
       131 -12.1906     16.3076    109.0578   1.1880383528e+02   5.1150148310e+01    0.4380215    0.3820169  -5.73  0.001015043    1.495    0.331
       132 -12.3029     14.8519    103.1390   1.1841692288e+02   5.2630419254e+01    0.5079408     0.359092  29.81  0.002177494    1.735    0.424
       133  -9.5490    220.4243    116.9495   6.7728520202e+01   1.2870539313e+01    0.2253259    0.1354481 -37.38 0.0004470153    1.556    0.357
       134 -10.6299     86.0140    116.5209   9.9567887822e+01   4.1427585812e+01    0.2662639    0.1962688 -55.63  0.001352087    1.256    0.204
       135 -13.5287     54.7162    109.9483   1.0747672610e+02   4.7344538690e+01    0.4215498    0.3120113 -56.44 0.0008129318    1.185    0.156
       136  -9.5067    166.0146    115.6568   7.8361812180e+01   2.5477445216e+01    0.2179383    0.2061505  58.07 0.0005789885    1.085    0.079
       137  -9.1362    201.4090    117.4783   7.1375499704e+01   1.6994833747e+01    0.1513128    0.1429715 -24.31 0.0008031168    1.016    0.016
       138 -12.2238     35.4465    108.3069   1.1301018561e+02   4.9766017701e+01     0.399141    0.2532024  82.72  0.001425298    1.875    0.467
       139 -10.4411    249.0627    112.3081   6.1957410924e+01   7.6721609655e+00    0.1898593    0.1774262 -30.16 0.0007554119    1.072    0.067
       140  -9.4944     90.8452    108.7421   9.6360169810e+01   4.2475382976e+01     0.245998    0.1553284 -18.35 0.0009469372    2.774    0.640
       141 -12.7120      2.8466    100.4685   1.2164602778e+02   5.3975963083e+01    0.4217543     0.225622 -81.87 0.0004791371    1.605    0.377
       142 -12.1118      2.5171    106.0660   1.2241153406e+02   5.2711479583e+01    0.3589281     0.205744 -80.63 0.0003909815    1.422    0.297
       143 -10.6639      6.4274    105.5262   1.2121997392e+02   5.2611264494e+01    0.2522529    0.1442778 -70.71 0.0006675609    1.332    0.249
       144 -10.7989     62.7611    106.9575   1.0441727338e+02   4.7064580743e+01    0.2712381    0.2510476  37.06 0.0009290114    1.220    0.181
       145 -11.2050    243.6519    104.4765   6.0936492917e+01   1.0028858523e+01    0.2507117     0.191036 -11.45 0.0007831671    1.450    0.311
       146  -9.8611    223.3015    104.0062   6.4053442387e+01   1.4476411774e+01     0.211109    0.1762503 -35.42 0.0004192978    1.114    0.102
       147  -9.7058     93.1691    104.1234   9.4535142866e+01   4.3157193544e+01    0.2201081    0.1890071 -28.29 0.0004827966    1.248    0.198
       148  -9.6591    119.4175    101.7919   8.6376043968e+01   3.8728871615e+01    0.2256779    0.1416924 -34.98 0.0009439306    1.727    0.421
       149 -10.2705     36.4318    102.0228   1.1161309504e+02   5.1162155602e+01    0.2747402    0.1853133  34.71  0.001571264    1.723    0.420
       150 -10.1446    144.5387     99.1718   7.9036917487e+01   3.3827109338e+01     0.539368    0.3180078 -75.02   0.00158234    4.221    0.763
       151 -11.6440     66.8513     98.0906   1.0115888188e+02   4.8617505825e+01    0.4282379    0.2031845 -54.04 0.0009148797    1.843    0.457
       152 -11.1604     61.8693     98.6819   1.0287947437e+02   4.9137159026e+01    0.2966821      0.27094 -40.91 0.0008055782    1.105    0.095
       153 -11.4269     20.1053     97.2950   1.1592361786e+02   5.3622749989e+01    0.4054105     0.263699 -74.50   0.00161251    1.315    0.240
       154 -10.0345     40.8011     97.0900   1.0929460536e+02   5.1904249222e+01    0.2582355    0.1475073 -48.59  0.001042037    1.560    0.359
       155 -11.0395     94.1752     93.1789   9.1351026632e+01   4.5479208367e+01    0.6753808    0.3509582 -31.16  0.002492122    2.682    0.627
       156  -9.8084    249.9915     95.6796   5.7940670961e+01   1.0122226923e+01    0.1827996    0.1766795 -43.58    0.0005019    1.098    0.089
       157  -9.0728    103.6180     96.7267   8.9495753781e+01   4.2963303081e+01    0.1527402    0.1180415  -2.55 0.0006997877    1.705    0.413
       158  -9.6645     57.4916     96.4994   1.0378667138e+02   5.0198359085e+01    0.2089112    0.1108866 -49.96 0.0006995226    1.649    0.393
       159  -9.8802     31.4232     93.6696   1.1167037769e+02   5.3572079413e+01    0.2550651    0.1107602 -69.39  0.001136067    2.125    0.529
       160 -11.4471    162.6566     90.3268   7.2212421921e+01   3.1333345770e+01    0.6007184     0.226732 -34.15  0.001349531    2.921    0.658
       161 -11.2375    166.7884     83.5737   6.9345476904e+01   3.1606467567e+01    0.4874351      0.34361  79.61  0.002060518    1.903    0.474
       162  -9.0140    104.2907     92.2895   8.8061280391e+01   4.3820866596e+01    0.1477468     0.117006 -10.95 0.0001632317    1.543    0.352
       163  -9.3923     21.3169     91.3298   1.1454103289e+02   5.4918238428e+01    0.1861579   0.09239308 -53.49 0.0005676296    1.623    0.384
       164 -10.8954     25.3788     91.5453   1.1325212847e+02   5.4561880780e+01    0.2478449    0.1935331 -39.49 0.0009528592    1.304    0.233
       165 -11.0803     22.8497     87.4062   1.1333280388e+02   5.5710070550e+01    0.3133855    0.1988067 -67.36 0.0003828708    1.306    0.234
       166 -11.6129     10.8633     90.9603   1.1786101986e+02   5.5698337799e+01     0.335772     0.227994  24.56   0.00111774    1.844    0.458
       167 -11.1842      4.8542     85.9439   1.1904212173e+02   5.7179524567e+01    0.3532299    0.2068757 -75.48    0.0020988    1.419    0.295
       168  -9.6515    134.7439     91.0213   7.9201953766e+01   3.7737513976e+01    0.2515085     0.183305  -8.43 0.0005723557    1.882    0.469
       169 -10.6359    112.4847     85.0308   8.3542835629e+01   4.3769649847e+01    0.4098912    0.1457893 -44.72  0.001358745    2.721    0.632
       170 -10.7031     67.1030     84.8489   9.7757773560e+01   5.1629484300e+01    0.3237151    0.2043246 -30.15  0.001344427    1.830    0.454
       171 -10.7783     45.9981     83.7518   1.0466945749e+02   5.4464720473e+01    0.4030109    0.2554628  47.51  0.002111633    1.959    0.490
       172 -10.3898     87.9424     83.4704   9.0548157276e+01   4.8711342958e+01     0.252524     0.192281 -53.04 4.574714e-05    1.282    0.220
       173 -10.2906     29.9427     82.6231   1.0997555601e+02   5.6247073276e+01    0.3537956    0.1371111 -55.95  0.001619106    1.963    0.491
       174 -12.1347      6.2544     75.0809   1.1680955241e+02   5.9548452064e+01    0.8948213    0.3333707 -40.25  0.004215954    2.664    0.625
       175 -11.8237     16.3402     67.9230   1.1174931894e+02   6.0548742065e+01    0.3929262    0.2300741 -59.59  0.002299623    1.331    0.249
       176 -11.4675     20.5237     64.4697   1.0938001241e+02   6.1021184117e+01    0.6910421     0.403723  80.69  0.003166748    3.253    0.693
       177 -10.9973     13.8057     83.0754   1.1559954680e+02   5.7317843917e+01    0.3426538    0.2096235  89.85  0.001903544    1.865    0.464
       178 -11.5233     12.8104     77.9167   1.1501884639e+02   5.8545012849e+01     0.411097    0.2263751 -50.52  0.001951272    1.467    0.318
       179 -11.1931    158.1588     90.5074   7.3292048434e+01   3.2381319064e+01    0.3791002    0.2642236 -31.43  0.001672679    1.495    0.331
       180  -8.9536    132.7002     83.3164   7.7441540884e+01   3.9765515593e+01    0.1554278      0.12427 -78.50 0.0007019669    1.614    0.380
       181  -9.9959    117.8461     82.7751   8.1326687373e+01   4.3127447457e+01     0.277361    0.1988454 -31.76  0.001217578    1.440    0.306
       182 -12.2446     21.0050     77.6774   1.1208867114e+02   5.8060053335e+01    0.4292617    0.2613908 -57.16            0    1.281    0.219
       183  -9.2844    146.5077     81.5482   7.3412192630e+01   3.6905933758e+01    0.1547887     0.152454 -71.84 0.0001283461    1.045    0.043
       184  -9.8787     71.0471     79.2763   9.4892245580e+01   5.2309523439e+01    0.2142853    0.1601412  71.17  0.001042206    1.948    0.487
       185 -11.5714     59.3063     75.9897   9.8020281381e+01   5.4645398985e+01    0.4644645    0.3575504 -87.61  0.002479937    1.787    0.440
       186 -11.5130     62.5484     71.6344   9.5624060073e+01   5.5166287112e+01    0.3392798    0.2208377 -37.54  0.001643214    1.435    0.303
       187 -10.6999     92.3584     77.0571   8.7217919691e+01   4.9313124192e+01    0.3572349    0.2263581  63.46  0.001483308    2.471    0.595
       188  -9.1456    121.6503     76.2846   7.8244708516e+01   4.3620802052e+01    0.1521893    0.1231215 -88.10  0.000701916    1.655    0.396
       189 -10.3357     74.8650     76.0161   9.2648748624e+01   5.2447939084e+01    0.2226851    0.1936831 -32.87  0.001272522    1.061    0.057
       190 -12.1056     44.6760     75.1928   1.0302404547e+02   5.6534551469e+01    0.2397815    0.2177167  28.54 0.0002633212    1.289    0.224
       191 -11.1439     37.2004     69.7658   1.0436758642e+02   5.8483935312e+01    0.5173935    0.3164937 -75.28  0.002603069    2.064    0.516
       192 -10.4914     31.0915     66.4685   1.0582408161e+02   5.9758117740e+01    0.3615969    0.1793849 -58.91  0.001806389    1.698    0.411
       193 -11.9839    102.6669     72.8897   8.2688612852e+01   4.8235214568e+01    0.3030553    0.2662255  -3.49 0.0005475488    1.188    0.158
       194  -9.9796     93.9914     73.9343   8.5723109738e+01   4.9667259597e+01    0.2179804    0.2016174 -29.79  0.001221252    1.014    0.014
       195 -10.5209    150.3113     72.0973   6.9605622685e+01   3.7756694351e+01    0.2736342    0.2221862  58.92 0.0002531864    1.265    0.210
       196  -9.9866    128.9453     71.8592   7.4853968604e+01   4.2850570204e+01     0.215866    0.2139409  -2.79 0.0002529024    1.035    0.034
       197 -11.0716     77.5648     71.4538   9.0341939932e+01   5.2996820556e+01    0.4495958    0.3209455  68.79  0.001426271    2.226    0.551
       198 -11.4648     50.7522     68.9102   9.9104499383e+01   5.7237091502e+01    0.5139236    0.2011223 -49.52  0.001707603    2.118    0.528
       199 -10.2481     51.0908     63.3586   9.7346037081e+01   5.8379921684e+01    0.3506745    0.1861124 -35.98  0.001651551    1.850    0.460
       200  -9.7527    167.8191     69.9491   6.5090974360e+01   3.3795377403e+01    0.2219963     0.201758  23.66 0.0004155757    1.178    0.151
       201 -12.1275     94.2468     68.4644   8.3876458869e+01   5.0729786351e+01     0.387585     0.237853 -37.84 0.0002617944    1.562    0.360
       202  -9.6670    145.4905     73.9566   7.1328703432e+01   3.8582893200e+01    0.2420332    0.1525808 -36.97  0.001030547    1.583    0.368
       203 -11.1414    140.1830     68.6130   7.0935372886e+01   4.0830862796e+01    0.3320386    0.2754729 -54.28 0.0003120294    1.302    0.232
       204 -10.8337     68.7583     67.3382   9.2108952235e+01   5.5202828645e+01    0.3554037    0.1818207 -44.08  0.001106801    1.748    0.428
       205  -9.3212    123.4235     68.4544   7.5234140095e+01   4.4735866910e+01    0.1492807    0.1455235 -24.76  0.000138792    1.040    0.039
       206 -10.7276     12.4630     51.4457   1.0940954424e+02   6.4322823222e+01    0.2587326    0.1814803 -69.43 0.0006070643    1.434    0.302
       207 -11.2021      5.5728     51.7551   1.1234865862e+02   6.4638633437e+01     0.372619    0.1933306 -50.71  0.001018827    1.415    0.293
       208 -10.9015      5.4043     58.9583   1.1402317427e+02   6.3119901115e+01    0.4259791    0.1902791 -62.94  0.001378043    1.700    0.412
       209  -9.8197      4.1207     47.3400   1.1190084545e+02   6.5628751907e+01    0.2552541    0.1283765 -38.19 0.0009769544    1.701    0.412
       210 -11.0633     10.8923     44.4873   1.0823064514e+02   6.5848321084e+01    0.4808142    0.3201208 -24.52  0.001978565    1.469    0.319
       211 -10.3022      7.0720     40.8964   1.0892727535e+02   6.6789398825e+01     0.175295    0.1222332 -45.71 0.0004728548    1.074    0.069
       212 -10.5298      6.5253     67.9717   1.1541279111e+02   6.1107219804e+01    0.1991015    0.1250423 -31.58 0.0004565852    1.648    0.393
       213 -11.8647      3.7118     64.6900   1.1583086533e+02   6.1964135210e+01    0.3171369    0.2833832 -80.04  0.001145896    1.247    0.198
       214 -11.2548     56.2711     66.4110   9.6337188973e+01   5.7101065670e+01    0.3941069     0.166071 -35.29  0.001518384    2.815    0.645
       215 -11.6904     64.6264     59.9426   9.1211019543e+01   5.7314874507e+01    0.8378592    0.3650225  25.62  0.003288667    3.087    0.676
       216 -10.7395     59.3252     59.3033   9.2967459312e+01   5.8176974156e+01    0.2757231    0.2014224 -25.84  0.001015887    1.332    0.249
       217  -9.8806     56.4664     59.4360   9.4086601233e+01   5.8526076785e+01    0.3087994    0.1169909 -48.71 0.0009880486    2.303    0.566
       218 -11.2058     77.3356     63.1091   8.7727301899e+01   5.4743522894e+01    0.4613989    0.2479435 -48.18  0.002083821    1.799    0.444
       219 -11.7903    201.3279     61.8607   5.6616054276e+01   2.6677862623e+01    0.2620688    0.2474429  89.60 0.0002858987    1.049    0.047
       220 -11.8663     79.3166     48.5445   8.1879297194e+01   5.7171474202e+01     0.909159    0.5858576 -50.64  0.004473269    1.788    0.441
       221 -12.0154     87.2670     56.3226   8.2000008310e+01   5.4351689019e+01    0.9328618     0.413556 -25.73 0.0001805311    3.744    0.733
       222 -11.2380     87.1404     52.1798   8.0547813018e+01   5.5133090337e+01    0.3171451    0.2378096 -38.06 0.0006322682    1.285    0.222
       223 -10.0721     11.0270     62.4882   1.1259259952e+02   6.2058449276e+01    0.1723501    0.1295172 -57.14 0.0004212064    1.048    0.046
       224  -9.8573    155.1945     61.7816   6.5261236164e+01   3.8349118138e+01    0.2996592    0.2061492   3.41  0.001237331    2.114    0.527
       225 -10.6870     45.0268     50.0134   9.5450990709e+01   6.1804007140e+01    0.4718017    0.1526818 -48.17  0.001910058    2.565    0.610
       226 -11.1727     29.5459     60.8547   1.0495425751e+02   6.1100406915e+01    0.5922545    0.2366922  13.90  0.002487251    3.664    0.727
       227 -12.1323    233.0084    245.8809   9.1124616353e+01  -8.6536658222e+00    0.6086932    0.2996414 -28.79  0.003524947    2.243    0.554
       228 -10.9081    146.4776     56.3566   6.5460006735e+01   4.1410228668e+01    0.5001664    0.3107568 -69.17 0.0004945576    2.687    0.628
       229  -9.8909    123.0534     56.6443   7.1354833752e+01   4.6937495512e+01    0.2490556    0.1986506 -46.04 0.0003880233    1.330    0.248
       230 -12.1671    128.7571     50.5529   6.7751548980e+01   4.6626738176e+01     0.656175    0.4563499  14.49   0.00234109    1.857    0.461
       231 -12.0180     75.3659     56.0419   8.5995501846e+01   5.6445142794e+01    0.2419686     0.216823 -25.63 0.0002790963    1.042    0.040
       232 -11.0649     69.8885     49.9921   8.5800278207e+01   5.8454994197e+01    0.4239525    0.3251249 -88.31   0.00154313    2.450    0.592
       233  -9.9781    129.6908     56.0139   6.9400417088e+01   4.5511715574e+01    0.2152912    0.1835787 -31.71 0.0004863861    1.178    0.151
       234 -10.5444    100.2161     55.7747   7.7639101075e+01   5.1985240272e+01    0.3191868    0.1867419  43.36  0.001443367    1.737    0.424
       235 -10.4286     61.5649     54.5448   9.0524904267e+01   5.8818188445e+01    0.2872891    0.2164367 -50.30  0.001053904    1.347    0.258
       236  -9.2688    120.1123     52.8719   7.0830185171e+01   4.8241489274e+01    0.2024395    0.1649597  19.41            0    1.301    0.231
       237  -9.9211    109.1948     52.7448   7.3853717235e+01   5.0660492004e+01    0.2023179    0.1634354   5.50  0.000406202    1.339    0.253
       238 -11.4574    104.3852     49.5059   7.4097570559e+01   5.2222606435e+01    0.4442257     0.344835 -34.68   0.00233246    1.275    0.215
       239 -10.1074     53.5713     50.2365   9.2110322865e+01   6.0727565288e+01     0.215141    0.1756195  17.05 0.0005473419    1.302    0.232
       240  -9.7569    166.8168     49.1849   5.8910937428e+01   3.7395287555e+01    0.2075033    0.1683047  36.99 0.0003987023    1.309    0.236
       241 -11.8025    151.6607     47.9828   6.1567176296e+01   4.1429095074e+01    0.4075816    0.3075014  34.55 0.0004249125    1.415    0.293
       242  -9.7036    156.2857     46.6674   6.0178546545e+01   4.0455770177e+01    0.2068521     0.187736 -47.68 0.0004378064    1.141    0.124
       243 -10.6985     95.1214     49.1173   7.6813179038e+01   5.4161179397e+01    0.3213077    0.2391172 -37.49  0.001295095    1.326    0.246
       244 -10.4970     91.7135     43.5655   7.5805634393e+01   5.5755895264e+01    0.5383101    0.2107769 -48.99  0.001768552    3.876    0.742
       245 -10.4082     89.2138     38.8255   7.4766833697e+01   5.6999620564e+01    0.3017044    0.1865115 -31.45 0.0006630598    1.566    0.361
       246 -10.8263    164.0271     45.4767   5.8274883551e+01   3.8654440980e+01    0.3421522    0.2235755  42.20  0.001222548    1.608    0.378
       247 -10.4285    120.0651     47.3992   6.8892360696e+01   4.9141703300e+01    0.2464187    0.2022724 -33.62  0.001290682    1.234    0.190
       248 -10.0892    113.9868     48.0251   7.0778190194e+01   5.0405126762e+01    0.2319655    0.1859781 -77.16   0.00114079    1.756    0.431
       249 -10.1548     47.7932     58.2082   9.7021095804e+01   5.9836569934e+01    0.2470065    0.1784552 -66.46  0.001365823    1.668    0.401
       250 -10.0910    142.5801     45.6326   6.2757864843e+01   4.4047078018e+01    0.3033485    0.2354838 -69.31 0.0008699569    1.608    0.378
       251  -9.7724     86.1054     45.6972   7.8472486759e+01   5.6458572924e+01    0.1937455    0.1714842   3.86 0.0007561094    1.055    0.052
       252  -9.0770     54.3335     46.2562   9.0386346935e+01   6.1387772095e+01    0.1303139   0.09036758 -11.70 0.0002455529    1.567    0.362
       253  -9.6724     51.2626     44.9627   9.1145902421e+01   6.2026936323e+01    0.1825487    0.1415347 -30.84 0.0003535661    1.095    0.087
       254  -9.6788    174.9422     43.6262   5.5716594550e+01   3.6111565647e+01    0.2046035     0.182333  74.07 0.0004837409    1.096    0.088
       255 -11.8117    110.9925     42.1129   6.9432356094e+01   5.1995050164e+01     0.287953    0.2409267  39.04 0.0002954047    1.155    0.134
       256 -11.6029     97.3570     40.4004   7.2796247043e+01   5.5143424871e+01    0.5680898    0.3926079 -31.67  0.002915719    1.419    0.295
       257 -10.3023    101.5326     36.5625   7.0033707799e+01   5.4863418735e+01    0.2296753    0.2032802  18.25 0.0005495722    1.048    0.046
       258 -10.9021    104.9623     34.0840   6.8062260613e+01   5.4492124589e+01    0.2555686    0.2234615  11.13 0.0003097333    1.079    0.073
       259 -11.2896     98.2772     31.6145   6.9037421132e+01   5.6257024801e+01    0.5688672    0.3072347  24.07  0.002331189    2.502    0.600
       260 -11.5926     36.6342    242.5387   1.2598567832e+02   2.0601891129e+01    0.5323854    0.2687454  79.26  0.003357866    1.787    0.440
       261 -10.1498    125.0197     41.6765   6.5540140807e+01   4.8871459886e+01    0.3032792     0.181201   2.71   0.00115998    2.711    0.631
       262 -10.3490     61.9277     38.3302   8.4357493231e+01   6.1749425265e+01    0.3265502    0.1589987 -42.59  0.001427257    1.943    0.485
       263 -10.7403     66.3266     41.3479   8.3857926182e+01   6.0560752083e+01    0.4970062     0.256252  31.03  0.002335673    2.102    0.524
       264 -10.6291     69.4447     37.7532   8.1256067370e+01   6.0678804580e+01     0.466989    0.3055851 -45.87  0.002138472    1.670    0.401
       265 -10.6359     23.4195     41.1871   1.0169855252e+02   6.5634135297e+01    0.2397202    0.1993483  75.24 0.0008414326    1.874    0.466
       266 -12.6792     25.7744     36.3090   9.8982937137e+01   6.6375876339e+01     0.476312    0.4103917  38.31  0.003321229    1.566    0.361
       267 -11.1908     20.5238     37.5355   1.0179782607e+02   6.6571569714e+01    0.2461917    0.1636057 -39.14 0.0006188562    1.175    0.149
       268 -10.1646    121.4075     41.2523   6.6307073837e+01   4.9775465436e+01    0.2029653     0.132843 -40.96 0.0009461698    1.620    0.383
       269 -11.1051     74.0066    233.0214   1.1876953235e+02   1.7655494272e+01    0.2660173     0.173104  85.92 0.0008187721    1.515    0.340
       270 -11.3080     78.8378     31.5863   7.5320379564e+01   6.0045851731e+01    0.5477846    0.3160683 -14.84  0.002127504    2.074    0.518
       271 -10.2066     56.5829     33.6714   8.4592149699e+01   6.3317202626e+01    0.4359711    0.2243015 -51.37  0.001976532    2.542    0.607
       272 -10.6882     51.4801     40.5476   8.9406529599e+01   6.2812887331e+01    0.2550905    0.2189959  80.22 0.0009247659    1.918    0.479
       273  -9.9876     55.9729     40.0421   8.7389734109e+01   6.2303471516e+01    0.3039264    0.1800692 -20.43  0.001507198    1.887    0.470
       274 -10.3534     44.0441     57.1112   9.8145465802e+01   6.0482687667e+01    0.2757331    0.2053595  -3.45 0.0003401115    1.490    0.329
       275 -10.7574    183.0022     38.2907   5.2779230761e+01   3.4767280120e+01    0.2709988    0.2000801 -45.70 0.0003262614    1.363    0.267
       276 -10.4576     42.6500     37.3177   9.1874577177e+01   6.4481241391e+01    0.3392285     0.261366  87.59  0.001795906    2.717    0.632
       277  -9.4751    155.2151     35.8425   5.6845201324e+01   4.2245947164e+01    0.2038247    0.1654022  28.72 0.0005489865    1.336    0.251
       278  -9.8035    127.4528     36.1596   6.2936899225e+01   4.9084408614e+01    0.2063491    0.1422763 -25.72 0.0006241298    1.505    0.335
       279 -10.0164     14.5759     34.4069   1.0350885215e+02   6.7605583725e+01    0.3074096    0.1348534  29.22  0.001632822    2.707    0.631
       280 -10.6163      9.6914     34.7167   1.0589962532e+02   6.7859592624e+01    0.2205105    0.1936733  52.48  0.001137571    1.645    0.392
       281 -10.6496      7.5903     30.7443   1.0563322262e+02   6.8747638105e+01     0.301577    0.1686742 -54.73   0.00107624    1.464    0.317
       282 -10.0536    110.7470     34.6973   6.6681086034e+01   5.3139571084e+01    0.3098962    0.1834198 -43.48  0.001026535    1.911    0.477
       283  -9.8309    206.1241     33.8520   4.8235845391e+01   2.9464536788e+01    0.1798932    0.1620218  39.20  0.001024218    1.272    0.214
       284 -10.6479    192.9682     32.9028   4.9732705108e+01   3.2914533650e+01    0.4049538    0.1906601  40.31  0.001498261    2.910    0.656
       285 -10.8328    139.6086     30.9785   5.8333429064e+01   4.6811268085e+01    0.3863077    0.2762899   9.75  0.001331665    1.708    0.415
       286 -10.6470     16.6848     30.7528   1.0125890668e+02   6.8147262039e+01    0.4593587    0.2596177  43.68  0.002504959    2.829    0.647
       287  -9.6804     20.7262     28.6014   9.8532791455e+01   6.8229529794e+01    0.2194877    0.0990117 -37.52  0.000644851    1.816    0.449
       288 -11.3793    177.2120     30.2608   5.1276313658e+01   3.7299095148e+01    0.4490421    0.2301659 -30.82  0.001680386    1.995    0.499
       289 -10.0678    124.9349     32.7084   6.2276887405e+01   5.0150886552e+01     0.293092    0.1082309  50.59   0.00107565    2.440    0.590
       290 -10.6156    223.5061     30.1879   4.5219810019e+01   2.5663118474e+01    0.2827612     0.195427 -77.20 0.0007984137    1.485    0.327
       291 -10.2493     49.5060     29.8380   8.5926606942e+01   6.4928167252e+01    0.4149553    0.1816609 -30.38  0.001854914    2.339    0.572
       292 -10.3911    102.3269     60.1878   7.8542722330e+01   5.0758521601e+01    0.3437857    0.1836125  35.32  0.000874329    2.061    0.515
       293  -9.1122    168.5141     29.9926   5.2586456066e+01   3.9579255728e+01     0.199287    0.1068746 -53.19 0.0004548569    2.229    0.551
       294 -10.3722    153.4601     29.1312   5.4950900649e+01   4.3553340394e+01    0.2532222    0.2172249 -34.65 0.0009237315    1.227    0.185
       295 -11.4905     74.9832    240.0201   1.1917747454e+02   1.6275441963e+01    0.3536165    0.2805382 -48.26  0.002336232    1.882    0.469
       296 -10.1967     66.1349     21.2732   7.5441238887e+01   6.3740581695e+01    0.3085936    0.1834168  42.23  0.001159987    1.739    0.425
       297 -10.7872     73.3270    237.3386   1.1925482126e+02   1.6972162180e+01    0.2418507     0.201974  12.68  0.001645872    1.970    0.492
       298 -10.1432    109.7025    243.2509   1.1316647821e+02   1.0765478337e+01    0.2534671    0.1525292  64.63  0.001048574    1.700    0.412
       299 -10.6424    156.5108    241.9164   1.0432174933e+02   3.6619104842e+00       0.1532    0.1226171 -48.14 0.0006159536    1.565    0.361
       300  -9.7636     88.6500    241.1780   1.1681281880e+02   1.4184942643e+01    0.1438295    0.1007835 -58.30 0.0009401096    1.779    0.438
       301  -9.1632     50.3224    240.3095   1.2353221945e+02   1.9386631072e+01   0.08874268   0.08671135 -60.21  0.000486569    1.648    0.393
       302 -10.2369    247.9505     27.4597   4.2132486687e+01   2.0342286105e+01    0.1885337   0.09411524 -75.19 0.0008087965    2.512    0.602
       303 -11.5957     70.9234     25.8996   7.5717612803e+01   6.2275737889e+01    0.3776562    0.2308928  28.59 0.0003642358    1.652    0.395
       304 -11.9245    237.1762     25.0513   4.2566394349e+01   2.3078871551e+01    0.3718104    0.2307063 -57.32 0.0006037625    1.501    0.334
       305 -10.7518    112.0890     25.0359   6.2556109798e+01   5.4116213249e+01    0.2339291    0.2150784 -19.64 0.0004264573    1.147    0.128
       306  -9.8999    114.4603     21.4363   6.0538351620e+01   5.4007324478e+01    0.2952864    0.1650909 -34.62  0.001377105    1.886    0.470
       307 -10.4962      9.7917     25.1927   1.0264906026e+02   6.9651262219e+01    0.2553502    0.1747684  -6.22  0.001373179    1.493    0.330
       308 -10.7158    197.1287     24.8258   4.6903155009e+01   3.2852368994e+01    0.2226841    0.1919928 -46.37 0.0003542461    1.160    0.138
       309  -9.9718    171.6693     25.3116   5.0621664583e+01   3.9331348505e+01    0.1504924    0.1039477 -67.75 0.0004516634    1.672    0.402
       310 -10.2980    195.5957    238.5973   9.6633772845e+01  -2.1310897309e+00    0.2603628    0.1681817  22.19  0.001548618    1.475    0.322
       311 -10.8763     95.0393     23.8100   6.6797822577e+01   5.7976203043e+01     0.620726    0.2545316  46.61  0.001978777    2.252    0.556
       312  -9.3334    135.3286    237.3340   1.0772572354e+02   7.7635365337e+00    0.1166916   0.09102917  12.43 0.0007051908    1.722    0.419
       313 -11.5739     29.9886    233.4164   1.2658383159e+02   2.2978104106e+01     0.394466    0.2095908  87.95  0.002564045    1.650    0.394
       314  -9.4774     39.9325     24.0097   8.7622845644e+01   6.7089900376e+01     0.136369    0.1098568 -13.93            0    1.030    0.029
       315  -8.9752    149.2365     22.9516   5.3652189183e+01   4.5363515913e+01    0.1658001    0.1200497 -27.17 0.0002934961    1.470    0.320
       316  -9.6771     34.6947     22.7737   8.9497357802e+01   6.7895091089e+01    0.2586578    0.1368097  13.31  0.001224038    2.296    0.564
       317 -10.1723    159.9088    235.8886   1.0288858769e+02   4.0156404672e+00    0.1892434    0.1489183  24.91 0.0006890738    1.263    0.208
       318 -10.3687     35.3979     15.1042   8.5668234151e+01   6.9021639382e+01     0.246492    0.1515825   3.02 0.0004814085    1.750    0.429
       319 -10.4465    181.0068    248.5187   1.0069637668e+02  -1.1504671780e+00    0.2524003     0.120536 -28.64  0.001203223    3.329    0.700
       320 -10.7003     26.6721     14.0187   8.9428761901e+01   7.0151966978e+01    0.1858353    0.1348008  -6.36 0.0004740168    1.212    0.175
       321 -10.1995    183.6489     21.2063   4.7639904435e+01   3.6718827781e+01    0.3704484     0.182712  76.30  0.000708458    2.136    0.532
       322 -10.0492    177.6592    234.9296   9.9413390068e+01   1.2586180854e+00    0.2205602    0.1498798  21.20 0.0008397121    1.524    0.344
       323 -11.0970    153.7616    233.6808   1.0375868078e+02   5.3601499870e+00    0.2245174    0.1733218 -38.21 0.0008566854    1.612    0.380
       324  -9.1784     44.6224     14.7001   8.1216250992e+01   6.7912769062e+01    0.1793837    0.1027628 -19.84 0.0009755909    1.676    0.403
       325 -10.1543    167.1891    233.8131   1.0122586806e+02   3.1360218155e+00    0.1632923    0.1326236  14.86  0.000746841    1.318    0.241
       326  -9.6124      1.4825     13.9475   1.0277539530e+02   7.2162113561e+01    0.1575294   0.08298133 -48.07 0.0003343108    1.455    0.313
       327  -9.6729    246.4472     19.5038   4.0443991489e+01   2.1640268053e+01      0.12976    0.1082535 -63.79 4.446718e-05    1.008    0.008
       328 -10.0365    213.7915     17.3725   4.2989393608e+01   2.9558114950e+01    0.2956845    0.1190375  51.73  0.001174944    2.733    0.634
       329 -10.7025     10.1597     15.6108   9.8740658080e+01   7.1324652526e+01    0.2051274    0.1256208 -30.84 0.0006393424    1.269    0.212
       330  -9.8225     50.3450     15.3283   7.9018204647e+01   6.7024279199e+01    0.2461766    0.1473678  41.66  0.001376959    1.891    0.471
       331 -10.3780     86.1986    233.0863   1.1652214514e+02   1.5953670732e+01    0.2413335    0.1108811  57.88 0.0009837878    2.046    0.511
       332  -9.2038     62.4982    233.4966   1.2089983480e+02   1.9088800482e+01    0.1160629   0.08679991  65.61 0.0008106701    1.009    0.009
       333  -9.9185     24.0979    232.1905   1.2751139346e+02   2.3836601923e+01    0.1482513     0.118175  78.28 0.0005431579    1.205    0.170
       334  -9.8817     79.9556    231.5009   1.1753799726e+02   1.7115875982e+01    0.1762446   0.09542992  44.72 0.0005079363    1.538    0.350
       335  -9.6401     12.9816    231.3160   1.2931674871e+02   2.5137518281e+01    0.1459236    0.1018241  66.45 0.0008443057    1.072    0.067
       336 -10.5287      4.4756    226.0922   1.3048022973e+02   2.6915037072e+01    0.4387918    0.1417208  71.35  0.002175626    2.940    0.660
       337 -11.2054     29.3933     20.6547   9.1095500207e+01   6.8809522875e+01    0.2611786    0.1570773 -31.11  0.001385385    1.366    0.268
       338 -10.2306    168.8045     13.4252   4.7365578906e+01   4.1383129697e+01    0.2052045    0.1129941  56.14 0.0005833567    1.649    0.394
       339  -9.9868    190.5943    227.3390   9.5850672912e+01   2.2531512139e-01    0.3198785    0.1214601 -40.94  0.001425103    3.095    0.677
       340  -9.9952    248.7652    227.6060   8.5483138758e+01  -8.8278249211e+00    0.2067737    0.1236279 -11.60 0.0008749159    1.679    0.404
       341  -9.7702    129.9340    226.7323   1.0745583990e+02   1.0393577229e+01    0.2834558    0.1235889  57.51  0.001156581    2.979    0.664
       342 -10.7971    120.1704    226.5128   1.0933393275e+02   1.2000197898e+01     0.198901    0.1480137  66.23 0.0006510548    1.319    0.242
       343  -9.9488     88.0069    226.9991   1.1559902117e+02   1.6799830905e+01    0.1907914    0.1503074  62.79  0.001288385    1.016    0.015
       344 -10.3156     66.6208    226.2570   1.1956151290e+02   1.9888643907e+01    0.2737092    0.1318898  43.05 0.0009846927    1.770    0.435
       345 -10.0727     25.8487    225.3127   1.2683423928e+02   2.4923311898e+01    0.1978481    0.1465118 -45.47  0.001352559    2.318    0.569
       346 -10.6049    123.4369    222.2808   1.0817447903e+02   1.2223484455e+01    0.2213002    0.1518249 -68.45 0.0006875386    1.721    0.419
       347 -10.4285     13.3265    222.1633   1.2881734131e+02   2.6796565585e+01    0.1737935    0.1325529 -88.08 0.0009635448    1.274    0.215
       348 -10.3882    141.5265    221.1550   1.0444270864e+02   9.4384823860e+00      0.28201    0.1860646  25.15  0.001510886    1.775    0.437
       349  -9.2687     41.7298    220.9809   1.2374037337e+02   2.3978805401e+01    0.1350386   0.08381071 -82.63 0.0007581762    1.465    0.318
       350  -9.4418     77.5124    219.4600   1.1688306079e+02   1.9701530920e+01    0.2038327   0.09677599 -54.96  0.001030938    2.526    0.604
       351 -10.7896    214.5671     27.2639   4.5467016375e+01   2.8198903309e+01    0.2596114    0.2053165  87.75 0.0006045501    1.209    0.173
       352 -10.0063     21.9624    220.4712   1.2723696143e+02   2.6245796222e+01    0.1488153   0.08929558  45.77 0.0004767928    1.523    0.343
       353  -9.4213    250.4886    219.4371   8.3788224549e+01  -8.1167060547e+00    0.1211153   0.09173465   9.51 0.0001541314    1.031    0.030
       354  -9.5971    173.8096    219.6430   9.7867231365e+01   4.1990284822e+00    0.1924773    0.1025112  47.25 0.0009475749    1.748    0.428
       355 -10.0193    194.5098    215.4794   9.3205479993e+01   1.3015359794e+00    0.1979595    0.1070319  31.09 -5.87184e-05    1.726    0.421
       356 -11.4668    236.4598    214.8721   8.5402931895e+01  -5.4535728949e+00    0.4494622    0.2496106  22.60  0.002032064    1.751    0.429
       357  -9.3055    201.6555    215.7015   9.1887267786e+01   6.1018464805e-02     0.132754   0.08814343  12.85 0.0007035485    1.674    0.403
       358  -9.2438    136.6650    215.7196   1.0466624136e+02   1.1204504793e+01     0.123773   0.09747189  14.83  0.000471152    1.614    0.381
       359  -9.3400    115.0000    215.0489   1.0895590074e+02   1.4901612293e+01    0.1832573   0.07251364 -58.24 0.0004998999    2.858    0.650
       360 -10.8781      9.6266    216.9420   1.2919206998e+02   2.8143381120e+01    0.2825303    0.1441104  62.84  0.001149414    1.507    0.336
       361 -10.9930     21.2956    212.3823   1.2688969301e+02   2.7875441722e+01     0.310475    0.1234519  54.42    0.0017318    2.024    0.506
       362 -10.2012    208.9746    212.0589   8.9892258739e+01  -6.4047676429e-01    0.1951916    0.1606819  18.09 0.0004571403    1.029    0.028
