#   1 NUMBER                 Running object number                                     
#   2 MAG_AUTO               Kron-like elliptical aperture magnitude                    [mag]
#   3 X_IMAGE                Object position along x                                    [pixel]
#   4 Y_IMAGE                Object position along y                                    [pixel]
#   5 X_WORLD                Barycenter position along world x axis                     [deg]
#   6 Y_WORLD                Barycenter position along world y axis                     [deg]
#   7 A_WORLD                Profile RMS along major axis (world units)                 [deg]
#   8 B_WORLD                Profile RMS along minor axis (world units)                 [deg]
#   9 THETA_WORLD            Position angle (CCW/world-x)                               [deg]
#  10 FWHM_WORLD             FWHM assuming a gaussian core                              [deg]
#  11 ELONGATION             A_IMAGE/B_IMAGE                                           
#  12 ELLIPTICITY            1 - B_IMAGE/A_IMAGE                                       
         1 -14.9151     71.5760     54.9776   7.7247925429e+01   5.7722270660e+01     1.172128    0.7350938  45.16  0.004425096    1.757    0.431
         2 -13.9421     42.8285     32.0310   7.9576001276e+01   6.5957105062e+01     2.521182     1.244674  13.53   0.01058945    3.199    0.687
         3 -15.2908     41.8398     47.8833   8.6385531973e+01   6.3375092637e+01      1.61102    0.8865963 -15.33  0.001325059    2.501    0.600
         4 -14.7605     42.1841     42.6940   8.4254887361e+01   6.4265050581e+01     1.673582    0.6493327  20.68  0.005407505    4.303    0.768
         5 -14.7542      8.3687     20.5030   9.1732269883e+01   7.1513241719e+01     2.098734     1.073627 -19.67   0.01180392    1.978    0.494
         6 -13.3737     23.4307     11.3566   7.9146933907e+01   7.1417762762e+01    0.7913678    0.5124503 -19.76  0.005160228    1.307    0.235
         7 -12.1141     83.1182     22.5629   6.0310311654e+01   6.0359236726e+01     0.349116    0.3301605  -7.96   0.00131803    1.174    0.149
         8 -12.3269    106.6157      4.4857   4.6956826964e+01   5.7020788942e+01     1.180668    0.3786812  59.15  0.004859912    2.481    0.597
         9 -13.3893     75.6782     13.2957   5.8557514028e+01   6.2849175563e+01     0.809918    0.4264264  49.77  0.002571862    1.724    0.420
        10 -13.7558     84.8144      9.9366   5.4398249135e+01   6.1322442148e+01     1.313486    0.7616006  56.89   0.00701251    1.637    0.389
        11 -12.6308     87.2946      1.8677   5.0266050450e+01   6.1483431766e+01    0.9686467    0.2027944  61.49  0.003095668    4.606    0.783
        12 -12.2830     95.4287      3.3935   4.8959007900e+01   5.9607288400e+01    0.4531142    0.3168673  29.88  0.001796546    1.367    0.269
        13 -11.3041    177.5633     13.3839   3.8917519152e+01   3.9171937226e+01    0.2526133    0.2056708  57.66   0.00053722    1.257    0.205
        14 -11.6056    123.7351     10.5457   4.5867304287e+01   5.2529984036e+01    0.2507921    0.2061895  42.78 0.0002901098    1.150    0.131
        15 -10.8194    242.2865     10.0177   3.2383397427e+01   2.4774812259e+01    0.1683553    0.1245684 -54.39 0.0003508879    1.146    0.127
        16  -9.8032    150.9872      9.5001   4.1161090600e+01   4.6037856305e+01      0.18408    0.1010428 -79.98 0.0008072462    2.348    0.574
        17 -10.1168    193.3493      8.2963   3.5930260607e+01   3.5897780115e+01    0.1266636   0.08885287  47.48 0.0005564887    1.681    0.405
        18 -11.2511    188.0923      5.2900   3.5672920725e+01   3.7437218895e+01    0.2035844    0.1700967 -53.14 0.0002738175    1.198    0.165
        19 -11.3457    137.1824      5.3249   4.1845932156e+01   4.9756643283e+01    0.3965074    0.2172937  73.77  0.001965763    1.710    0.415
        20 -10.3656    192.6749      5.3020   3.5243187813e+01   3.6351077860e+01    0.1350605   0.08064772 -66.84 0.0003152863    1.638    0.389
        21  -9.6440    160.4354      4.5483   3.8454639513e+01   4.4174351839e+01    0.1285938    0.1117815  76.23 8.117446e-05    1.030    0.029
        22 -11.4082     73.4652      1.5319   5.3846239448e+01   6.4359301259e+01    0.2198371    0.1305088  52.29 0.0006312645    1.502    0.334
        23 -13.2939    137.4302     80.8465   6.6327075656e+01   3.9355330056e+01     0.711036    0.5130291  -2.93  0.003071565    1.994    0.499
        24 -13.9568     71.9828     67.0576   8.1372865921e+01   5.5382969073e+01    0.8209833    0.5214486  -5.83  0.003574771    2.349    0.574
        25 -13.6142     83.9928     60.7656   7.5020614754e+01   5.4471869159e+01    0.5922919    0.5311614   6.59  0.002963215    1.071    0.067
        26 -10.9934    246.7831    183.5355   6.9240507766e+01  -2.4591496522e+00     0.229009    0.1536264 -30.78 0.0002568271    1.301    0.231
        27 -13.0803     40.9448     81.9337   9.7444049906e+01   5.6444613090e+01    0.4227487    0.3006532  30.82  0.002313582    1.592    0.372
        28 -14.4908     27.5643     80.5460   1.0219220596e+02   5.8066340133e+01    0.6978718    0.5875324 -86.10  0.004351851    1.396    0.284
        29 -13.9864     96.2079     71.3292   7.4704217280e+01   5.0151689689e+01    0.6967171    0.6064966  46.04  0.001680435    1.210    0.174
        30 -12.5368    124.9307     56.7514   6.1713644143e+01   4.6497150642e+01     0.309167    0.2851069 -59.43   0.00045518    1.171    0.146
        31 -15.0218     60.2031     72.1378   8.7345619499e+01   5.6163347943e+01     1.437334    0.8777549 -37.37  0.006623834    1.538    0.350
        32 -12.3347    160.3177     72.0104   5.8562707943e+01   3.5472040349e+01    0.2880196     0.216479  48.83 0.0006675701    1.352    0.261
        33 -14.2917     63.7072     46.4085   7.6916900582e+01   6.0515023425e+01     0.896733    0.5905306  -4.96   0.00451128    1.849    0.459
        34 -12.6188    129.2181     62.0016   6.2397612563e+01   4.4638257468e+01    0.4061449    0.2728526 -38.44  0.001501614    1.506    0.336
        35 -14.3281    117.3567     68.5300   6.7604150094e+01   4.6216750639e+01    0.9189881     0.799308 -85.82  0.004816537    1.390    0.281
        36 -13.6364      8.9156     63.7355   1.0564907604e+02   6.3160951440e+01     0.468114     0.286117 -49.62  0.002192416    1.265    0.209
        37 -12.7309    133.0783     67.5323   6.3243749002e+01   4.2791727503e+01    0.4683503    0.2126085 -38.83  0.001793248    2.197    0.545
        38 -10.1730    166.3153     63.2870   5.4844005773e+01   3.5451493140e+01       0.1461    0.1143677  26.58 0.0001875162    1.586    0.370
        39 -10.6394    169.8168     62.6271   5.4008663112e+01   3.4696753751e+01    0.2061242    0.1377214  73.39 0.0004731551    1.636    0.389
        40 -12.6819     93.0607     58.5659   7.1289679406e+01   5.3119017400e+01    0.6097884     0.201484 -39.23  0.002118722    2.990    0.666
        41 -11.3473     34.4297    177.1456   1.1531033604e+02   3.3920703092e+01    0.2540731     0.162985   2.87  0.001240582    2.774    0.640
        42 -11.4058    203.1278    171.7206   7.4735711324e+01   6.8869609707e+00    0.2841753    0.1610163 -51.41    0.0012362    2.094    0.523
        43 -12.2141    234.4183    164.0967   6.7400520710e+01   2.6707681465e+00    0.3920704    0.3068011 -19.35  0.002268611    1.166    0.142
        44 -10.4290    214.5375     60.8478   4.6642446280e+01   2.4289518263e+01     0.206508     0.128896 -35.17  0.001012575    1.556    0.357
        45 -11.4662    174.5858     56.6231   5.1456772062e+01   3.4454876845e+01     0.256565    0.2254978 -79.66 0.0005765729    1.121    0.108
        46 -11.2333    137.0387     56.0063   5.8608531266e+01   4.3751035115e+01    0.2216184    0.2139247  61.45 0.0004170882    1.016    0.016
        47 -13.6780     21.9973     53.5711   9.7109003223e+01   6.4338182719e+01    0.5902678    0.3375331 -38.09  0.003093341    1.471    0.320
        48 -11.1368    132.3712     53.8090   5.8953304938e+01   4.5208018499e+01    0.2833748    0.1976823  48.74 0.0006149235    1.383    0.277
        49 -14.0490      3.3006     46.6935   1.0367481533e+02   6.7031268028e+01    0.8479307    0.6441646 -77.59  0.004850374    1.650    0.394
        50 -12.7452    239.9177    154.5040   6.4465313585e+01   3.3452283773e+00    0.8688717    0.2858567 -32.32  0.003025073    3.233    0.691
        51 -11.6027    145.6119     50.6355   5.5046640537e+01   4.2485978407e+01    0.2695542    0.2470929 -78.69 0.0007385824    1.131    0.116
        52 -10.8549    137.7704     48.9269   5.6143071390e+01   4.4643793025e+01    0.2433133    0.1569574 -59.83   0.00107886    1.975    0.494
        53 -12.5567     95.0263     45.9760   6.6059003671e+01   5.4780122301e+01    0.6346303    0.2640736  43.76   0.00254264    2.325    0.570
        54 -11.1184    122.1636     43.7015   5.7919962986e+01   4.9106847858e+01    0.2647594    0.2166508  -8.08 0.0006897406    1.351    0.260
        55 -11.0336    181.9885     43.1916   4.6528944022e+01   3.4560388240e+01    0.2214281    0.1932281 -49.49 0.0002601268    1.136    0.120
        56 -11.2403    157.0720     43.7282   5.0705550702e+01   4.0641828230e+01    0.2753453     0.213387  59.79 0.0006100489    1.226    0.185
        57 -10.5643    140.8604     43.8815   5.3849520899e+01   4.4609400765e+01    0.2082466    0.1857227  33.64 0.0003214189    1.167    0.143
        58  -9.9790    204.4586     43.5483   4.3611140008e+01   2.9106092995e+01    0.1351146    0.1220348 -74.84   0.00042178    1.037    0.035
        59 -11.6653    217.9237     38.3340   4.0784874164e+01   2.6685585698e+01    0.2454194    0.2117109  89.49 0.0003650062    1.114    0.102
        60 -10.0684    130.3797     38.2308   5.4167802211e+01   4.7903547703e+01    0.1972816    0.1253419 -41.97  0.000943145    1.682    0.405
        61 -12.9062     70.2259     35.7337   7.0175865080e+01   6.1090542981e+01    0.4383708     0.296132  11.82  0.002314044    1.652    0.395
        62 -12.5939     75.4683     34.7938   6.7940707919e+01   6.0271400486e+01    0.3464551    0.2284337  41.85  0.001612102    1.467    0.319
        63 -12.4459     78.2329     30.6425   6.5277025215e+01   6.0318438560e+01    0.4218741    0.2984653  42.56  0.001617631    1.350    0.259
        64 -10.3592    140.2831     35.0420   5.1078963733e+01   4.5913826798e+01    0.1832463    0.1816186  88.42 0.0002955409    1.064    0.060
        65 -11.3188    155.0142     51.9905   5.3609971489e+01   3.9976054319e+01    0.2329943    0.1701051 -72.67 0.0004192994    1.633    0.388
        66  -9.8364    176.5112     33.4989   4.4617883946e+01   3.7163677433e+01    0.1378395    0.1249231 -88.07 0.0003060355    1.001    0.001
        67 -13.5654    247.4947    140.9902   6.0390304087e+01   4.3004675830e+00     1.579224    0.5808236 -33.02  0.006121509    2.599    0.615
        68 -11.4141    241.8810     22.6539   3.5056854610e+01   2.3405707029e+01    0.2826259    0.1825612 -65.72 0.0009739856    1.336    0.251
        69 -10.6692    138.5255    152.4924   8.4820185460e+01   2.3579388219e+01    0.1520656    0.1496966 -80.72 0.0001570393    1.013    0.013
        70 -10.0884    142.3675     22.0731   4.6467833991e+01   4.6906840885e+01     0.243337    0.1286396 -72.96 0.0009119614    3.244    0.692
        71 -12.6715     47.2582    142.2404   1.0755163147e+02   4.1077512527e+01    0.4568029    0.2476721  23.32  0.002095843    2.313    0.568
        72 -11.2522     64.2685     18.4696   6.4751653425e+01   6.4431812906e+01    0.4256056     0.240814  33.64  0.001725144    1.650    0.394
        73 -10.8856      3.5042    140.5046   1.1941380147e+02   4.5478753354e+01    0.2463984   0.07290573 -63.93  0.001044181    2.462    0.594
        74 -11.0291    190.1024    136.1436   6.9423500382e+01   1.6312586989e+01    0.2405906    0.2057391  -5.83  0.001234191    1.294    0.227
        75 -10.6014     33.5047    135.5279   1.1048093057e+02   4.4229679186e+01    0.1353455    0.1141289 -78.95 0.0008098249    1.030    0.029
        76 -14.1098    203.4256    125.3969   6.4294645745e+01   1.5586149711e+01     1.336204    0.6006913 -34.81  0.005075724    2.231    0.552
        77 -12.7807    218.4029    121.4935   6.0724247576e+01   1.3196493247e+01    0.8875766    0.5723721 -46.73  0.004282618    1.464    0.317
        78 -10.8345     28.2038    126.3967   1.1069545397e+02   4.7001427868e+01    0.1746566     0.116252  43.72 0.0009498361    1.679    0.404
        79 -11.2525    111.9912    109.9951   8.1554460780e+01   3.8778200909e+01    0.1899026    0.1843406 -47.19 0.0006999772    1.006    0.006
        80 -11.7821    209.4733    127.1484   6.3606410395e+01   1.3992746865e+01    0.3634968    0.2787188  59.26  0.001855178    1.499    0.333
        81 -11.0695    189.5089    105.5014   6.1990237462e+01   2.2428092254e+01    0.1518416    0.1429019 -49.52 0.0008106279    1.004    0.004
        82 -10.9763     89.8253     97.7175   8.4818262706e+01   4.5792033143e+01    0.5704334    0.1518214 -47.47  0.001688267    3.491    0.714
        83 -12.0563    141.2451     96.8418   7.0097518536e+01   3.5316742483e+01    0.4126599    0.2803484 -22.43  0.001737076    1.853    0.460
        84 -11.1777    176.8080     92.9165   6.1140442110e+01   2.7746377247e+01     0.298892    0.2652328 -16.82  0.001549191    1.248    0.198
        85 -13.1341      5.2503     84.7629   1.1149598812e+02   5.8675043052e+01    0.4835121    0.2474773 -52.45  0.002642397    1.519    0.341
