#   1 NUMBER                 Running object number                                     
#   2 MAG_AUTO               Kron-like elliptical aperture magnitude                    [mag]
#   3 X_IMAGE                Object position along x                                    [pixel]
#   4 Y_IMAGE                Object position along y                                    [pixel]
#   5 X_WORLD                Barycenter position along world x axis                     [deg]
#   6 Y_WORLD                Barycenter position along world y axis                     [deg]
#   7 A_WORLD                Profile RMS along major axis (world units)                 [deg]
#   8 B_WORLD                Profile RMS along minor axis (world units)                 [deg]
#   9 THETA_WORLD            Position angle (CCW/world-x)                               [deg]
#  10 FWHM_WORLD             FWHM assuming a gaussian core                              [deg]
#  11 ELONGATION             A_IMAGE/B_IMAGE                                           
#  12 ELLIPTICITY            1 - B_IMAGE/A_IMAGE                                       
         1 -13.0839    211.5454     44.2235   1.7618630081e+01   2.6565590869e+01    0.7488385    0.6909927  28.79  0.001116547    1.230    0.187
         2 -12.9192    237.6663     21.1857   9.9943937079e+00   2.3568420273e+01    0.7945753    0.6769659 -44.36  0.004204005    1.053    0.050
         3  -9.2918    158.2789      8.9836   1.3739696890e+01   4.3113169114e+01    0.1876551    0.1709183 -55.80 0.0005821166    1.124    0.110
         4  -9.8822    125.0000    243.9127   7.3283951884e+01   1.1874984833e+01    0.1637891    0.1579847  55.26 0.0008917032    1.434    0.303
         5  -9.2596    114.2717    250.1391   7.6095749834e+01   1.2338627412e+01    0.2029415    0.1196612  25.21 0.0008272678    1.319    0.242
         6 -15.9040     34.5211    181.9451   8.8992347539e+01   3.3714116779e+01     9.335491     1.143084  36.98   0.03271624    3.687    0.729
         7  -9.5334    141.2443    211.6922   6.6034376812e+01   1.4417732758e+01    0.1722692    0.1662062  40.95 0.0006710567    1.363    0.266
         8  -9.7002    150.4996    245.5099   6.8321854784e+01   8.4326142037e+00     0.117765   0.08308268  22.12 0.0001899057    1.041    0.039
         9 -10.5218    190.9831    191.4557   5.2762028140e+01   1.0071209105e+01    0.5453563    0.3198572 -60.99  0.001842453    7.331    0.864
        10 -10.1478    108.9318    240.6428   7.6307710867e+01   1.4366956520e+01    0.2829576     0.166693 -27.73  0.001585037    2.658    0.624
        11 -17.9196      7.3615    230.8844   9.7481527295e+01   2.6758659641e+01     5.259434     2.276491 -81.94   0.01728689    2.585    0.613
        12 -10.9454    161.5209    186.8236   5.7946991103e+01   1.5226900158e+01    0.3517492    0.2253066 -53.47  0.001862761    2.250    0.555
        13 -15.9529     56.1034    234.2260   8.7194875030e+01   2.1593225371e+01     4.190205     2.954741  -0.65   0.02679491    1.956    0.489
        14 -10.5542     76.5333    183.4172   7.8000504788e+01   2.8596781033e+01    0.4820024     0.267113  67.22  0.002202592    2.504    0.601
        15 -10.2279    176.9636    184.9706   5.4427672952e+01   1.3100669085e+01    0.2079871    0.1655037  15.65  0.001259659    1.020    0.020
        16 -11.0173    128.7325    180.9415   6.4439479714e+01   2.1404456605e+01    0.2614408    0.2434695  55.03  0.001061027    1.273    0.215
        17  -9.9702    125.9785    213.5497   6.9628017685e+01   1.6287835110e+01    0.2024752    0.1759426  70.67 0.0007517213    1.565    0.361
        18 -10.9944     98.9472    180.8291   7.1842607863e+01   2.5992814622e+01    0.3058259    0.2508712  30.30 0.0007085446    1.050    0.048
        19 -10.6917    172.7662    177.5755   5.4015916849e+01   1.4867951794e+01    0.3163388    0.2284445  26.39  0.001163645    1.170    0.145
        20 -11.4909    181.1756    173.6166   5.1603890389e+01   1.4112994053e+01    0.4685444    0.3699826 -17.84  0.002870801    1.268    0.211
        21 -10.4220    179.0275    167.5078   5.0926798332e+01   1.5382527987e+01    0.3113381    0.2077435  23.04  0.001307333    1.371    0.271
        22  -9.8973    120.5232    174.0269   6.5364221668e+01   2.3980784944e+01    0.2786739    0.1432803 -60.82  0.001209458    2.735    0.634
        23 -10.3859    198.7531    171.1666   4.7774548086e+01   1.1678240928e+01      0.35349    0.1895703 -46.37  0.001664899    2.581    0.613
        24 -10.8861    103.0048    171.0027   6.9393749895e+01   2.7322825511e+01     0.346024    0.2396499  58.52  0.001664322    1.674    0.403
        25  -8.9584     68.4999    171.5484   7.8822120735e+01   3.2103737392e+01    0.2141875    0.1268457 -89.23  0.001016603    2.254    0.556
        26 -11.3916     66.8024    126.8252   7.3114245652e+01   4.2445590214e+01    0.7456548    0.6254763 -71.29  0.003488286    1.272    0.214
        27 -12.3044     83.9028    165.1985   7.3738103532e+01   3.1363154310e+01     1.752705    0.5381671  35.93   0.00646781    2.605    0.616
        28 -11.2038     80.6416    151.5973   7.2715325014e+01   3.4780715538e+01     0.498516    0.2805995 -57.20 0.0001694728    1.944    0.486
        29 -13.7301     68.9999    144.6558   7.5201899265e+01   3.7989787851e+01     1.585221     1.117552  64.35  0.002604524    1.575    0.365
        30 -11.1045     54.9210    133.2569   7.8073155570e+01   4.2479163869e+01    0.6397293    0.4271893  -5.53  0.001075409    2.063    0.515
        31 -11.3368    247.0772    164.8422   3.8655920491e+01   5.4335154228e+00    0.4564973    0.2091432 -39.95  0.002401225    2.591    0.614
        32  -9.4191    110.4759    166.5536   6.6746506321e+01   2.7033601935e+01    0.2219688    0.1408472 -71.84 0.0007009068    2.322    0.569
        33  -8.4754     46.5254    166.5078   8.4475623571e+01   3.5804341489e+01    0.1312634    0.1118931  48.26 6.040103e-06    1.017    0.016
        34  -9.5854     39.4901    161.8559   8.6078578195e+01   3.7576171650e+01    0.3547697    0.1962948  79.17  0.001733484    2.081    0.520
        35 -10.4532    235.3929    159.7790   3.9484772087e+01   7.6501084672e+00    0.1698304   0.09445615 -18.75 0.0004780396    1.704    0.413
        36  -8.6833     48.2446    156.6234   8.3006522071e+01   3.7823770639e+01    0.1377887   0.08757716  62.93 0.0003798878    1.634    0.388
        37 -10.6189     30.1521    155.1110   8.8260537265e+01   4.0000537647e+01    0.4437264    0.3045599  57.95  0.002198376    1.349    0.258
        38  -9.5668     87.2313    154.4423   7.1228829168e+01   3.3180056640e+01    0.3636118    0.2226565  68.99  0.001579434    2.375    0.579
        39 -10.9265    133.7268    145.3802   5.6933982372e+01   2.7172604656e+01     1.026888    0.2961833 -53.32  0.002824822    5.657    0.823
        40 -10.7925     88.2014    140.7643   6.8706873558e+01   3.6035198278e+01    0.3601969    0.2374781  74.18  0.001111055    2.197    0.545
        41  -9.9572     23.5304    148.4912   8.9748990378e+01   4.2097529297e+01     0.369914    0.2528563  35.45  0.002142485    1.325    0.245
        42  -9.1196     40.3307    147.0272   8.4431220894e+01   4.0874980719e+01     0.182166    0.1604679 -89.10 0.0008970722    1.155    0.134
        43  -8.9566     35.8925    144.1899   8.5540233194e+01   4.1981804585e+01    0.3035816    0.1747909 -31.57  0.001390918    2.470    0.595
        44  -9.8662     31.9955    143.8061   8.6733279107e+01   4.2442475331e+01    0.2695835    0.2272983  69.84  0.001663889    1.123    0.109
        45  -9.7318     24.1939    137.6408   8.8684505002e+01   4.4579649637e+01      0.30377    0.1790451  73.15  0.001547504    1.766    0.434
        46 -10.9838    104.3270    132.1253   6.2282423365e+01   3.5219910127e+01    0.6915141    0.4464854  -8.92  0.002647977    2.650    0.623
        47 -11.5034     67.5334    163.3124   7.8122338884e+01   3.4005866944e+01    0.3753853    0.2853533 -14.30  0.002029216    1.719    0.418
        48 -11.6353     89.2541    133.1533   6.7017291537e+01   3.7566267867e+01    0.2759025    0.2566361  23.83 0.0004271902    1.064    0.060
        49 -11.1081     71.4807    155.0329   7.5910204605e+01   3.5309363689e+01    0.2624039    0.2376937  64.06 0.0004830174    1.116    0.104
        50 -11.6203     87.0135    147.0905   7.0126742523e+01   3.4819941876e+01    0.5903314    0.5379398 -48.37  0.001972115    1.222    0.182
        51  -9.8303     43.8719    129.3500   8.1260317156e+01   4.4690657165e+01    0.2259288    0.1816835  83.43 0.0007022653    1.282    0.220
        52 -15.5487      8.7591    207.2838   9.6531681699e+01   3.0907493378e+01    0.9247246    0.5468724  -6.64  0.004763073    2.727    0.633
        53  -8.9601     81.7032    128.3600   6.8498852982e+01   3.9866632553e+01    0.2237073    0.1556108  61.90 0.0006339809    1.684    0.406
        54  -9.8380    111.2645    126.9109   5.9181737853e+01   3.5071299899e+01    0.2875637    0.2040477  27.76 0.0007123081    1.395    0.283
        55 -10.2655     98.3150    122.0353   6.1999409752e+01   3.8493197654e+01     0.295502    0.2372937  -5.13 0.0005539873    1.509    0.337
        56 -10.2310    102.7610    119.4403   6.0073604372e+01   3.8253811045e+01    0.2876855    0.2389733  60.65 0.0004349358    1.316    0.240
        57  -9.6597     43.8352    122.7802   8.0403444777e+01   4.6284003897e+01    0.2075032    0.1825439 -35.19  0.000439826    1.258    0.205
        58 -11.5739     72.0047    159.0580   7.6294445302e+01   3.4347763519e+01    0.4143386    0.3119155  -8.09  0.001357839    1.723    0.420
        59  -9.9960     55.4142    118.2111   7.5606549587e+01   4.6028406662e+01    0.3955803    0.2743518  48.72  0.001997352    1.427    0.299
        60  -9.0959    107.3410    116.5659   5.8042980205e+01   3.8015468160e+01     0.194824    0.1386454  29.47 0.0007983837    1.388    0.279
        61  -9.6021     39.5455    113.0387   8.0590361681e+01   4.9121956067e+01    0.2447998    0.1677596  42.33 0.0003395477    1.407    0.289
        62  -9.7216    205.2573    110.2794   3.4217812855e+01   1.9232670984e+01    0.2548147    0.1719255  40.60 0.0009551399    1.496    0.332
        63 -10.8855     53.3860    109.4749   7.4848474721e+01   4.8406472183e+01    0.3938154     0.295381  49.74  0.002057362    1.337    0.252
        64 -10.2003    115.2709    108.5726   5.3796029392e+01   3.8143251710e+01    0.3090955    0.1377549  45.00  0.001147022    2.127    0.530
        65  -8.5453    108.2968    106.6820   5.5399878674e+01   3.9940167298e+01    0.1502861    0.1196149  75.38 0.0004047981    1.612    0.379
        66 -10.4743     48.9894    105.1717   7.5749075318e+01   4.9999695229e+01    0.2623923    0.1863226 -51.70 0.0007852398    1.436    0.304
        67 -10.2796     38.7394    101.7318   7.9173800209e+01   5.1994393204e+01    0.4735276    0.1564543  39.85  0.001252852    2.858    0.650
        68 -11.1473     14.9313     89.1883   8.7260917952e+01   5.7086111512e+01    0.3736494    0.1603199  26.06  0.001384815    2.262    0.558
        69 -14.9461     13.2563    242.2716   9.6566843444e+01   2.4355188129e+01    0.5795268    0.2691057 -74.20  0.003663694    2.591    0.614
        70 -10.1330     59.8946     79.5079   6.5714631857e+01   5.4716970504e+01    0.3757571    0.2261148  56.04  0.001594717    2.123    0.529
        71  -9.1346    184.6027     77.2560   2.9677620957e+01   2.8277399084e+01    0.1904528    0.1315231 -19.11 0.0006905327    1.595    0.373
        72  -9.8086    101.5028    246.4436   7.8398942829e+01   1.4424937159e+01    0.1901118    0.1596086  72.99  0.001426292    1.574    0.365
        73 -10.5689    102.6799    240.2041   7.7590706092e+01   1.5209958149e+01    0.3937137    0.1787597 -44.13  0.002077089    3.103    0.678
        74 -11.2497     31.6167     68.4732   7.5955724337e+01   6.0877632310e+01    0.3405837    0.3276775 -17.36  0.001242947    1.025    0.025
        75 -12.6210    189.3394     60.5610   2.4571202136e+01   2.9512244981e+01     1.565279    0.8883641  30.47  0.005315315    2.550    0.608
        76 -10.7447    137.0593    248.2395   7.1292289100e+01   9.7695026583e+00    0.3488142    0.1318864  45.24  0.001594245    3.058    0.673
        77 -13.0727    204.4369     50.1479   1.9893658076e+01   2.7426643882e+01    0.8212833    0.7918984  26.53  0.003906624    1.133    0.117
        78  -8.9085     61.3147     61.6586   5.9828328011e+01   5.8543294171e+01    0.1466526    0.1148715  72.00 0.0007047682    1.705    0.414
        79  -9.0706     20.6627     70.3168   8.1779007893e+01   6.1361517346e+01    0.1393446   0.09392436  56.35 0.0007048389    1.700    0.412
        80 -11.2167     11.5595     50.4411   8.2836591210e+01   6.6752420634e+01    0.2823017    0.2334239  83.32  0.001715595    1.350    0.259
        81  -9.3311     34.8154     35.5706   6.4211004715e+01   6.8043149990e+01    0.1907355     0.118245  38.48 0.0009436975    1.693    0.409
        82  -9.3146     32.3206     31.3334   6.4039082219e+01   6.9239485403e+01    0.1432992   0.09435989 -19.72 0.0007049495    1.700    0.412
        83 -10.3163    124.6944    248.5095   7.3813433905e+01   1.1277568937e+01    0.2609594    0.1708771 -44.66  0.001507818    2.047    0.511
        84  -9.2532     60.4758     21.0504   4.3281815511e+01   6.6460815082e+01    0.2104605    0.1733089  35.04 0.0003913481    1.104    0.094
        85  -8.5293     69.5290     66.4276   5.7820156280e+01   5.6093559301e+01    0.1466179    0.1387023  34.81 0.0002444365    1.049    0.047
