#   1 NUMBER                 Running object number                                     
#   2 MAG_AUTO               Kron-like elliptical aperture magnitude                    [mag]
#   3 X_IMAGE                Object position along x                                    [pixel]
#   4 Y_IMAGE                Object position along y                                    [pixel]
#   5 X_WORLD                Barycenter position along world x axis                     [deg]
#   6 Y_WORLD                Barycenter position along world y axis                     [deg]
#   7 A_WORLD                Profile RMS along major axis (world units)                 [deg]
#   8 B_WORLD                Profile RMS along minor axis (world units)                 [deg]
#   9 THETA_WORLD            Position angle (CCW/world-x)                               [deg]
#  10 FWHM_WORLD             FWHM assuming a gaussian core                              [deg]
#  11 ELONGATION             A_IMAGE/B_IMAGE                                           
#  12 ELLIPTICITY            1 - B_IMAGE/A_IMAGE                                       
         1 -14.6426     69.2284    145.7974   1.0939200223e+02   3.6899586686e+01     4.582938     2.271305  75.15  0.008541727    3.986    0.749
         2 -13.6341    193.3399     39.9684   5.1398839842e+01   3.1760826659e+01     1.109355     1.026448  59.29  0.003422969    1.116    0.104
         3 -14.2271    202.6186     33.4965   4.8314470860e+01   3.0258387289e+01     2.023021     1.352886  15.34  0.009085268    2.347    0.574
         4 -14.3081    216.8940     18.0464   4.2590798892e+01   2.8591592732e+01     1.650717     1.186285  34.80  0.005671307    1.857    0.462
         5 -12.9661      3.0666      7.5678   9.8217640926e+01   7.3221101534e+01     1.301953    0.3121088 -45.25  0.006007497    2.815    0.645
         6  -9.5351     58.6601      7.2844   7.0893482728e+01   6.6716848877e+01    0.1054701   0.09994487 -59.35 0.0004443053    1.633    0.388
         7 -11.9373    244.9021      2.5218   3.6536463064e+01   2.3760254946e+01    0.8144192    0.2812856  79.71  0.003389876    2.969    0.663
         8  -9.4876     54.3408      4.7122   7.1274426757e+01   6.7715612165e+01      0.10354   0.09832361 -52.94  0.000230134    1.642    0.391
         9 -10.9825     43.0931      3.8492   7.5558573866e+01   6.9530162388e+01    0.2137529    0.1610744  43.62  0.001000276    1.701    0.412
        10  -9.0941     61.3791      1.2870   6.6813875647e+01   6.6898241958e+01     0.133189   0.07663462  20.95 0.0007015674    1.731    0.422
        11 -10.5284    189.8498     15.2758   4.4837741405e+01   3.5660665328e+01    0.2420829    0.1763583 -46.03 0.0008172246    1.371    0.270
        12 -15.5615     81.3854    247.1829   1.1848495462e+02   1.4055705564e+01     8.283461     2.622692  32.73   0.02438802    5.623    0.822
        13 -15.8567      4.1242    182.1784   1.2811500313e+02   3.5656910665e+01     6.967683     0.860541 -72.59   0.02450729    4.886    0.795
        14 -11.2588     73.7053    188.2958   1.1415800811e+02   2.6536911689e+01    0.4076616    0.2151501  67.57  0.001688028    2.168    0.539
        15  -8.8827     95.5153    188.5442   1.0941283246e+02   2.3224079136e+01    0.1344564    0.1162591  70.21 0.0001310012    1.007    0.007
        16  -9.7719    148.4274    187.2406   9.7587550876e+01   1.4276764025e+01    0.1854216    0.1353647 -66.69 0.0005907016    1.656    0.396
        17 -12.1593     66.6057    179.7745   1.1471260229e+02   2.9388545519e+01    0.4036046    0.2777469 -42.13  0.002180281    2.019    0.505
        18 -11.9320     71.3098    174.4783   1.1299262597e+02   2.9929888070e+01    0.3220385    0.2515782 -47.54 0.0008689347    1.561    0.359
        19  -9.4299     99.4886    180.8452   1.0743712726e+02   2.4248852734e+01    0.2004064    0.1679273  53.69 0.0006079517    1.121    0.108
        20 -13.4098     40.8709    207.9126   1.2276694886e+02   2.6619107028e+01    0.4412745    0.3744025 -74.99  0.001407227    1.371    0.271
        21 -11.0199    125.4062    173.7072   1.0036126515e+02   2.1315311245e+01    0.3381248    0.1716289  35.00  0.001399366    2.130    0.531
        22 -13.3971     67.8967    160.8467   1.1197100036e+02   3.3529148677e+01    0.4633254    0.3290934 -47.44  0.001131845    1.635    0.388
        23  -9.7675    174.0452    248.5619   1.0183749610e+02  -2.8370275375e-01    0.1863751    0.1660217  72.26  0.001154157    1.461    0.315
        24 -10.2226    193.6908    166.4107   8.3989050448e+01   9.3882886325e+00    0.2697389    0.2512228   4.63 0.0008161309    1.022    0.022
        25 -10.8284     35.6187    166.9575   1.2026976252e+02   3.6018656829e+01    0.1868216    0.1756587   9.18 0.0004399007    1.509    0.337
        26  -9.0481    203.7842    164.0374   8.1469434645e+01   7.8051744562e+00    0.1872063    0.1134983 -37.87 0.0005297907    1.660    0.397
        27 -12.2053     54.2061    147.3828   1.1347913057e+02   3.8467439818e+01    0.4944045    0.3565946 -87.77  0.002810835    1.289    0.224
        28 -10.8545    134.1163    146.3100   9.2990036444e+01   2.5657044138e+01    0.7706349    0.1723716 -51.85  0.001937248    5.083    0.803
        29 -10.1200    174.7788    148.8956   8.4161959344e+01   1.6630486249e+01    0.2777222    0.2153416 -63.45 0.0007812458    1.558    0.358
        30 -10.6340     39.0606    146.5308   1.1718235317e+02   4.0383653873e+01     0.251032    0.1658716 -74.58 0.0006471235    1.273    0.215
        31 -12.0359     29.0420    143.7687   1.1935222934e+02   4.2032079790e+01    0.3606419    0.2475044  32.14  0.002186817    1.732    0.423
        32  -9.9984    103.0559    139.9441   9.9507665428e+01   3.2986873296e+01    0.3973931    0.2708797 -21.20  0.001424542    2.406    0.584
        33 -12.2903     88.7766    142.0317   1.0364782200e+02   3.4889231993e+01    0.2830743    0.2449294 -50.35 0.0004051826    1.210    0.173
        34  -9.8316     84.0443    143.5436   1.0516044343e+02   3.5272860395e+01    0.2591657    0.1872155  59.99 0.0006358816    1.447    0.309
        35 -11.7711     80.4671    164.5614   1.0947403413e+02   3.0875862225e+01    0.3169934    0.3002172 -87.12 0.0004787407    1.145    0.127
        36 -10.1512    100.4860    143.4777   1.0087359838e+02   3.2602152507e+01    0.3013492    0.2464691 -89.35 0.0008394603    1.277    0.217
        37 -11.4036     25.5193    137.3198   1.1949691240e+02   4.3868278753e+01    0.2503159    0.1837986  50.28  0.001433616    1.458    0.314
        38 -10.3402    110.8670    131.5503   9.5684372870e+01   3.3543121709e+01     0.334837    0.2625212   8.29 0.0008716718    1.751    0.429
        39 -10.2064    105.9059    130.6965   9.6816280594e+01   3.4655169473e+01    0.3330729    0.2955301  78.31   0.00121524    1.162    0.140
        40 -12.0522     45.2034    129.4974   1.1323699384e+02   4.3784003105e+01    0.4122561    0.2356527  37.51   0.00214049    1.922    0.480
        41  -9.9925    125.6795    127.2502   9.0823428843e+01   3.1657631324e+01    0.3623908    0.2198737  84.78  0.001132055    3.875    0.742
        42 -11.6883    135.6447    124.9329   8.7719505304e+01   3.0119975930e+01     0.950702    0.1889741 -50.31  0.002076754    6.215    0.839
        43 -10.5984    116.9634    126.3826   9.2900198849e+01   3.3584688076e+01    0.3258003    0.2157551 -60.67  0.001447876    1.589    0.370
        44 -10.1689    160.9829    127.9581   8.2335983103e+01   2.3941175665e+01    0.2559416    0.1988005 -82.73  0.001144684    1.717    0.417
        45  -9.9032    107.6202    119.9599   9.3910850578e+01   3.6857565469e+01    0.2172605    0.2052224  17.39 0.0003709734    1.172    0.146
        46 -12.4848     86.9920    157.6278   1.0680920454e+02   3.1491893894e+01     0.838225    0.4433168 -44.11  0.001765317    2.329    0.571
        47  -9.9872    168.3266    113.3375   7.6941171945e+01   2.5292733464e+01     0.383069    0.2534275 -69.21  0.001294968    2.248    0.555
        48 -10.9928     98.1745    127.8796   9.8293437304e+01   3.6692534352e+01    0.2982284    0.2513697 -22.52 0.0005392778    1.448    0.309
        49 -15.5601     50.2811    199.3806   1.2021136769e+02   2.7252680902e+01     4.192866     1.693267  67.19   0.01762434    3.127    0.680
        50 -10.0901    205.5145    110.1562   6.8495982230e+01   1.7243216428e+01    0.3173677    0.2183856  41.20 0.0008238651    1.549    0.354
        51  -9.8860     47.1422    171.8573   1.1818100039e+02   3.3623949252e+01    0.1990894    0.1451148  75.83 0.0006373813    1.207    0.172
        52 -10.0867    134.5188    102.9439   8.2289456731e+01   3.5200347585e+01    0.2446024    0.1526851 -44.40 0.0008344453    1.571    0.364
        53  -9.6996     91.9217    102.9753   9.4222855214e+01   4.3634274045e+01    0.2138432    0.1998669 -69.45  0.001188334    1.072    0.067
        54 -10.4703    137.2990    170.9522   9.7141865081e+01   1.9681708777e+01    0.2013778    0.1961979 -89.23 0.0007616322    1.060    0.057
        55 -10.6920    241.4935    101.4983   6.0330928531e+01   1.0783068962e+01    0.1427472      0.12811 -32.54 0.0008106359    1.011    0.011
        56  -9.7154    121.7812     98.6213   8.4477687536e+01   3.8884664860e+01    0.2182141    0.1464857  55.39 0.0005895761    1.659    0.397
        57  -9.4193    158.5168     80.5451   6.9945936904e+01   3.4096063453e+01    0.1544338    0.1538642  -8.54 0.0002027591    1.008    0.008
        58  -9.3764     61.9252     71.3327   9.5237065869e+01   5.5357204994e+01     0.183728    0.1669814 -16.57  0.000515154    1.107    0.097
        59  -9.5666     81.9162    194.8625   1.1316763906e+02   2.3951562995e+01    0.1824207    0.1760784  77.59  0.001068552    1.261    0.207
        60 -10.3207     13.4927     59.8848   1.1046549269e+02   6.2591456702e+01    0.1965019    0.1741177 -49.43  0.000398531    1.143    0.125
        61  -9.0819    151.3166    192.6030   9.7888096063e+01   1.2710243584e+01    0.1439434    0.1053552  78.36 0.0006998476    1.866    0.464
        62 -11.2922    169.5937    233.1054   1.0052746656e+02   2.6395368792e+00    0.2568827    0.2067212  81.97  0.001410251    1.780    0.438
        63  -9.9183     76.0765    233.0080   1.1822971703e+02   1.7279673524e+01     0.174531    0.1379501  68.66 0.0004819739    1.049    0.047
        64 -12.5082    210.8434     24.8615   4.4999994218e+01   2.9276907990e+01    0.5525742    0.3794554  49.43  0.001106727    1.618    0.382
        65 -14.1370     44.3003    222.3329   1.2319758965e+02   2.3373080099e+01     1.504501     1.126219  46.82  0.006218617    1.365    0.267
        66 -11.3402    144.3984     49.1581   6.3147427840e+01   4.2968126436e+01    0.5550688    0.3493633 -81.16  0.001313212    2.829    0.647
        67 -11.2941      2.0237     24.8391   1.0562041185e+02   7.0271007096e+01    0.2817785    0.1337391 -47.96 0.0009837216    1.512    0.339
        68 -10.3580     72.1228    230.3428   1.1872618895e+02   1.8308792820e+01    0.2286055    0.1572996  61.00  0.001054355    1.151    0.132
        69 -13.7762     88.7388    228.5949   1.1545345398e+02   1.6293354468e+01     1.491831    0.8615673  65.48   0.00213783    1.690    0.408
        70 -16.3085     11.5522    241.4261   1.2985156960e+02   2.3444041857e+01     2.149961     1.631465  62.13  0.009612209    1.238    0.192
        71 -15.1812      9.0086    207.3901   1.2863348195e+02   3.0062441981e+01     1.413562     1.140517 -71.20  0.004685993    1.500    0.333
        72  -9.8730    155.8611    200.2816   9.8216170405e+01   1.0453997543e+01    0.3537818    0.2250874 -74.65  0.001580878    2.658    0.624
        73 -11.4555    193.0885    192.7723   8.9324309717e+01   4.9200661321e+00    0.7532897    0.4534999 -53.80  0.003549963    2.257    0.557
