#   1 NUMBER                 Running object number                                     
#   2 MAG_AUTO               Kron-like elliptical aperture magnitude                    [mag]
#   3 X_IMAGE                Object position along x                                    [pixel]
#   4 Y_IMAGE                Object position along y                                    [pixel]
#   5 X_WORLD                Barycenter position along world x axis                     [deg]
#   6 Y_WORLD                Barycenter position along world y axis                     [deg]
#   7 A_WORLD                Profile RMS along major axis (world units)                 [deg]
#   8 B_WORLD                Profile RMS along minor axis (world units)                 [deg]
#   9 THETA_WORLD            Position angle (CCW/world-x)                               [deg]
#  10 FWHM_WORLD             FWHM assuming a gaussian core                              [deg]
#  11 ELONGATION             A_IMAGE/B_IMAGE                                           
#  12 ELLIPTICITY            1 - B_IMAGE/A_IMAGE                                       
         1 -12.8323    166.1715     13.1632   6.6551039536e+01   4.1485328055e+01     0.202242      0.15618 -75.75  0.001092155    1.348    0.258
         2 -13.7443    241.2903     10.5653   5.8021739651e+01   2.3117350740e+01    0.3233114    0.1348476 -42.12  0.001538753    2.055    0.513
         3 -12.3121    179.3361      8.6710   6.3516613782e+01   3.8515748689e+01    0.1473557   0.09261987 -67.06 0.0007051993    1.728    0.421
         4 -13.5581    142.0909      6.4067   6.8042921134e+01   4.8320805196e+01     0.346011    0.2281002  59.51  0.001338939    1.299    0.230
         5 -13.9505    150.2975      3.4431   6.5793136968e+01   4.6484516007e+01    0.5642766    0.2526221  49.96  0.002463096    2.031    0.508
         6 -12.1886    125.7685      4.4186   7.0201329751e+01   5.2573171421e+01    0.2017234    0.1036982  53.88  0.000846711    1.622    0.384
         7 -11.3212     71.4925    245.5314   1.3855847631e+02   1.6765274011e+01    0.4189261    0.1296542  53.21  0.001886052    2.747    0.636
         8 -14.8669    248.8856    185.5408   9.5805780429e+01  -3.3519777403e+00      1.03206    0.3180132 -33.89  0.004110866    3.164    0.684
         9 -16.6786    247.3968    224.3346   1.0307974624e+02  -8.0041822258e+00     3.473455    0.9449349 -36.92   0.01428569    4.074    0.755
        10 -14.2920    241.0973    227.4379   1.0466834801e+02  -7.4364374371e+00    0.3841948    0.2716995  19.25 0.0004787024    1.137    0.120
        11 -20.6355    107.5063    191.3586   1.2540105574e+02   2.1545681048e+01     10.23682     6.128817  41.69   0.05176601    1.522    0.343
        12 -11.4887    209.2840    170.7200   9.9954784059e+01   5.9587846826e+00    0.2304769    0.1615697 -38.00 0.0008189229    1.495    0.331
        13 -13.1481    186.6858    167.8405   1.0385023117e+02   1.0953260979e+01    0.4867015    0.4374703 -88.12  0.002387242    1.394    0.282
        14 -11.6748    190.2935    166.3344   1.0280257779e+02   1.0487695015e+01    0.2667604    0.1724835  17.04  0.001163645    2.079    0.519
        15 -13.1007    192.6005    217.8319   1.1184328027e+02   1.6690125376e+00    0.3490149    0.2656747 -39.52   0.00213052    1.561    0.359
        16 -11.7697    202.0084    164.7370   1.0013002030e+02   8.3967778484e+00    0.2315783    0.1979454 -30.76 0.0009114631    1.208    0.172
        17 -11.4188    208.7724    215.2323   1.0836360450e+02  -7.3103180438e-01    0.1700842     0.125439  15.91 0.0002964626    1.280    0.219
        18 -11.5135     54.7027    242.8967   1.4136217413e+02   1.9436431116e+01    0.1961209    0.1722851 -36.85  0.001444552    1.968    0.492
        19 -12.4044    204.4570    211.0834   1.0846119750e+02   5.9667925975e-01    0.2962683    0.1985456 -46.34  0.001143515    1.897    0.473
        20 -11.5377    204.1015    157.2616   9.8141226508e+01   9.2554175815e+00    0.1937868     0.178757  32.84  0.000321964    1.072    0.067
        21 -12.9921    206.7012    206.9823   1.0732595930e+02   8.0157640236e-01    0.2344427    0.2052604  27.61 0.0006662573    1.105    0.095
        22 -11.3655    188.5411    240.8832   1.1616017822e+02  -8.7164627677e-01    0.1432153    0.1183942 -22.52 0.0005657419    1.434    0.302
        23 -12.2018    195.0872    211.3789   1.1029295942e+02   2.1889259386e+00    0.4047484    0.1863667  29.31  0.001648939    2.427    0.588
        24 -13.8715     49.4014    149.0192   1.3339382332e+02   3.9501722160e+01    0.3758858     0.249424 -36.34  0.001203935    2.109    0.526
        25 -12.4485    202.5932    205.5004   1.0784311082e+02   1.7413310837e+00    0.4337947    0.2891046 -58.25  0.001303926    2.420    0.587
        26 -12.4894     24.1497    146.9919   1.3955247816e+02   4.2627443731e+01    0.1824491    0.1595191  73.98 0.0003031166    1.134    0.118
        27 -11.8194     87.1532    248.7732   1.3599770452e+02   1.4023597762e+01    0.3533494    0.1693717  69.57  0.001751387    2.651    0.623
        28 -11.7186    160.5762    141.7938   1.0390019690e+02   2.1472970248e+01    0.2207621    0.1938406  76.19 0.0004079729    1.265    0.210
        29 -11.4304    169.1297    137.1326   1.0090807237e+02   2.0515330055e+01    0.2170423    0.1967266  25.90 0.0002776828    1.125    0.111
        30 -11.7164    146.9605    136.4845   1.0587072313e+02   2.5537540467e+01    0.2112946    0.2017128 -48.72 0.0008038799    1.089    0.082
        31 -12.1644    194.3013    201.9249   1.0880907377e+02   3.7709233771e+00    0.2861682    0.1654067 -47.96 0.0008372352    2.161    0.537
        32 -11.5373    191.2717    200.7015   1.0918513054e+02   4.5146209234e+00    0.2231819    0.1759385  55.69 0.0002214619    1.450    0.311
        33 -11.6352    208.7693    201.6026   1.0597991113e+02   1.2282288485e+00    0.2054987    0.1613034 -10.62 0.0005808645    1.321    0.243
        34 -12.0725    137.8178    133.6497   1.0744368585e+02   2.8106184689e+01    0.3154267    0.2134791 -42.33   0.00084987    1.557    0.358
        35 -11.6839    199.1462    199.2172   1.0738612191e+02   3.3121357426e+00     0.215141    0.1685803 -11.84 0.0007556726    1.380    0.275
        36 -13.2254    219.9947    198.3981   1.0331014390e+02  -2.6978730424e-01    0.2251878    0.1821144 -17.71 0.0005172695    1.245    0.197
        37 -12.2359     48.2399    122.8011   1.2978587099e+02   4.5751077133e+01    0.2351524    0.1891272   7.91 0.0008713427    1.613    0.380
        38 -10.3000     82.5612    247.4724   1.3671824809e+02   1.4896344801e+01    0.1820905   0.09199119  41.73 0.0006034321    1.636    0.389
        39 -14.3552    113.8198    116.7081   1.0966386658e+02   3.6793445742e+01    0.6250346    0.3210669 -61.63  0.002129428    2.532    0.605
        40 -10.8787    181.0805    245.8729   1.1824104849e+02  -3.2769388202e-01    0.1610392    0.1305234  35.94 0.0007802708    1.075    0.069
        41 -12.8203    205.6281    193.1782   1.0503411850e+02   3.0659178896e+00     0.342496    0.3137155  45.84  0.002060327    1.251    0.201
        42 -12.0515    137.5148    119.8889   1.0422841547e+02   3.1118230200e+01    0.2508215    0.2083651  45.82  0.001238665    1.178    0.151
        43 -12.4083    129.0852    117.9253   1.0589510679e+02   3.3367165989e+01    0.5085871    0.2814461 -60.70  0.001262191    2.335    0.572
        44 -13.6778    124.0563    115.8691   1.0670148213e+02   3.4879844247e+01     0.717946    0.5405508  55.67  0.003427095    1.370    0.270
        45 -14.0598     91.4086    115.8070   1.1576151175e+02   4.1178381559e+01    0.6007547    0.2793347 -45.79  0.002381677    2.192    0.544
        46 -11.3080     19.9846    116.2553   1.3700385307e+02   5.0016253730e+01    0.1619725    0.1440557  88.92 0.0005175876    1.112    0.100
        47 -11.5269    174.2533    245.0890   1.1939272503e+02   8.8527552826e-01    0.1795146     0.133101  19.84   0.00114362    1.375    0.273
        48 -12.1684    191.2188    236.6165   1.1503825369e+02  -7.3751707128e-01     0.202982    0.1383085  44.15 0.0009308673    1.330    0.248
        49 -12.7453     79.9435    112.2168   1.1831514733e+02   4.3901946657e+01    0.2330896    0.1945772 -59.16 0.0003046209    1.137    0.121
        50 -11.3142    191.6273    232.8312   1.1439267374e+02  -2.9094137949e-01    0.2800484    0.1902249  27.20  0.001406189    1.288    0.224
        51 -12.4711    150.6599    107.2902   9.7753438038e+01   3.0750790006e+01    0.3018377    0.2349708 -77.10 0.0008151079    1.628    0.386
        52 -12.2790    147.5340    107.5056   9.8563651274e+01   3.1434949261e+01    0.3141856    0.2743889 -61.54  0.001008746    1.219    0.179
        53 -12.4997    116.1962    108.0979   1.0684641726e+02   3.8206724649e+01    0.2229812    0.2078726 -11.71 0.0004006254    1.171    0.146
        54 -13.3398     96.9914    108.0914   1.1229575434e+02   4.1937275042e+01    0.3378888    0.2190754  30.88  0.001159161    1.747    0.428
        55 -12.3323     43.2678    233.2970   1.4274687413e+02   2.2574029445e+01    0.3542715    0.1530453  84.65   0.00180287    2.656    0.623
        56 -13.0714     38.0227    233.9257   1.4372584362e+02   2.3082904169e+01    0.3060449    0.1814951 -83.47  0.001523487    1.585    0.369
        57 -12.3669     80.6648    103.1023   1.1596355449e+02   4.5868522939e+01    0.2019129    0.1762249 -52.99 0.0004675802    1.088    0.081
        58 -12.4077    144.4321    103.1101   9.8142974502e+01   3.3046541293e+01    0.2826806     0.223352  57.65 0.0003912635    1.287    0.223
        59 -12.7096    143.0359     96.0784   9.6550756414e+01   3.4782319599e+01    0.3700058    0.3226887  11.35  0.001794206    1.312    0.238
        60 -12.0914    222.1322    233.3874   1.0893669952e+02  -5.2669171883e+00    0.2541552     0.203818 -54.38  0.001639199    2.051    0.512
        61 -12.3441    176.6087    234.3695   1.1744240195e+02   1.9988023870e+00    0.5004131    0.1843974  44.23  0.002207572    2.266    0.559
        62 -12.1312    111.0278     89.2802   1.0314862647e+02   4.3274911536e+01    0.2106178    0.1922063  43.42 0.0003652097    1.098    0.089
        63 -13.1290     90.3618     86.1982   1.0846768293e+02   4.7927113600e+01    0.3728336    0.2926165 -30.47  0.001195914    1.332    0.249
        64 -12.9059     73.2123     88.0299   1.1448862706e+02   5.0397185820e+01    0.3172871    0.2106698  28.93  0.000876284    1.670    0.401
        65 -11.7364    169.4846    243.3357   1.2004079102e+02   1.9078407385e+00    0.1978438    0.1132787  46.09 0.0006518154    1.474    0.322
        66 -12.4428    123.2338     87.0776   9.9094280057e+01   4.1105237749e+01    0.2773743    0.2199239  55.03 0.0002604258    1.293    0.227
        67 -13.4327     97.2472     72.3447   1.0212687853e+02   4.9454069458e+01    0.4742678    0.3858788   6.02  0.001519058    1.402    0.287
        68 -11.2676    186.8732    226.1438   1.1425946291e+02   1.4458577611e+00    0.1621605    0.1255154  19.12 0.0002576711    1.239    0.193
        69 -13.1206    213.6392    181.0224   1.0118909533e+02   3.4801133558e+00    0.3740205    0.1799644  38.50  0.001083359    1.953    0.488
        70 -11.0798    185.2322    234.6764   1.1586416646e+02   5.1578363471e-01    0.1067179    0.0916858  64.68 0.0001528625    1.513    0.339
        71 -11.8797    193.8777    175.9655   1.0402700180e+02   8.0944313694e+00    0.2067695    0.1876027  26.42 0.0003563692    1.019    0.019
        72 -11.9149    212.3547    174.2495   1.0008569423e+02   4.7955796822e+00    0.2306871    0.1935169   0.25 0.0008611428    1.169    0.144
        73 -11.2255    159.3052    247.2908   1.2246014817e+02   3.0112265773e+00    0.2478402    0.1359702 -46.56  0.001396973    2.348    0.574
        74 -11.6865     68.4206    247.9858   1.3929864326e+02   1.6760706773e+01    0.2416629     0.112395  49.66  0.001400054    1.607    0.378
        75 -11.1582     74.7018    245.1378   1.3794755287e+02   1.6392733097e+01    0.3071739     0.157373 -89.42  0.001676639    2.422    0.587
