#   1 NUMBER                 Running object number                                     
#   2 MAG_AUTO               Kron-like elliptical aperture magnitude                    [mag]
#   3 X_IMAGE                Object position along x                                    [pixel]
#   4 Y_IMAGE                Object position along y                                    [pixel]
#   5 X_WORLD                Barycenter position along world x axis                     [deg]
#   6 Y_WORLD                Barycenter position along world y axis                     [deg]
#   7 A_WORLD                Profile RMS along major axis (world units)                 [deg]
#   8 B_WORLD                Profile RMS along minor axis (world units)                 [deg]
#   9 THETA_WORLD            Position angle (CCW/world-x)                               [deg]
#  10 FWHM_WORLD             FWHM assuming a gaussian core                              [deg]
#  11 ELONGATION             A_IMAGE/B_IMAGE                                           
#  12 ELLIPTICITY            1 - B_IMAGE/A_IMAGE                                       
         1 -11.6618     27.0646     54.4048   9.2662719484e+01   6.3438162850e+01     1.176453    0.7029701 -16.71  0.003101998    1.771    0.435
         2 -10.9832    131.7169     34.8367   4.9602332390e+01   4.7770411267e+01      0.71825    0.4238594 -12.27  0.003239445    2.379    0.580
         3 -12.8568     62.0283     44.2779   7.3819277343e+01   6.0850842813e+01    0.4470492    0.4191064   7.66 0.0006507284    1.192    0.161
         4 -10.4012     75.2890     27.4772   6.2143786869e+01   6.0965179055e+01    0.4817505    0.3483132 -44.02  0.002722345    1.734    0.423
         5 -11.6967     14.4514     38.4270   9.3523657833e+01   6.7577951095e+01    0.7833251     0.647642  74.69  0.002250339    2.120    0.528
         6 -12.4467    107.5400     29.2108   5.3255633473e+01   5.4033955745e+01    0.5272636    0.3813732  33.08  0.002575855    1.362    0.266
         7  -9.8133     26.5636     21.3936   8.0422080880e+01   6.9315193180e+01    0.3735819    0.2240652 -20.26  0.001904582    1.539    0.350
         8 -10.4864     30.8302     27.7009   8.1001789727e+01   6.7852790778e+01    0.6448396    0.3674954 -18.90  0.003511384    1.787    0.441
         9  -9.2785      6.8102      8.5664   8.5631603199e+01   7.3173102804e+01    0.2259387    0.1673556  18.30  0.001597667    1.443    0.307
        10 -11.4335     19.1250     28.4378   8.7345397085e+01   6.8954466965e+01    0.4627903    0.1998544 -48.36 0.0006859438    2.238    0.553
        11 -10.7356     15.5432     18.7439   8.5204245356e+01   7.0857847760e+01    0.4890934     0.293388   4.22  0.002253348    1.581    0.368
        12 -10.2167     23.0954      1.9084   7.2673630500e+01   7.2352446250e+01    0.2016838    0.1533855  17.42 0.0004126189    1.201    0.167
        13 -11.5390      7.2551     15.2617   8.8454159686e+01   7.2116066222e+01    0.5060349    0.3443172   7.66  0.001769892    1.347    0.258
        14 -11.9295     14.0467     11.1623   8.2551679388e+01   7.2138880238e+01    0.3032005     0.208545  -3.76 0.0003073915    1.188    0.158
        15 -11.0101     24.9341      6.8493   7.4282427464e+01   7.1521523399e+01    0.4330159     0.178358 -43.19  0.002070323    3.186    0.686
        16 -11.9016     20.7402      6.4794   7.6386686006e+01   7.2069346233e+01    0.3882211    0.2646551 -19.95  0.001532128    1.263    0.208
        17  -9.4775    184.8181     13.3867   3.5337507365e+01   3.7546913347e+01     0.348547    0.1735089 -43.69  0.001775541    1.960    0.490
        18 -11.4110    175.0606     22.7436   3.8876097285e+01   3.8823328618e+01    0.5444984     0.379346  55.43  0.003087109    1.428    0.300
        19 -10.7801    182.2404     18.3862   3.6874602518e+01   3.7616036467e+01    0.3240924    0.2317957  60.59 0.0005017833    1.358    0.264
        20  -9.5495     73.4003     14.5314   5.7328109452e+01   6.2832353241e+01    0.6301002    0.2649675  34.63  0.001108903    2.451    0.592
        21 -10.2510     79.0413     11.9485   5.4437498318e+01   6.1978105445e+01    0.2304657    0.1812811   8.22 0.0004429751    1.263    0.208
        22 -11.5746     61.8818     17.0636   6.2511447465e+01   6.4696411797e+01    0.5329313     0.296877  27.76 0.0004235398    1.751    0.429
        23 -10.9298    117.0167     15.5966   4.6248417880e+01   5.3346839452e+01    0.2872884    0.2679473  43.94 0.0003380589    1.083    0.077
        24  -9.7612    219.0248     11.7757   3.1750474683e+01   3.0089397353e+01    0.3587773    0.1475637 -50.84  0.001781719    2.152    0.535
        25  -9.7458    212.2430      9.9939   3.1929079731e+01   3.1740154023e+01    0.3220571    0.1974021  79.98  0.001806784    1.452    0.311
        26 -10.9703    208.6554      4.3619   3.0999407930e+01   3.3102095790e+01    0.4687112    0.3202067 -45.31  0.002028594    1.419    0.296
        27 -11.0146    218.3508     18.6539   3.3278378118e+01   2.9468817617e+01    0.4450021    0.2727779 -67.32  0.001765231    1.491    0.329
        28 -10.1721    211.8950     16.0851   3.3292522894e+01   3.1155582241e+01    0.4315553    0.1773959 -55.82  0.001534236    2.408    0.585
        29 -10.3016     41.2819     21.8019   7.3348541428e+01   6.7386007078e+01     0.253547    0.2289743 -24.77 0.0004869382    1.398    0.285
        30 -10.5734     14.9820      4.5288   7.8671383357e+01   7.2960504815e+01    0.4548185    0.2175615 -20.13  0.002236105    2.164    0.538
        31 -10.1667    165.8744      8.9153   3.6365891561e+01   4.2426062962e+01    0.7871491    0.1847969 -34.96  0.002980794    3.759    0.734
        32  -9.9034    199.7562     18.4461   3.4986024807e+01   3.3587644842e+01    0.3110374    0.2466061 -39.37  0.001984837    1.359    0.264
        33 -10.5245    145.6387     12.3507   4.0095742253e+01   4.6910121354e+01    0.5102144    0.2252629  63.62   0.00234092    1.895    0.472
        34 -11.4997    229.6452     14.5643   3.1486663622e+01   2.7550155016e+01    0.4290212    0.3174132 -82.48  0.001359202    1.139    0.122
        35 -11.8643    243.9823     13.7523   3.0272204977e+01   2.4746897021e+01    0.8047584    0.5648322 -25.59  0.005198603    1.879    0.468
        36 -10.7255    250.0029      1.5482   2.7591805354e+01   2.4908797359e+01    0.2412129    0.1744019  83.18 0.0003664562    1.324    0.245
        37 -10.8358     42.6664     15.4402   6.9756775064e+01   6.8030499815e+01    0.3104278    0.1929173  32.32  0.001852858    1.455    0.313
        38  -9.8873     43.1365      9.7507   6.6794344716e+01   6.8646139183e+01    0.3241697     0.196892   2.86  0.001650943    1.747    0.428
        39 -10.6924    175.5884     12.9588   3.6268664127e+01   3.9741778305e+01    0.5480062    0.2951182  74.27  0.002362747    1.657    0.397
        40 -10.9269    133.1499     12.7285   4.2235591651e+01   4.9842840899e+01    0.2085221    0.2005693  52.13 0.0002505504    1.124    0.110
        41  -9.8272    106.9577      6.2590   4.5048518887e+01   5.6488566300e+01    0.4007829    0.3146443  67.07  0.001321441    1.210    0.173
        42  -8.9935     97.4946      7.0242   4.7464823578e+01   5.8531293484e+01    0.2330179    0.1407427   9.85 0.0008675204    2.094    0.522
        43  -9.0742     89.7587     13.2058   5.1863772848e+01   5.9638064784e+01    0.2976878    0.1807021  54.91  0.001243312    1.473    0.321
        44 -10.5625     90.2320      1.9580   4.7235980572e+01   6.0523375738e+01    0.4254991     0.188884  61.36  0.001428472    2.033    0.508
        45  -8.9694     90.4714      9.0270   5.0003997279e+01   5.9876875462e+01    0.2718322    0.1694426  23.69 0.0009655209    1.731    0.422
        46  -9.6657     87.5104      5.9677   4.9549995772e+01   6.0774702713e+01    0.2695204     0.193507  68.43  0.001036817    1.528    0.346
        47  -9.6621     31.9695     12.7034   7.3565724939e+01   6.9876793651e+01    0.2911896    0.2081504  39.31  0.001866006    1.697    0.411
        48  -8.6233     51.5467     12.5852   6.4536987920e+01   6.6981416704e+01    0.2348088    0.1110003 -30.20  0.001202353    2.179    0.541
        49 -10.6798    191.8019      8.1497   3.3355022862e+01   3.6478203568e+01    0.4720341    0.2963633 -46.85  0.001411694    1.546    0.353
        50 -10.6028    195.9468      3.3673   3.1854745419e+01   3.6012650900e+01    0.4569602    0.2244809  67.79  0.001344429    1.789    0.441
        51  -9.6292     69.3794     11.6460   5.7411102596e+01   6.3903823819e+01    0.2401945    0.1680228  32.25  0.001121006    1.214    0.176
        52  -9.9976    224.1540      9.7248   3.0915650368e+01   2.9225861411e+01    0.3006241    0.1453131 -40.45   0.00165854    1.886    0.470
        53  -9.6477    127.9467      8.8849   4.1903225679e+01   5.1419819010e+01    0.3359591    0.3000389 -78.49  0.002189731    1.213    0.176
        54  -9.7003     56.0157     10.6133   6.1808368936e+01   6.6444073828e+01    0.2147821    0.1528034  -3.76  0.000628944    1.364    0.267
        55  -8.3434     38.8059     10.7966   6.9299235586e+01   6.9170208702e+01    0.1459386    0.1301505  -9.97  0.001040072    1.344    0.256
        56  -9.6864    119.8760      8.3806   4.3203744357e+01   5.3348831477e+01    0.3710161    0.1774682 -27.27  0.001804185    2.346    0.574
        57  -9.8364    201.1706      8.1856   3.2489544622e+01   3.4365001063e+01    0.2928648    0.2014582 -84.98  0.001803899    1.269    0.212
        58  -9.7093     74.5070      8.0442   5.4161626477e+01   6.3257505155e+01    0.2776667    0.1541824  43.57  0.001222072    1.494    0.331
        59 -10.7819     73.9743      3.0919   5.2158685823e+01   6.3803112446e+01    0.3624266     0.276753   1.61  0.001360632    1.344    0.256
        60  -9.7160     69.5307      2.4247   5.3237922339e+01   6.4735719744e+01    0.2008476    0.1730571  26.35 0.0005185651    1.090    0.082
        61  -8.8017      1.2549      8.4562   8.9051054703e+01   7.3624064831e+01    0.1793642   0.08044387 -45.96 0.0006132823    2.041    0.510
        62  -9.9784    232.1855      6.1382   2.9602282575e+01   2.7947299803e+01    0.2082553    0.1906615 -71.20 0.0007905928    1.282    0.220
        63 -10.8184    236.6840      7.1150   2.9485434443e+01   2.6931464628e+01    0.3141601    0.1911972 -88.99   0.00140425    1.451    0.311
        64 -10.4328    237.0762      3.0810   2.8674611363e+01   2.7280599341e+01    0.3756596    0.2219364  88.92  0.002376563    1.488    0.328
        65 -10.0505     61.7791      6.6194   5.7779518465e+01   6.5822841103e+01    0.3496812    0.2247621  57.87  0.001990419    1.831    0.454
        66 -10.0945    153.1775      5.1324   3.6930298950e+01   4.5777543585e+01    0.2512091    0.2080504  34.43 0.0008414349    1.412    0.292
        67  -9.5725     39.2958      4.8011   6.6057133050e+01   6.9785083280e+01    0.2894208    0.2291065  40.69  0.001860982    1.495    0.331
        68 -10.8961    159.8666      2.8268   3.5448249464e+01   4.4398030480e+01    0.3929834    0.2538217  73.76  0.001323254    1.314    0.239
        69 -10.0263    248.0064      4.7621   2.8305209768e+01   2.4951182058e+01    0.2632337    0.1437275  84.25  0.000724136    1.673    0.402
        70 -10.5989     30.8666      3.1092   6.9238875184e+01   7.1192245927e+01    0.2292844    0.1685389 -32.90 0.0006922537    1.649    0.393
        71 -10.6059    217.5152      2.4659   2.9907105401e+01   3.1384934513e+01    0.3610287    0.2061306  85.33  0.001766557    1.541    0.351
        72  -8.7596    145.3861      3.6819   3.7565247749e+01   4.7748482816e+01    0.2982431    0.1449647  85.14  0.001333695    2.351    0.575
        73 -11.3790    179.6587      2.0888   3.3084335597e+01   3.9841861433e+01    0.2735919    0.1727411  74.40 0.0005624148    1.349    0.259
        74  -9.3958    127.4248      1.8295   3.9702537384e+01   5.2131857193e+01    0.3020194    0.1516421  46.74  0.001122658    1.851    0.460
        75  -8.7313     69.2467      6.9820   5.5378724685e+01   6.4384098531e+01    0.1600966    0.1345266   8.97 0.0002316645    1.144    0.126
        76  -7.8672    167.1915      1.5590   3.4262998321e+01   4.2787811724e+01    0.2993641     0.139263  74.11  0.001468119    1.856    0.461
        77  -8.9274    135.8326      1.7423   3.8360081183e+01   5.0165025428e+01    0.1927608    0.1496458  52.95   0.00086822    1.187    0.158
        78  -9.9846    115.8234      1.9317   4.1752839341e+01   5.4816096935e+01     0.195581    0.1539914  60.10 0.0003527266    1.066    0.062
        79  -8.2524     82.4551      2.4350   4.9445237187e+01   6.2129200402e+01    0.1248352    0.1011136  39.44 0.0001365779    1.007    0.007
        80  -9.7466     55.8673      1.5081   5.7510996760e+01   6.7370062989e+01    0.1723023    0.1163427  32.04  0.001079606    1.205    0.170
        81  -8.9568     49.9879      1.7914   5.9924592453e+01   6.8369499536e+01    0.1651799    0.1247209  29.71 0.0002162131    1.099    0.090
        82  -8.3432      2.7537      2.6764   8.5269766196e+01   7.4358822066e+01    0.1118852   0.06199126 -18.96 0.0003060064    1.532    0.347
        83  -9.1129    227.7608      1.4421   2.8970267959e+01   2.9343496713e+01    0.2200696   0.08361163  67.33  0.001106085    2.418    0.586
        84 -11.1216     97.7885     12.8287   4.9621530755e+01   5.7943908071e+01    0.5036002    0.2512287  49.33 0.0009572466    1.665    0.399
        85 -10.8876     21.7762    120.3780   1.0922961167e+02   4.8648389267e+01    0.4346303    0.3467355  84.72 0.0002395359    1.308    0.236
        86  -9.4697    201.5538    249.6671   8.4496617984e+01  -5.8078202264e+00    0.2181116    0.1535146  17.72 0.0005496989    1.181    0.153
        87  -9.8675     17.3151    116.6662   1.1013569823e+02   4.9901628428e+01    0.3002597    0.2155144  85.64  0.001191899    1.487    0.328
        88  -9.4312    236.9503    121.2760   5.3469110822e+01   1.0297185196e+01    0.1870488    0.1741844 -35.45  0.001178477    1.088    0.081
        89  -8.4298    123.8142    121.1352   7.7209942578e+01   3.3678183162e+01    0.2059645    0.1816525  -8.28 0.0003066733    1.252    0.201
        90 -10.1135     61.8027    120.4460   9.6073018846e+01   4.4465964860e+01    0.2575983    0.2274618 -56.26 0.0002922124    1.046    0.044
        91  -9.4186     62.6317    115.6837   9.4778864414e+01   4.5543532573e+01    0.3368197    0.2076936 -80.42  0.000849133    2.248    0.555
        92 -10.3468     62.8992    110.7936   9.3595462730e+01   4.6713852996e+01     0.289146    0.2208952 -50.67 0.0002168778    1.199    0.166
        93  -9.4545     93.5854    119.1284   8.5584144634e+01   3.9900670806e+01    0.2958248     0.235646 -13.24  0.001405248    1.493    0.330
        94  -9.8583     43.8718    119.4413   1.0180555934e+02   4.6858807430e+01    0.3453913    0.2170704  43.34  0.001153396    1.789    0.441
        95  -9.9453      3.6265    117.4131   1.1464746779e+02   5.0572451153e+01    0.3556426     0.212798 -67.75  0.001984027    1.331    0.249
        96  -9.5918     67.6232    118.3536   9.3711049778e+01   4.4195151157e+01    0.2199501    0.1699623  73.47 0.0006126896    1.631    0.387
        97  -9.5103     70.1821    115.8435   9.2306336073e+01   4.4451971996e+01    0.3236457     0.214734  63.51  0.001153643    2.103    0.525
        98  -9.6598     48.0180    115.5909   9.9675281468e+01   4.7369022951e+01    0.4104819    0.2082994  43.21  0.001092838    2.264    0.558
        99  -9.2383     48.7387    111.9155   9.8684440775e+01   4.8201701530e+01    0.3285218     0.176288 -55.16  0.000789358    1.625    0.385
       100  -8.9967     80.7588    115.6277   8.8799317967e+01   4.2896044346e+01    0.2106938    0.1367848  44.53 0.0005996856    1.667    0.400
       101  -8.2773     76.2885    114.6353   9.0018016386e+01   4.3838025736e+01    0.1513259    0.1171713  82.60 0.0007024037    1.699    0.411
       102  -9.8344     31.9652    112.2949   1.0451388870e+02   4.9814967237e+01      0.33965    0.2376515  62.37  0.001770288    1.775    0.437
       103  -9.6310     20.6638    112.8941   1.0845009404e+02   5.0592994568e+01    0.1880647    0.1503356 -67.77 0.0007222248    1.087    0.080
       104  -8.1497     40.6128    112.2409   1.0154022296e+02   4.8999044009e+01    0.1359728    0.1000522  58.69 0.0006929102    1.650    0.394
       105  -8.9578    121.0761    111.3320   7.5442233052e+01   3.6472810724e+01    0.2175162    0.2008494  44.82 0.0004534435    1.105    0.095
       106  -8.2546      3.3795    102.1870   1.1273605285e+02   5.4281188658e+01    0.5917401    0.1760011 -77.46  0.002055235    3.739    0.733
       107 -10.3992      3.7274    110.0321   1.1368582773e+02   5.2367357252e+01    0.3495332    0.2633958  80.16  0.002109681    1.416    0.294
       108 -10.2239      7.5427    108.5547   1.1221569421e+02   5.2518047218e+01    0.3963786    0.1823066 -62.15 0.0009647033    1.678    0.404
       109 -10.3866     50.4054    101.5777   9.5846341319e+01   5.0537445528e+01    0.4178788    0.3363413  84.98  0.002235237    1.559    0.358
       110 -10.7088     41.8211     99.2905   9.8434847603e+01   5.2044056629e+01    0.6999323    0.2202017  37.55  0.002345855    3.492    0.714
       111  -8.7616     43.6678    107.8357   9.9599754551e+01   4.9769043639e+01    0.3572591    0.1335772 -71.75  0.001094571    4.078    0.755
       112  -9.9154     20.6705    108.1299   1.0767695179e+02   5.1766655581e+01    0.3655176     0.243944 -41.09  0.002018892    1.428    0.300
       113  -8.7584     20.4637    104.0083   1.0705230375e+02   5.2790073547e+01    0.2158403    0.1553026 -42.60  0.000684057    1.281    0.219
       114 -10.0169    116.5793    107.9805   7.5827266676e+01   3.8146013335e+01    0.3908792    0.2760934 -14.15  0.001643368    1.957    0.489
       115  -9.4024     57.9648    108.0625   9.4665861610e+01   4.8032601918e+01    0.2109982    0.1932232 -39.66 0.0003559838    1.027    0.026
       116 -10.1528     36.1880    107.9339   1.0223974797e+02   5.0502140407e+01    0.3256248     0.240801 -23.38  0.001771265    1.487    0.328
       117 -10.3597     34.5175    103.4243   1.0194339337e+02   5.1765269982e+01    0.4313963    0.2268344  35.25  0.001339915    2.118    0.528
       118  -8.2990     69.3399    107.3013   9.0581847204e+01   4.6659520045e+01    0.2217826     0.136463 -41.24 0.0009941038    1.592    0.372
       119  -9.4241     71.4774    104.4437   8.9149216811e+01   4.7029744701e+01    0.3382327    0.1778441  40.90  0.001295299    2.049    0.512
       120 -10.0391     91.2402    104.5153   8.2611069118e+01   4.3780075550e+01    0.5976327    0.4389949  57.40  0.002618014    1.652    0.395
       121 -10.4069     62.6024    104.8562   9.2309002347e+01   4.8197953821e+01    0.3410859    0.2609596  -0.02 0.0007902325    1.523    0.343
       122 -11.4674    102.0254    101.9826   7.8530505403e+01   4.2371526681e+01    0.5286472    0.4934011 -29.04  0.000504207    1.044    0.042
       123 -10.9645    110.4478     99.5675   7.5312142401e+01   4.1254240713e+01    0.7445871    0.5026383  57.46  0.002474677    1.778    0.438
       124  -8.9275     83.8632    105.1914   8.5186540279e+01   4.4891512118e+01    0.2027747    0.1662775 -24.67 0.0002561667    1.278    0.217
       125  -9.6583    132.2623    103.9372   7.0396367775e+01   3.5731025056e+01    0.2834247    0.2206491  37.75 0.0002276144    1.316    0.240
       126  -9.4321     80.3904     94.9497   8.3602358320e+01   4.7835554888e+01    0.3417401    0.2661886  77.71  0.001625448    1.846    0.458
       127  -8.8091     80.5666    101.5647   8.5331175843e+01   4.6285545190e+01    0.2324968    0.2078551 -83.47 7.047461e-05    1.311    0.237
       128  -9.5451     79.0163     99.0000   8.5171664069e+01   4.7133559343e+01    0.2601504    0.2096919  18.32 0.0008843564    1.324    0.245
       129 -10.1058     56.8600    100.2344   9.3220114689e+01   5.0065742299e+01    0.3221605    0.2015276 -54.44  0.001543551    1.464    0.317
       130  -9.6355      2.0847     92.3330   1.1173786713e+02   5.6689917563e+01     0.271259    0.2128236  52.34 0.0003820576    1.571    0.363
       131  -9.3800     16.6347     99.2211   1.0758957974e+02   5.4218858153e+01    0.3156123    0.1952568 -37.57  0.001108446    1.562    0.360
       132  -8.9442     20.5121     98.5470   1.0606574524e+02   5.4109938616e+01    0.1797607    0.1480824  79.95   0.00055049    1.414    0.293
       133  -9.7804     13.3972     96.1119   1.0822581548e+02   5.5175205998e+01    0.3092847    0.1900737 -35.57 0.0007348973    1.593    0.372
       134  -9.7547      2.5262     86.3830   1.1061834213e+02   5.8062842031e+01    0.4384054    0.1013005 -54.02  0.001754967    2.698    0.629
       135 -10.3464      2.4040     80.4383   1.0964089161e+02   5.9440995788e+01    0.3806701    0.2065007 -62.28  0.001477294    1.461    0.315
       136  -9.8603      8.7521     98.3327   1.1027138994e+02   5.4919729732e+01     0.529055    0.2882903  84.19  0.002099609    2.474    0.596
       137  -8.9664      3.8472     98.0418   1.1197102326e+02   5.5250409529e+01    0.2841296    0.2039011 -51.82  0.001214464    1.165    0.142
       138 -11.3003    117.6641     97.9657   7.2759732012e+01   4.0121235498e+01     0.291636    0.2676209  43.50 0.0003154794    1.104    0.094
       139 -10.6442    125.6391     97.0803   7.0279554939e+01   3.8616453328e+01    0.5406162    0.3175292  22.20  0.001946661    2.714    0.631
       140 -10.3551    137.1310     97.1012   6.7244326407e+01   3.6093650574e+01    0.3392128    0.2969886 -83.10  0.001706341    1.319    0.242
       141  -9.8978    134.9398     91.3400   6.6184603051e+01   3.7749530696e+01    0.3062182    0.2134802 -37.87  0.000173068    1.456    0.313
       142  -9.2105    171.1787     97.0362   5.9367313741e+01   2.8388422754e+01    0.2217609    0.1987466 -13.05            0    1.248    0.199
       143  -8.5552    150.1179     97.1389   6.4059001139e+01   3.3165370436e+01    0.2042779    0.1802621 -85.07 -0.0006383859    1.270    0.213
       144  -9.4383     86.8022     96.4626   8.1869793968e+01   4.6403027564e+01    0.2756776    0.2055346 -44.52 0.0008125054    1.290    0.225
       145  -8.7444    155.2760     95.9528   6.2538358441e+01   3.2226251012e+01    0.2103821    0.2017666 -43.70 0.0005249778    1.035    0.034
       146  -8.8794    130.0638     96.4752   6.8914628916e+01   3.7781974333e+01    0.2288468    0.1515794  44.05 0.0005721237    1.513    0.339
       147 -10.4719     51.5285     82.9437   9.0751837731e+01   5.4744160462e+01    0.3477767    0.2930776  22.61 0.0006546577    1.261    0.207
       148 -10.5523     44.9064     81.5960   9.2962197202e+01   5.5833273891e+01    0.8636287    0.2763152  34.84  0.003209883    3.277    0.695
       149 -11.4543     31.7370     93.4660   1.0089910745e+02   5.4417069663e+01    0.5008907    0.4293094 -14.61  0.001913532    1.216    0.178
       150 -11.3903     29.7305     85.8608   9.9981824381e+01   5.6379554899e+01     1.118531    0.4781322 -32.72  0.003401524    2.787    0.641
       151 -13.1400     52.9222     74.6009   8.7830168033e+01   5.6394514874e+01    0.7075245    0.3895969 -58.30  0.001127672    2.016    0.504
       152 -10.7739     45.1868     68.8540   8.9230194695e+01   5.8571726433e+01     0.355456    0.2076218 -42.60 0.0002815093    1.520    0.342
       153  -9.7889     46.9467     92.7576   9.5026624861e+01   5.3037011374e+01     0.357191    0.1741939 -52.74 0.0009261469    1.784    0.439
       154 -10.5702     42.7076     88.2787   9.5531415599e+01   5.4551894931e+01    0.4770978    0.2371662  27.20  0.001052831    2.164    0.538
       155  -7.9883    106.6243     91.2909   7.4093850938e+01   4.3807963034e+01    0.1542003    0.1223426  79.80  0.000702139    1.732    0.423
       156  -9.5529     52.5561     90.4889   9.2363277205e+01   5.2899027740e+01    0.2497769    0.2260611 -65.34 0.0006501476    1.203    0.168
       157 -10.4250     86.6810     88.3979   7.9609536575e+01   4.8210014330e+01    0.3496276    0.3412169  28.56 0.0007299901    1.102    0.093
       158 -10.1260     71.1108     88.5676   8.5051059989e+01   5.0756523731e+01    0.4464211     0.261516 -58.65  0.000482573    1.903    0.474
       159 -11.2764     79.4681     83.4354   8.0605724289e+01   5.0528134443e+01     0.796569    0.3723677  35.40  0.003204666    2.202    0.546
       160  -9.2553     73.1468     79.8722   8.1773691938e+01   5.2329555245e+01    0.3284716    0.2283339 -22.31 0.0009518565    1.596    0.373
       161  -8.2491     10.3123     90.3264   1.0835741328e+02   5.6733716538e+01     0.180579    0.1278266   3.10  0.001067271    1.641    0.391
       162  -9.3885      6.6631     89.0459   1.0950627541e+02   5.7235812925e+01    0.2056362    0.1820218 -53.51 0.0009116367    1.093    0.085
       163  -9.9602     16.2136     88.0250   1.0568728132e+02   5.6909478229e+01    0.3329651    0.2802042 -67.36  0.001126079    1.159    0.137
       164 -10.4028    118.9606     83.9911   6.8328904824e+01   4.2730168906e+01     0.491818    0.2440623  35.79  0.001842535    2.308    0.567
       165 -11.1319    128.2953     85.5916   6.6256888441e+01   4.0369806803e+01     0.623071    0.3599408  33.19 0.0007183829    2.059    0.514
       166  -8.7273     97.4674     87.0849   7.5696447925e+01   4.6497015407e+01    0.2252743    0.1451407 -44.33 0.0005759164    1.535    0.348
       167  -9.9806     65.4713     85.6902   8.6275921355e+01   5.2244553688e+01    0.2990677    0.2381998 -27.21 0.0009138535    1.219    0.180
       168  -8.6172     58.1821     87.2305   8.9400616475e+01   5.2920288774e+01    0.1769588    0.1644261  68.53 0.0002736562    1.313    0.239
       169  -9.4970    104.2787     85.7049   7.3155210213e+01   4.5446577178e+01    0.2869226    0.2251662  -0.39 0.0002496856    1.526    0.345
       170  -9.7825    155.1454     84.8399   5.9520604962e+01   3.4378490420e+01    0.2334199    0.2249687  35.28 0.0005454603    1.077    0.071
       171 -11.0799    151.9724     80.7578   5.9083107884e+01   3.5867206320e+01    0.6633651    0.3299294  64.45  0.002395362    2.661    0.624
       172  -9.4586    124.0256     84.9797   6.7223508801e+01   4.1432698905e+01    0.2706742    0.2238583  42.50 0.0006735594    1.197    0.164
       173  -8.6301    178.4697     81.4904   5.3874209509e+01   2.9556840495e+01    0.1442493    0.1394708 -68.53 6.916016e-05    1.032    0.031
       174  -9.7308     20.7029     79.6224   1.0215793853e+02   5.8539726668e+01     0.308525    0.1591573 -48.77  0.001562452    1.567    0.362
       175  -9.3808     18.0072     73.4084   1.0184221443e+02   6.0134114258e+01    0.5473121    0.2050697 -61.28   0.00237567    2.309    0.567
       176  -9.7685    111.1993     71.9560   6.6832900725e+01   4.6702097096e+01    0.3711402    0.2466916 -18.63  0.001046805    1.912    0.477
       177  -9.6398    107.5452     80.3673   7.0541272469e+01   4.5859787035e+01    0.3331228    0.2158824  34.67  0.001239721    1.601    0.375
       178  -9.3636    110.7040     77.0525   6.8578947363e+01   4.5846622505e+01    0.2883798    0.2470041  17.34 0.0008020023    1.223    0.182
       179  -9.8537    137.1769     79.0543   6.2062108037e+01   3.9608313479e+01    0.2572424    0.2167974  47.78 0.0006481682    1.166    0.143
       180  -8.5508    123.3175     79.2966   6.5714552002e+01   4.2689143040e+01    0.1525926    0.1179263  10.90 0.0003794473    1.610    0.379
       181  -9.9040    132.9508     82.5152   6.4140682482e+01   3.9921215542e+01    0.3521771    0.2388348 -57.34  0.001197663    1.739    0.425
       182 -10.9203     97.2338     63.9267   6.8431475765e+01   5.1064813067e+01    0.3263985    0.2657776  15.86 0.0002224297    1.276    0.216
       183  -8.6619     12.5548     78.2018   1.0515035810e+02   5.9410854149e+01    0.1790698   0.09176359 -51.44  0.000398353    1.527    0.345
       184 -10.5160    179.9763     74.6119   5.1802818368e+01   3.0384517505e+01    0.3606806    0.2740451  35.95  0.001601738    1.573    0.364
       185  -9.8532    175.0129     75.0349   5.2816166393e+01   3.1470474304e+01    0.2827348    0.2038915  52.62 0.0007620616    1.402    0.287
       186 -10.3074     27.9668     76.3061   9.8408810314e+01   5.8709344123e+01    0.3675173    0.2521916 -36.95  0.001063289    1.280    0.219
       187  -9.8906    184.8605     75.8719   5.1270784411e+01   2.9042792181e+01    0.2008962    0.1950561   2.95 0.0003087521    1.179    0.152
       188 -10.8991    145.4330     71.8310   5.7987810467e+01   3.8984561427e+01    0.5566791    0.2942475 -33.86  0.001458071    2.028    0.507
       189  -9.4145    141.4776     75.4920   5.9977055113e+01   3.9263315487e+01    0.1481975    0.1441248  35.12 0.0001564053    1.038    0.036
       190  -8.6540     68.5285     74.8449   8.1919291127e+01   5.4115147442e+01    0.2041837    0.1327948 -45.22 0.0004876843    1.476    0.323
       191  -9.8819     63.7915     74.3130   8.3532778980e+01   5.4945493175e+01    0.2657153    0.2548822 -20.40  0.001601865    1.125    0.111
       192  -9.8097    173.5233     69.1305   5.1513800808e+01   3.2802318895e+01    0.2744042     0.210285  62.42 0.0005141814    1.291    0.225
       193 -10.6033    170.0361     73.2501   5.3272202924e+01   3.2939283086e+01    0.3141678    0.2935709 -42.94 0.0006899333    1.097    0.088
       194 -10.4574    143.3004     66.8516   5.7001164338e+01   4.0334424170e+01    0.4163093    0.2740038  30.96   0.00185035    1.891    0.471
       195  -9.3384    137.4872     72.6169   6.0077154882e+01   4.0700447193e+01    0.3173476    0.1472296 -38.14  0.001223153    2.208    0.547
       196  -8.3373    199.4948     71.4745   4.7786877023e+01   2.6431953944e+01    0.1371852    0.1291785 -67.03 0.0004599568    1.059    0.055
       197  -9.9092    101.9482     70.3090   6.9067036212e+01   4.8942775375e+01    0.3565193    0.2912672   7.74  0.001339306    1.340    0.254
       198  -8.6974    106.0938     66.2728   6.6498698884e+01   4.8817981821e+01    0.2787287    0.1895017  31.99  0.001315317    1.536    0.349
       199 -11.2938     79.7236     69.9116   7.6280387957e+01   5.3255281161e+01    0.2860819    0.2435281  14.84 0.0003283525    1.148    0.129
       200  -9.7618     83.1287     64.1950   7.3184762976e+01   5.3733787493e+01    0.4754469    0.2679791 -37.39  0.001283151    1.774    0.436
       201  -8.3063    226.4772     70.4116   4.3799881668e+01   2.0769479551e+01    0.1325546    0.1129499 -63.65 1.954727e-05    1.034    0.033
       202  -8.2885    215.5107     70.5321   4.5258790689e+01   2.3062176207e+01    0.1357842    0.1194479 -63.62 0.0002783908    1.004    0.004
       203  -9.0372     36.5080     70.1344   9.3214776651e+01   5.9258810062e+01    0.1951626    0.1692215  -7.27  0.001211372    1.133    0.117
       204  -9.1878     15.0600     64.6650   1.0098573792e+02   6.2252757911e+01     0.529993    0.2272813  -9.99  0.002168187    3.421    0.708
       205  -9.5580      9.4410     69.3969   1.0454577695e+02   6.1567624648e+01      0.34012    0.1801385 -13.56  0.001748095    2.161    0.537
       206 -11.8137      2.3706     66.3311   1.0691315465e+02   6.2605364699e+01    0.3468372    0.2029102 -54.16  0.001194176    1.321    0.243
       207 -10.4265      9.4293     62.3567   1.0291101107e+02   6.3100640148e+01      0.31593    0.2420808 -16.39  0.001033014    1.274    0.215
       208 -10.4814      4.1965     59.6700   1.0461739607e+02   6.3957201608e+01     0.592622    0.2614452 -31.65  0.002957762    2.126    0.530
       209  -9.0412     63.4306     69.3708   8.2114290718e+01   5.6015820447e+01    0.3576815    0.1706542  24.73  0.001452055    2.473    0.596
       210 -11.3594      9.5456     51.8075   1.0011398920e+02   6.5301976461e+01     0.628909    0.3726572  25.43   0.00303918    1.932    0.482
       211 -10.4111     18.3660     47.4227   9.4556173227e+01   6.5560560274e+01    0.4756875    0.3429069 -19.73  0.003011109    1.218    0.179
       212 -10.2643    115.7325    248.4623   1.0188695879e+02   6.7813958443e+00    0.2367103    0.2143253  31.44 0.0008280408    1.103    0.093
       213 -10.5056     26.2647     45.5967   9.0136804524e+01   6.5223596397e+01    0.5331524    0.2061649 -32.34   0.00118502    2.815    0.645
       214 -10.8384     45.4971     48.0359   8.2162160984e+01   6.2609538322e+01      0.55763    0.3582377  13.86 0.0006716046    1.611    0.379
       215  -9.6882     32.2782     48.0223   8.8136840442e+01   6.4164694806e+01    0.2828197    0.2160055  52.85  0.001214587    2.028    0.507
       216 -10.6100     37.9316     47.0408   8.5184732343e+01   6.3721629802e+01    0.7260167     0.349925   0.14  0.002624006    4.110    0.757
       217 -11.4415     32.4309     64.1102   9.3215213658e+01   6.0944398640e+01    0.5578988    0.2578393 -52.96   0.00159424    1.929    0.482
       218 -11.1041     28.0942     63.6404   9.4971120490e+01   6.1449721948e+01    0.5982071     0.354648 -51.13  0.001769468    1.475    0.322
       219  -9.7322    120.4476     67.6769   6.2893418458e+01   4.5451832409e+01    0.4877249    0.2935839  51.78  0.002178065    1.643    0.391
       220 -11.0912    142.0394     59.7852   5.5165199859e+01   4.1784010906e+01    0.3044871    0.2527469  30.34 0.0002868295    1.318    0.241
       221  -9.7626    136.4560     55.2504   5.5026379765e+01   4.3809697639e+01    0.3638266    0.2303531 -27.24   0.00169154    1.786    0.440
       222  -9.9588    131.4001     58.4561   5.7202277751e+01   4.4493198487e+01    0.5604054    0.2841372  59.15  0.002294629    2.056    0.514
       223  -9.2450     75.1221     65.7577   7.6552757517e+01   5.4854864598e+01    0.2647764    0.1962624 -46.65 0.0008675179    1.420    0.296
       224  -8.8728     77.2930     62.0704   7.4517647010e+01   5.5173599564e+01    0.2167821    0.1772594  -4.22 0.0004149528    1.226    0.184
       225 -10.8624     89.9470     74.0289   7.4110368505e+01   5.0589036804e+01    0.6063584    0.3633202 -35.35  0.001876105    1.704    0.413
       226  -8.3677    203.1912     63.3500   4.5270054271e+01   2.6874722278e+01    0.1807202    0.1226681  78.62 0.0002758441    1.579    0.367
       227  -8.4159    110.2443     62.9209   6.4188387781e+01   4.8519612564e+01    0.1802823    0.1227405 -38.81 0.0008572192    1.518    0.341
       228  -9.0447     65.5416     62.2759   7.8958444367e+01   5.7089082943e+01    0.2940052    0.2379375 -82.64  0.001527547    1.994    0.498
       229  -9.2477    194.0056     61.3084   4.6104990050e+01   2.9266754972e+01    0.3380879    0.1869014 -38.42   0.00155279    1.757    0.431
       230  -9.8120     54.0275     61.1233   8.3133723791e+01   5.9008256215e+01    0.2323879    0.1829213 -39.79 0.0004415308    1.219    0.180
       231  -8.4204     51.6867     57.6620   8.2926340093e+01   5.9997620773e+01    0.1903723    0.1523805 -25.05 0.0009736985    1.116    0.104
       232  -9.3154     53.0095     53.5526   8.0941356641e+01   6.0588761394e+01    0.3566366    0.2643153  -7.08  0.002010382    1.344    0.256
       233  -9.3240    161.4248     60.6855   5.1445906402e+01   3.7024126853e+01    0.3293523    0.1940051  31.39  0.001331111    2.532    0.605
       234  -9.4181    151.3084     60.8897   5.3512519974e+01   3.9406842544e+01    0.2856225    0.2058849  48.11 0.0009555957    1.369    0.270
       235  -8.7657    115.0855     60.9341   6.2180455694e+01   4.7798288101e+01    0.2170179    0.1976364  83.48  0.001196288    1.269    0.212
       236 -10.5190    171.3212     59.4452   4.9292824147e+01   3.4857445753e+01    0.3246585    0.2810604 -68.57 0.0006359551    1.147    0.128
       237 -10.0708    167.5269     57.1743   4.9342108543e+01   3.6106516324e+01    0.3775153    0.2148788 -37.77  0.001730201    1.780    0.438
       238 -10.4616     94.4969     70.0115   7.1319207151e+01   5.0490516395e+01    0.4966116    0.4021814 -21.90  0.001521878    1.263    0.208
       239 -10.0122     70.8895     59.9673   7.6137200028e+01   5.6658209341e+01    0.3622465    0.1927726  39.72 0.0007764839    1.900    0.474
       240 -10.2096     40.4927     58.8800   8.8094193471e+01   6.1158785019e+01    0.2487161    0.2082497 -40.12 0.0003137772    1.168    0.144
       241  -9.2367     15.9369     59.9117   9.9358201676e+01   6.3205092225e+01    0.1864926    0.1501208 -35.08 0.0004896175    1.013    0.013
       242  -8.6512    198.9524     58.2247   4.4624910010e+01   2.8602433081e+01    0.1804078    0.1648913 -76.11 0.0002289204    1.031    0.030
       243  -8.7639    181.7201     58.1004   4.7189149500e+01   3.2603912995e+01    0.2005546    0.1742881 -47.34  0.001145321    1.150    0.130
       244  -8.3248    106.6723     57.2676   6.3331831087e+01   5.0240205002e+01      0.13673    0.1144923  86.39 0.0002591634    1.575    0.365
       245  -9.8953     65.0325     56.6715   7.7211944190e+01   5.8217644724e+01    0.3090369    0.2401389  28.00 0.0003121835    1.262    0.208
       246 -10.3154     62.5603     53.0124   7.6869926155e+01   5.9268829829e+01     0.439288    0.3278437  -7.17  0.001960151    1.367    0.268
       247  -8.4793    163.3094     56.3346   4.9871020589e+01   3.7240899604e+01    0.1429004    0.1100265  24.82 0.0007042956    1.676    0.403
       248  -9.7222    146.4455     29.3628   4.5064967784e+01   4.4915114384e+01    0.5368086    0.2744112 -35.39  0.002514141    2.070    0.517
       249 -10.2465    141.7856     33.1101   4.7055760148e+01   4.5585254370e+01    0.4764438    0.3457383   5.24  0.001660293    1.875    0.467
       250 -10.6790    118.0487     52.7015   5.8675888152e+01   4.8457941145e+01    0.3934337    0.2586997 -36.66  0.001919337    1.600    0.375
       251 -11.7246    125.3595     46.5106   5.4817014890e+01   4.7700932471e+01    0.6867703    0.6009839  25.54  0.001895303    1.185    0.156
       252  -9.5965    127.7579     39.7521   5.2054523214e+01   4.8071135917e+01    0.2811137    0.2336488  71.43 0.0009729228    1.230    0.187
       253 -10.0362    136.4737     37.5944   4.9496841185e+01   4.6292724072e+01    0.2929702    0.2336945  65.85 0.0009209704    1.184    0.155
       254  -8.4226    192.3126    248.3287   8.6091727997e+01  -4.3500647241e+00    0.1281318   0.08298206  -0.04 0.0004281345    1.670    0.401
       255  -9.4435     98.7404     55.2610   6.5006655965e+01   5.2243296792e+01    0.2928949    0.1994826 -25.56 0.0009528327    1.580    0.367
       256 -10.0044     86.9363     51.7935   6.7550591594e+01   5.5181874733e+01    0.6139835    0.2151772  49.06   0.00178989    3.067    0.674
       257 -10.2694     93.5202     54.9803   6.6539307375e+01   5.3355066610e+01    0.5094867    0.2877324  43.32  0.001287424    1.691    0.409
       258 -10.1283     92.8437     51.1033   6.5382307575e+01   5.4123592586e+01    0.2444828    0.2268244 -59.47 0.0003499551    1.312    0.238
       259 -10.2169     88.7841     49.1660   6.5991507334e+01   5.5243349391e+01    0.6410457     0.308543 -50.14  0.002511693    2.951    0.661
       260  -9.3952     45.3801     54.9261   8.4657775953e+01   6.1343781927e+01    0.3199715    0.2019901 -13.61  0.001174807    1.782    0.439
       261  -9.3315    241.3312     54.8652   3.8764317216e+01   2.0050430535e+01    0.2328935    0.1520591 -84.90 0.0007837194    1.641    0.391
       262  -9.2610    151.2446     54.9364   5.1782005575e+01   4.0340567469e+01    0.2790745    0.2464809  54.66 0.0009221005    1.094    0.086
       263  -9.7624    145.9948     52.3133   5.2069583213e+01   4.1987093070e+01    0.3249511    0.2526357  73.39  0.001159841    1.328    0.247
       264 -10.8748    153.9259     48.4402   4.9358668413e+01   4.0646552815e+01    0.4825483    0.4007703 -48.09  0.001583939    1.248    0.199
       265  -9.5435     79.7976     54.3879   7.0928921252e+01   5.6093911304e+01    0.4126362    0.2897706  74.37  0.001800247    2.804    0.643
       266  -9.8028     72.0648     51.2985   7.2603195240e+01   5.7999154973e+01    0.3675781      0.33221  -0.05  0.002238059    1.044    0.043
       267  -9.2487     30.5166    247.9935   1.1914233950e+02   1.7946347346e+01    0.1646231    0.1000048 -82.18  0.001031643    1.589    0.370
       268  -9.0124    191.1191     53.8098   4.4652312496e+01   3.1046417772e+01    0.2585166    0.1790543  46.40  0.001334944    1.650    0.394
       269  -9.0993    106.5476     52.8043   6.1847824906e+01   5.0985982284e+01    0.2552385    0.1819571  46.19 0.0002562699    1.324    0.245
       270 -11.0911    174.4313     50.4683   4.6343225879e+01   3.5446394030e+01    0.2863233    0.2635919 -37.96 0.0001364831    1.179    0.152
       271  -9.8780    165.0977     52.0524   4.8352611198e+01   3.7446434881e+01    0.2854829     0.221766 -86.87  0.001509463    1.387    0.279
       272  -9.5671    164.2099     46.6498   4.6998082520e+01   3.8426964970e+01    0.3683348    0.2536426  42.18  0.001373164    1.619    0.382
       273  -8.9353    181.6570     49.8591   4.5047957169e+01   3.3822829606e+01    0.2995777    0.1803685 -21.02  0.001363924    2.228    0.551
       274 -11.1786    134.3009     64.4529   5.8369132720e+01   4.2841828064e+01    0.5758541    0.4287827 -83.01  0.002701256    1.835    0.455
       275  -9.3533    201.9465     47.3270   4.1581066112e+01   2.9487725407e+01    0.2900163    0.1985429  -6.39  0.001392494    2.463    0.594
       276 -10.2298    115.0368     46.3135   5.7315061159e+01   5.0091565263e+01    0.3970374    0.2940407  20.98  0.001466413    1.548    0.354
       277  -9.2173    112.9659     41.1490   5.6081181630e+01   5.1285973454e+01    0.2098001    0.1938607  -9.25 0.0003158491    1.141    0.124
       278  -7.8472    196.6512     48.6752   4.2602656237e+01   3.0504805545e+01    0.1324994    0.1029458  32.03 0.0007049206    1.750    0.429
       279 -10.3656     80.5457     43.7784   6.6758324840e+01   5.7678300561e+01    0.4726998    0.3527527  -9.08  0.002463868    1.421    0.296
       280  -9.3163    234.8034     47.0213   3.7782091174e+01   2.2450890342e+01    0.1893519    0.1556764 -83.97 0.0002899655    1.135    0.119
       281  -9.1704     94.2644     29.9492   5.7127620480e+01   5.6834742592e+01    0.3483167     0.136885  42.64  0.001074282    2.361    0.576
       282 -10.7678     88.3855     32.9918   6.0057193854e+01   5.7668510414e+01    0.4845202    0.4035132  55.76  0.002188523    1.306    0.234
       283 -10.8019     92.7980     43.4471   6.2622424301e+01   5.5309631728e+01    0.7016535    0.3728864 -54.73  0.002254759    3.283    0.695
       284 -10.4680     79.1506     32.7747   6.2966701103e+01   5.9530934707e+01    0.4989876    0.3319031  28.36  0.002506491    1.448    0.310
       285 -10.4224     71.6716     30.1737   6.4523148453e+01   6.1289983972e+01    0.3650189    0.2713013  40.15  0.001534964    1.272    0.214
       286  -9.4453    163.1827    246.3550   9.1674793805e+01   1.3256024601e-01    0.1737485    0.1495146  -0.24 0.0008038779    1.149    0.130
       287 -10.1568    243.8529     43.9508   3.6273532406e+01   2.1050201191e+01    0.3292648    0.2714258  33.06  0.001602462    1.864    0.463
       288  -9.5191    249.1992     41.2055   3.5242817297e+01   2.0369885473e+01    0.1983898    0.1476127 -64.00 0.0007228496    1.095    0.087
       289  -9.6540    179.2843     44.3497   4.3963555401e+01   3.5147487448e+01    0.3627409    0.1946834  83.09 0.0008002259    2.363    0.577
       290  -9.7539    158.6739     42.6905   4.6834803906e+01   4.0297920826e+01    0.4172505    0.1857934 -25.96  0.001643984    2.820    0.645
       291  -9.4843    158.0509     39.2625   4.5960240598e+01   4.0900515422e+01     0.308714    0.2641865  69.86  0.001053202    1.074    0.069
       292 -10.6296    103.1567     43.1131   5.9424726345e+01   5.3175803767e+01    0.6041016    0.2582132  49.16  0.002486781    2.137    0.532
       293 -11.6967    103.7744     38.6881   5.7667600184e+01   5.3658260404e+01    0.4215057    0.2953472  55.63 0.0003472453    1.402    0.287
       294  -8.8636      8.6434     43.8788   9.8246566094e+01   6.6941415525e+01    0.1796452     0.159605 -51.30 0.0004688546    1.299    0.230
       295  -8.3799    219.4903    245.5123   8.0438828916e+01  -7.5780993415e+00    0.1234784   0.09302064   2.73 0.0001345272    1.063    0.059
       296 -10.3217      6.8006     39.4090   9.7794059219e+01   6.7919364308e+01    0.3714344    0.1883777  13.01  0.001671312    2.068    0.516
       297 -10.9768      4.8569     36.1554   9.7765127500e+01   6.8653349544e+01    0.4026918    0.2642278 -45.29   0.00260575    1.253    0.202
       298  -8.0912      4.7575     44.9518   1.0050942186e+02   6.6958633954e+01    0.1422669   0.08176558 -51.70 0.0008278294    1.421    0.297
       299  -8.7859    185.6896     44.1436   4.2979478719e+01   3.3667940092e+01    0.3448068   0.07948983  61.61  0.001100978    3.847    0.740
       300  -9.4065    141.7664     43.3881   5.0222576836e+01   4.4264343300e+01    0.4519193    0.1936344  41.88  0.001691344    2.757    0.637
       301  -8.5219    209.5769     43.5621   3.9757592128e+01   2.8293649997e+01     0.129576    0.1118618 -72.81 4.901273e-05    1.006    0.006
       302 -10.2179     36.0278     41.2653   8.3931937910e+01   6.4982209520e+01    0.3612001    0.2145589   7.14  0.001297476    1.851    0.460
       303 -11.0921     41.0640     38.6823   8.0600209036e+01   6.4813135763e+01    0.4129181    0.2302195  -7.49 0.0008508654    2.421    0.587
       304  -8.4503    191.4969     41.9768   4.1635433915e+01   3.2606817964e+01    0.1907817   0.09187622 -56.25 0.0006138685    2.321    0.569
       305 -10.5791    228.2793     38.6942   3.6660535505e+01   2.4909528918e+01    0.4119935    0.1935549 -35.45  0.001201837    2.078    0.519
       306  -9.6192    222.4526     40.4978   3.7641707849e+01   2.5902792910e+01    0.2264003    0.1878602 -70.78 0.0007672259    1.015    0.014
       307  -8.6769     48.8422     41.2035   7.8114268475e+01   6.3347963122e+01    0.1771556    0.1301808 -10.96 0.0007516521    1.280    0.219
       308  -8.6422    165.7745     39.0660   4.4625481769e+01   3.9069918728e+01    0.1988824     0.141159 -38.68  0.001057495    1.469    0.319
       309  -8.6402    120.4325     38.2492   5.3244213595e+01   4.9972857722e+01    0.2975093    0.1123623 -40.84  0.001128118    2.919    0.657
       310  -8.7648    122.8700     34.1540   5.1303270545e+01   4.9931726086e+01    0.2665505    0.1486936  37.61 0.0007249001    1.949    0.487
       311 -10.6381    178.3741     36.8239   4.2120392325e+01   3.6353969744e+01    0.4414092    0.3086246  81.25  0.001578166    1.397    0.284
       312  -9.3945    238.5490     37.1450   3.5367004359e+01   2.3002016065e+01    0.2230807    0.1432716  54.55  0.001152233    1.901    0.474
       313  -9.6957    209.0843     33.6270   3.7520084005e+01   2.9697935500e+01    0.4555774    0.2001935 -27.78  0.001979615    2.811    0.644
       314  -9.1289    186.0855     36.5239   4.0983940290e+01   3.4577758500e+01    0.2577135    0.1607297 -55.73  0.001183548    1.612    0.380
       315  -8.5493     72.1198     35.7365   6.6614181514e+01   6.0435571774e+01    0.3652056    0.2236174  12.32    0.0017411    2.067    0.516
       316 -10.0362    248.4928     35.5553   3.4184317164e+01   2.1238763184e+01    0.2517053     0.156588  70.70  0.001541168    1.668    0.400
       317 -10.4340    248.6015     30.4080   3.3164128437e+01   2.1866379100e+01    0.3613642    0.2458658 -18.35  0.001732387    2.278    0.561
       318  -9.2457     95.9185     35.7355   5.8823915022e+01   5.5741359689e+01    0.3654196    0.1796137  60.13  0.001519637    2.451    0.592
       319 -10.9550     56.5519     35.3768   7.2507532279e+01   6.3132584821e+01    0.2960623    0.2690088 -49.43   0.00107545    1.503    0.335
       320 -10.6309     50.2134     33.0113   7.4212019009e+01   6.4461907201e+01     0.521009    0.2486773  21.20  0.002266071    2.631    0.620
       321 -10.8095     51.9586     29.0089   7.1770943768e+01   6.4792248558e+01    0.2069515     0.167133  22.70 0.0003157116    1.156    0.135
       322  -9.3069    223.5286     34.5844   3.6242124254e+01   2.6440190991e+01    0.2175383     0.180083 -64.76 0.0005590233    1.046    0.044
       323  -9.3586    114.4919     35.4789   5.3733133891e+01   5.1692181422e+01    0.3148098    0.1769844  63.47 0.0008766707    1.887    0.470
       324  -9.6564    117.4793     32.9585   5.2143036200e+01   5.1326227929e+01    0.2512919    0.1819297  54.64 0.0003380985    1.250    0.200
       325  -9.3067    100.6752     26.3224   5.3980548230e+01   5.5890964297e+01    0.4385349    0.1561593  54.31  0.001738301    2.480    0.597
       326  -8.5283      1.3784    244.2286   1.2433506827e+02   2.1618134768e+01    0.1501601   0.07918164  80.72 0.0003891201    1.590    0.371
       327 -11.9791    105.1384     21.0201   5.0875663003e+01   5.5495179399e+01    0.2690025    0.2450605 -70.37 0.0003718517    1.327    0.247
       328  -9.5647    202.8250    242.2029   8.3079542630e+01  -4.8865164552e+00    0.1741094    0.1207856   6.74 0.0004659422    1.328    0.247
       329  -8.8307    128.4797    240.7469   9.8219388686e+01   6.3044555045e+00     0.297976   0.06528181  43.62 0.0008957732    4.454    0.775
       330  -9.5278     34.9242     31.5371   8.0602962392e+01   6.6754792460e+01    0.3230196     0.155414  32.57  0.001649607    2.086    0.521
       331  -9.9110     36.9038     26.8687   7.7669235353e+01   6.7238243819e+01    0.4003449    0.2536468 -33.21  0.002371764    1.480    0.324
       332 -10.1428     24.4838     30.4953   8.5378259948e+01   6.8089263192e+01    0.2155834     0.193752 -25.94  0.000874615    1.317    0.241
       333  -9.9813     25.9925     27.2599   8.3267832037e+01   6.8463311619e+01    0.2367362    0.1518329  11.68 0.0005439481    1.471    0.320
       334  -9.2654    160.7435     31.3184   4.3256277399e+01   4.1246104133e+01    0.4256151    0.1488363  52.06  0.001637731    2.692    0.629
       335  -9.5350    153.9433     31.8999   4.4528391952e+01   4.2811248549e+01    0.3197716    0.1901878  51.55 0.0007519143    1.600    0.375
       336  -9.3594     42.8133     30.9039   7.6625618008e+01   6.5838288149e+01    0.3880216    0.1704426 -47.08  0.001139954    2.810    0.644
       337 -10.2482    234.2119     30.3338   3.4350056575e+01   2.4746117724e+01    0.3867033    0.1959673  56.96  0.001890255    2.248    0.555
       338  -8.9918    246.6699    239.3365   7.4535905267e+01  -1.0082329316e+01   0.09627348   0.09292302  -0.93 0.0007052064    1.732    0.423
       339  -8.5848    189.3064    239.6689   8.5343901188e+01  -2.6004764774e+00    0.1143796    0.0988405  56.52 0.0006326602    1.661    0.398
       340  -8.9923    221.7001    237.4229   7.8709743029e+01  -6.7193203776e+00    0.1689991   0.09832891  18.83 0.0009437395    1.596    0.373
       341  -8.9115    139.7487    236.9733   9.5285096413e+01   5.2842350488e+00    0.1728678    0.1604169  28.81 0.0003702273    1.078    0.073
       342  -9.1741     32.0530    232.4784   1.1784944563e+02   2.0908334096e+01    0.1812318    0.1340099  85.69 0.0004989646    1.201    0.167
       343 -10.1678    186.8631    230.8986   8.4430444399e+01  -8.3377626637e-01    0.2104124    0.1590759   1.97   0.00109763    1.271    0.213
       344  -8.9098    177.9172    231.0000   8.6285256851e+01   4.9097934785e-01    0.2201421   0.06648926  35.37 0.0008067062    2.972    0.664
       345  -8.9903    162.5364    225.5345   8.8659084949e+01   3.8217895062e+00    0.3590114    0.2538355 -80.79  0.001702304    2.674    0.626
       346 -10.2518    222.7942     26.4080   3.4547359368e+01   2.7609708191e+01    0.4297493    0.2672289  36.92  0.002168772    2.822    0.646
       347  -8.9282    189.4989     28.9813   3.8658508765e+01   3.4716752077e+01    0.1993053    0.1573073  79.73 0.0004741667    1.146    0.127
       348  -8.6440    124.8174     29.4271   4.9294716637e+01   5.0048889485e+01    0.2695999    0.1261451  63.90   0.00089587    2.114    0.527
       349  -8.8462    208.3198     22.7073   3.5109005743e+01   3.1189487280e+01    0.1763382    0.1372214 -67.53 0.0003679693    1.118    0.106
       350  -9.5826    208.2881     26.6514   3.6008236352e+01   3.0731280496e+01    0.2082852    0.1633225 -68.43 0.0006264255    1.113    0.101
       351 -10.3152    204.9696     24.5792   3.5874586330e+01   3.1715733332e+01    0.3908692    0.2438141 -44.97  0.001742605    1.512    0.339
       352  -9.1583    223.9999    225.0543   7.6190821257e+01  -5.2051127437e+00    0.1920089    0.1531346   1.70 0.0005980541    1.030    0.029
       353  -8.8807    131.8978    225.1712   9.5329657793e+01   8.7346354742e+00    0.2050473    0.1711516  53.06 0.0005126153    1.229    0.186
       354  -8.7276    196.4659    222.4994   8.1081793831e+01  -8.7740814718e-01     0.133259    0.1097435   2.98 -1.37836e-05    1.051    0.048
       355  -8.4363    161.7554     26.4206   4.1723908812e+01   4.1577612343e+01    0.1902651    0.1079841  55.88 0.0005684745    1.625    0.385
       356 -10.9815      2.0671     25.0618   9.5457109606e+01   7.0839355800e+01    0.2406536    0.1529271 -46.23 0.0004614014    1.371    0.270
       357 -10.4257    241.3824     25.1986   3.2709551187e+01   2.3925670813e+01    0.2200522    0.1914152  79.77  0.001451477    1.298    0.229
       358  -9.3699     88.6514    221.0398   1.0456441944e+02   1.6165666445e+01    0.2419787    0.1865156  29.47 0.0006317307    1.331    0.248
       359  -8.0490    203.2662    217.6716   7.8887298861e+01  -1.0924007708e+00    0.1116849    0.1066615 -87.64 0.0002490504    1.574    0.365
       360  -9.2838     70.1913     18.9091   6.0305475612e+01   6.2965153451e+01    0.2991416    0.1590662 -30.43  0.001125881    1.999    0.500
       361 -10.4551     62.3003     22.6797   6.4833016839e+01   6.3944396491e+01    0.5266392    0.3037991  29.99  0.001891677    1.623    0.384
       362  -8.8282    230.7169    209.4151   7.2183603954e+01  -3.7238625331e+00    0.2106998    0.1286848 -16.15 0.0003119622    1.656    0.396
       363  -9.8946     55.0083     18.9974   6.6081132651e+01   6.5646071405e+01    0.2382008      0.15062  31.67  0.001371338    1.395    0.283
       364 -10.3955    153.6550     23.0366   4.1998969379e+01   4.3899346950e+01     0.231837    0.1979731  62.77 0.0003187187    1.084    0.078
       365  -9.3158    124.9650     23.3855   4.7251061676e+01   5.0696216212e+01    0.1907723    0.1415253  58.70 0.0002751732    1.191    0.160
       366  -8.4447    111.9986     14.9989   4.7108362431e+01   5.4556898170e+01    0.2421442    0.1660826  60.28 0.0009027439    1.293    0.227
       367 -12.0015    116.9960     22.2734   4.8566199524e+01   5.2669382631e+01     0.246253    0.2173447  27.63 0.0003347944    1.154    0.134
       368  -8.0108    145.2991    210.3147   9.0011880624e+01   9.5193283739e+00     0.140238    0.1059729  -6.27 0.0002231057    1.609    0.379
       369  -8.4456    242.4611    209.5347   7.0111161185e+01  -5.3352144459e+00    0.1245286   0.09941736 -10.63 0.0001298613    1.023    0.022
       370  -8.5402    123.8616    206.1147   9.4311207605e+01   1.3937386889e+01    0.1782911    0.1584618  -8.88            0    1.260    0.206
       371  -8.2207     95.3202    205.3084   1.0099856524e+02   1.8634587144e+01     0.135111    0.1088894 -17.02 0.0003030775    1.641    0.391
       372  -9.4206     34.7485    200.6731   1.1482067920e+02   2.7616008373e+01    0.3085401    0.1415952  68.73  0.001335428    2.540    0.606
       373  -8.4586    120.1710    199.4192   9.4132964302e+01   1.6002752248e+01    0.2002685    0.1237394  46.89 0.0004375899    1.594    0.373
       374  -9.5410    131.9773     21.1469   4.5139823643e+01   4.9282371608e+01    0.2272422    0.1962908   7.49 0.0008890052    1.345    0.256
       375  -9.8953     84.6066     20.7608   5.6386885619e+01   5.9924692395e+01    0.3235518    0.2440416 -64.57 0.0009107692    2.087    0.521
       376  -8.8177     79.7988     22.0976   5.8432158336e+01   6.0741627716e+01    0.1779907    0.1728479 -83.91  0.001175864    1.355    0.262
       377  -8.2581    178.3217    197.7325   8.0445699281e+01   6.4387890925e+00    0.1306559    0.1112584  64.27 0.0002826343    1.563    0.360
       378  -8.4833      9.6419    196.2839   1.2013415612e+02   3.1060059303e+01    0.1307042   0.07112999  61.67 0.0007019165    1.673    0.402
       379  -8.1788     96.3064    195.6511   9.9390007235e+01   2.0689523360e+01    0.1502141    0.1037987  69.34  0.000520853    1.703    0.413
       380 -10.0890    165.3041     20.6895   3.9627875480e+01   4.1366374984e+01    0.2343245    0.1971405  88.46 0.0002557384    1.078    0.072
       381 -10.2122    166.5075     17.5741   3.8617476058e+01   4.1411364041e+01    0.2495561    0.2034556  73.79  8.29686e-05    1.080    0.074
       382  -8.8085    139.4594     20.2233   4.3494899527e+01   4.7599810645e+01    0.2804185    0.1841396   8.67   0.00139162    2.216    0.549
       383  -9.3486    241.8364    193.8275   6.7327779307e+01  -2.8164047989e+00    0.1540242    0.1430668 -15.36 0.0003989243    1.295    0.228
       384 -10.2213    232.7000     23.6630   3.3105020380e+01   2.5868037221e+01    0.3706288    0.1908579 -86.77  0.001933869    2.059    0.514
       385  -8.5935     32.6813     18.3275   7.5895199216e+01   6.9024610353e+01    0.1566821     0.103188  50.22 0.0005779521    2.593    0.614
       386  -9.4280    145.1109     17.2528   4.1644782046e+01   4.6555164833e+01    0.4055708    0.2337783  43.40  0.002028894    1.836    0.455
       387  -8.6305      6.4868    194.5538   1.2071510773e+02   3.1724446080e+01    0.1198373   0.09833083  87.62 0.0002481091    1.071    0.066
       388  -9.1500    225.7087     16.3294   3.2163495216e+01   2.8171316357e+01    0.2122885    0.1077419 -56.13  0.001056739    1.744    0.427
       389  -8.7760     55.3056    181.0868   1.0777986059e+02   2.9936421096e+01     0.194392      0.15939 -81.95 0.0004484478    1.128    0.113
       390  -8.9535    151.9929     18.2384   4.0862262142e+01   4.4807926887e+01    0.1805973    0.1554704  69.69  0.000404864    1.031    0.030
       391 -10.6299    100.9940    175.9995   9.5082011825e+01   2.4604572827e+01    0.2069519    0.1997922  71.47  0.001161255    1.003    0.003
       392  -9.8930     18.5298    174.2433   1.1635880835e+02   3.5489424076e+01    0.2383479     0.202192 -28.02  0.000786389    1.535    0.348
       393  -8.1945    188.5310     22.5119   3.7173735796e+01   3.5696426821e+01     0.129566    0.1096101 -83.23 6.863062e-05    1.025    0.024
       394 -10.4730      7.4828    166.1046   1.1841240807e+02   3.8361758387e+01    0.3091507    0.2014765 -46.70 0.0006133198    1.741    0.426
       395  -9.9389     11.8118    163.8141   1.1712352504e+02   3.8587603607e+01    0.2121053    0.1456082 -69.54 0.0004184394    1.260    0.206
       396  -9.8797     14.7660    165.9318   1.1655954767e+02   3.7833631638e+01    0.2433264    0.1402179 -29.99  0.001171411    2.617    0.618
       397  -8.6564    154.5308     14.4892   3.9407583634e+01   4.4580555277e+01    0.1300942    0.1126278  78.78 9.978831e-05    1.015    0.015
       398 -11.7218     37.4550    159.6762   1.0987721278e+02   3.7304231155e+01     0.669701    0.4006369  58.84  0.003287216    1.816    0.449
       399 -12.0673     30.6020    154.8289   1.1117907413e+02   3.9203341919e+01     0.639899    0.4731118  69.70  0.002373076    1.373    0.271
       400  -9.9892     24.2536    162.9598   1.1380819734e+02   3.7753369793e+01    0.2846343     0.184566  27.18 0.0005239199    1.753    0.429
       401  -9.2641     20.5428    160.5188   1.1453813695e+02   3.8684998555e+01    0.2107443    0.1727886 -79.69 0.0007319284    1.041    0.039
       402  -9.0879     10.9849    158.6911   1.1687562265e+02   3.9906787781e+01    0.1766705    0.1539854  89.83  0.001161202    1.068    0.063
       403 -10.4238      2.1083    154.9147   1.1885551785e+02   4.1459646140e+01    0.4444288    0.1780029 -75.44  0.002066857    2.015    0.504
       404  -9.3943    249.0133    153.9852   5.8381778394e+01   2.6651867599e+00    0.2089779    0.1431337 -11.69 0.0006349211    1.679    0.405
       405  -9.2585     45.9734    151.4222   1.0638095764e+02   3.8487447901e+01     0.208636    0.1659158 -68.91 0.0004340549    1.130    0.115
       406  -9.8909     19.8498    151.8378   1.1381165042e+02   4.0905734288e+01    0.2578271    0.1745758 -54.64 0.0006934309    1.416    0.294
       407 -11.0195     12.9275    150.6736   1.1558740110e+02   4.1740293435e+01    0.4800046    0.2722532  21.43  0.002533128    2.106    0.525
       408  -9.8123      8.3492    147.8375   1.1655649863e+02   4.2773045425e+01    0.2879816    0.1672677 -15.75  0.001159466    2.606    0.616
       409  -9.7143      3.8525    146.0890   1.1761704208e+02   4.3504788356e+01    0.2524233    0.1863832  56.44 0.0008048838    1.417    0.294
       410  -8.0692     80.2136    144.9976   9.5257954498e+01   3.5629244626e+01    0.1954464    0.1164269 -59.19  0.000445995    1.604    0.376
       411 -10.0720     15.6834    135.4290   1.1312913106e+02   4.5338059791e+01    0.3341107    0.1765913 -65.00  0.001545674    1.544    0.352
       412  -8.6415     22.9978    138.7795   1.1137821273e+02   4.3927001509e+01    0.2187774    0.1357962 -47.00 0.0003680867    1.607    0.378
       413  -9.6896     13.2326    145.0066   1.1491663083e+02   4.3126295441e+01    0.2483819    0.1657798 -63.43 0.0007860276    1.287    0.223
       414  -9.3824     15.7040    142.6709   1.1396215494e+02   4.3525085771e+01    0.1992225    0.1654952 -54.72 0.0005312777    1.199    0.166
       415 -10.7070     19.6522    141.1882   1.1265433027e+02   4.3591368036e+01    0.4684606    0.2076893  42.44  0.001883869    2.428    0.588
       416 -11.0511      2.0521    139.6549   1.1750925547e+02   4.5197920067e+01     0.587589     0.419377  69.62  0.003325765    1.415    0.293
       417 -10.1898      2.8534    125.2288   1.1579208101e+02   4.8698193620e+01    0.3361058     0.233695 -45.95 0.0009847416    1.417    0.294
       418 -10.6187      7.5579    123.5186   1.1415585496e+02   4.8844783678e+01    0.3335911    0.1875344 -61.49 0.0009459259    1.435    0.303
       419  -9.2555      1.4677    133.4768   1.1707075673e+02   4.6750144475e+01    0.2801048    0.1619685  58.93  0.001067429    1.927    0.481
       420 -10.2255      2.1807    130.2903   1.1653714483e+02   4.7492302129e+01    0.5100821     0.226175 -39.14  0.002340592    2.611    0.617
       421 -10.2691     41.2618    138.8699   1.0591473433e+02   4.2200707023e+01    0.3039637    0.2256887  45.62  0.001064949    1.453    0.312
       422  -9.2665    230.8051    136.9457   5.7779636139e+01   8.6457358662e+00    0.2120803    0.1706156 -17.77 0.0007053145    1.278    0.217
       423  -9.6981     34.1179    136.4897   1.0772924924e+02   4.3520008719e+01    0.4187123    0.1954404 -36.12  0.001655063    2.886    0.653
       424  -8.2381     49.0069      8.0000   6.3392144400e+01   6.7907044613e+01    0.1927566   0.05965559  45.16 0.0008003058    2.928    0.658
       425  -8.7145    235.9719    136.7398   5.6900006677e+01   7.7741461887e+00    0.1571913    0.1190395  43.49 0.0004495583    1.525    0.344
       426  -9.2563     48.1356    134.3909   1.0308334109e+02   4.2598643618e+01    0.4459526    0.1865019  44.19   0.00173938    2.694    0.629
       427 -10.7592     43.9651    130.6719   1.0376270800e+02   4.4005509993e+01    0.5213333    0.3540407 -26.55  0.001673927    1.803    0.445
       428  -8.9451    248.6389    134.1471   5.4415767052e+01   6.0687150532e+00    0.1891247    0.1058613 -31.51 0.0005116051    1.657    0.397
       429 -10.2294     28.7139    132.0963   1.0874882791e+02   4.5129058006e+01    0.2103738    0.2020137 -88.95 0.0002985625    1.120    0.107
       430  -9.3902     20.7248    130.9971   1.1105229519e+02   4.6068403820e+01    0.1971155     0.161471  82.71 0.0004950126    1.226    0.184
       431 -10.2203      9.5690    130.8256   1.1440643674e+02   4.6908713044e+01    0.5031272    0.1655002 -52.00  0.001401676    2.609    0.617
       432  -9.7759     61.8401    130.9572   9.8168746075e+01   4.1805593092e+01    0.2207014    0.2112801  36.86 0.0003613643    1.127    0.113
       433 -11.1903     88.5629    127.9897   8.9203897548e+01   3.8582810509e+01    0.2688274    0.2586283 -84.30 0.0002057738    1.075    0.070
       434  -9.7903     34.6268    127.8235   1.0625274165e+02   4.5671431188e+01    0.2600699    0.1616096 -76.82   0.00127877    1.574    0.365
       435  -9.2773     55.8503    125.6527   9.9058946604e+01   4.3913091394e+01    0.2652316    0.1774662 -51.19  0.001009933    1.366    0.268
       436  -8.9880     59.7060    124.9892   9.7683472258e+01   4.3595580726e+01    0.2102398    0.1770674 -61.56 0.0006780878    1.102    0.092
       437  -9.0766    131.0172    122.9765   7.5712700022e+01   3.1778336239e+01    0.2255378    0.2210635 -11.76            0    1.020    0.019
       438  -9.5210     38.6432    123.2471   1.0420585405e+02   4.6438829111e+01    0.2346651    0.1627845 -17.73  0.001182618    1.802    0.445
       439  -9.1774    221.1005    121.6724   5.6059240170e+01   1.3183961050e+01    0.2295419    0.1700259 -47.14 0.0003187441    1.241    0.194
       440 -10.1497     28.0214    115.9412   1.0647613699e+02   4.9251344472e+01    0.3428555    0.1938479 -39.05 0.0003581457    1.829    0.453
       441 -10.6813     13.9288    113.4930   1.1078950423e+02   5.0917027158e+01    0.4520288    0.2665718 -22.97  0.001436125    2.087    0.521
       442 -10.0901     13.9531    109.7287   1.1022548701e+02   5.1840523751e+01    0.3482937    0.2219703 -40.09 0.0008805664    1.533    0.348
