#   1 NUMBER                 Running object number                                     
#   2 MAG_AUTO               Kron-like elliptical aperture magnitude                    [mag]
#   3 X_IMAGE                Object position along x                                    [pixel]
#   4 Y_IMAGE                Object position along y                                    [pixel]
#   5 X_WORLD                Barycenter position along world x axis                     [deg]
#   6 Y_WORLD                Barycenter position along world y axis                     [deg]
#   7 A_WORLD                Profile RMS along major axis (world units)                 [deg]
#   8 B_WORLD                Profile RMS along minor axis (world units)                 [deg]
#   9 THETA_WORLD            Position angle (CCW/world-x)                               [deg]
#  10 FWHM_WORLD             FWHM assuming a gaussian core                              [deg]
#  11 ELONGATION             A_IMAGE/B_IMAGE                                           
#  12 ELLIPTICITY            1 - B_IMAGE/A_IMAGE                                       
         1 -12.1787    119.5054     37.5603   2.5139856963e+01   5.0848537797e+01    0.9317033    0.4248721 -48.63  0.003329692    2.698    0.629
         2 -12.2678     48.7416     13.0151   3.8278526230e+01   6.8366991661e+01    0.5658107    0.3169347  43.35  0.003042793    2.114    0.527
         3 -11.2160      1.9472      3.5891   5.8305551438e+01   7.4679661690e+01    0.5634227    0.1397713 -48.10  0.002670944    2.560    0.609
         4 -12.0583      6.7680     33.6648   6.6607054068e+01   6.8629248040e+01     1.322704    0.3043073 -47.06  0.005654545    2.983    0.665
         5 -11.7593     36.2537     19.1092   4.7013392589e+01   6.8970338063e+01    0.6974102    0.3641792 -41.72  0.002972326    1.582    0.368
         6 -11.8329     20.3237     21.7327   5.5962447998e+01   7.0064926010e+01    0.7688458    0.3865308 -36.46  0.004195889    1.731    0.422
         7 -11.6693      6.0921     10.7789   5.9038225173e+01   7.3136330237e+01     0.754884    0.4601356 -62.24  0.004797311    1.698    0.411
         8 -10.5853     12.8378      8.7410   5.4321253455e+01   7.3027674641e+01    0.3444884    0.1998263 -55.49 0.0009264987    1.700    0.412
         9 -12.4057     15.9656     14.4386   5.5173224344e+01   7.1767367272e+01    0.7673733    0.2993837 -33.75  0.003659301    2.588    0.614
        10 -12.2035     22.6198     10.7672   4.9927662483e+01   7.1835434162e+01     0.462124    0.3367381   1.42  0.002516046    1.447    0.309
        11 -11.5070     78.8184     35.8189   3.6903543108e+01   5.9757233942e+01    0.7879925    0.4928974 -41.17  0.003748491    1.498    0.333
        12 -11.1235     61.3971     35.9218   4.3447254250e+01   6.2620531669e+01    0.7179806    0.3473188 -29.09  0.003001979    2.521    0.603
        13 -13.4421    105.4718     20.2521   2.1743527826e+01   5.6679224162e+01    0.3983779    0.3683684 -58.72 0.0006703556    1.246    0.198
        14 -12.1848    104.5780     13.9544   1.9190245617e+01   5.7686294251e+01    0.5217997    0.3925727  -2.16  0.002757577    1.395    0.283
        15 -11.8475    164.2560     27.7159   1.1833127383e+01   4.0579067222e+01     0.473437    0.4087421 -22.66 0.0003668744    1.231    0.188
        16 -10.7426    135.7039     21.7544   1.5088565706e+01   4.9047813208e+01    0.5782183    0.4419475  61.65  0.002647169    1.272    0.214
        17 -10.9162    127.0401     16.7539   1.4956818261e+01   5.1897822460e+01    0.4268708     0.319323  25.24  0.001091793    1.448    0.310
        18 -11.7942    134.9758     14.9937   1.2581602021e+01   5.0060357934e+01     1.155487    0.5548962  77.47  0.004165479    2.801    0.643
        19 -10.8977     67.6928     19.0069   3.3454631731e+01   6.4473375807e+01    0.4422273    0.3881127  87.86  0.002662725    1.713    0.416
        20 -12.1412    164.9176     18.1149   8.3909439866e+00   4.1608527325e+01    0.6422877    0.3400987  41.38  0.002541541    2.168    0.539
        21 -10.2281    120.2195     16.9802   1.6597262978e+01   5.3580553290e+01    0.5171764    0.2186514 -20.02  0.001897575    2.731    0.634
        22 -11.3400     85.3712     14.8536   2.5240006186e+01   6.1741504464e+01     0.580833    0.3403152  -2.16  0.002579699    2.274    0.560
        23 -11.3163    228.6865     15.9607   3.5990990474e+02   2.4538369559e+01    0.3449028    0.2536538  66.11 0.0003465787    1.400    0.286
        24 -10.7817    225.6818     13.7032   3.5958389690e+02   2.5581998992e+01    0.3024798    0.2348208 -42.93 0.0006882979    1.202    0.168
        25 -11.1560    192.1012      9.6011   1.8982686853e+00   3.5054695227e+01    0.8965409    0.4192358  -6.75  0.003049264    3.573    0.720
        26 -10.0972    188.4474      2.3353   6.0514813149e-02   3.6825547887e+01    0.3714963    0.1869508 -48.97 0.0009932407    1.996    0.499
        27  -9.8888    218.9338     12.9164   1.4133183327e-02   2.7435560749e+01    0.2781608    0.2536944   5.78   0.00158182    1.354    0.262
        28 -11.3315    206.4859      2.6740   3.5832039546e+02   3.1885765287e+01    0.6742263    0.3103715  87.85  0.002625796    2.345    0.574
        29 -11.7383    212.1433      9.6230   3.5975748225e+02   2.9613863036e+01    0.6759552    0.4306248  -0.28  0.002608577    2.292    0.564
        30 -10.7601    218.7051      3.7069   3.5749427509e+02   2.8532306793e+01    0.3294684    0.2750199  84.56 0.0009145905    1.135    0.119
        31 -11.3378    223.7201      2.6799   3.5678670762e+02   2.7337368276e+01    0.5218775    0.2988062 -85.22  0.000398009    1.747    0.428
        32  -9.2852     98.4998     11.9462   1.9929892173e+01   5.9305823729e+01    0.2116577    0.1314043 -23.99  0.001033846    1.592    0.372
        33  -9.4627     66.0551     10.6293   2.9904053441e+01   6.5959824098e+01    0.1814819    0.1599632  52.49 0.0006813927    1.428    0.300
        34 -10.2422    168.5855      9.7742   4.9656109799e+00   4.1539208959e+01    0.5558178    0.1872408  56.13  0.001933903    2.610    0.617
        35 -10.2695    163.4811      7.9481   5.0655228195e+00   4.3141544595e+01    0.6574309    0.3171971  -4.64  0.002339578    3.161    0.684
        36  -9.5700    145.0604     10.1354   8.8014578033e+00   4.7928881670e+01    0.2368785    0.1781821  35.83  0.000728919    1.392    0.281
        37 -10.9072    246.4196      7.9120   3.5633267680e+02   2.1059340049e+01    0.4372324    0.2538084  -2.55  0.001714895    2.973    0.664
        38 -10.8713    242.9210      4.1357   3.5565473902e+02   2.2339599319e+01     0.359127    0.1860871 -87.89  0.001128093    1.995    0.499
        39  -9.2739    245.8071      1.3389   3.5475414941e+02   2.1947974645e+01    0.1739432    0.1128557  69.59 0.0002742683    1.583    0.368
        40 -10.8313    184.6250      6.4198   1.7797742164e+00   3.7457463011e+01    0.5036163    0.2559256 -50.26  0.002084561    2.030    0.507
        41  -9.7554    152.5988      7.6822   6.6247807729e+00   4.6149284858e+01    0.3904305     0.159407  47.07 0.0008310108    2.476    0.596
        42  -9.5641     77.9858      7.6514   2.4110382984e+01   6.4126312853e+01    0.1960367    0.1780268 -36.26 0.0006239017    1.284    0.221
        43 -10.6021     74.1618      3.1143   2.3047158411e+01   6.5401705889e+01    0.5314701    0.2761222  44.46  0.002651145    1.843    0.458
        44 -11.5440    233.4384      2.5743   3.5597699460e+02   2.4867220919e+01    0.4269131    0.2600266 -64.17   0.00212789    1.522    0.343
        45 -11.2827    177.3138      6.0284   2.5471547470e+00   3.9518816338e+01    0.2871747     0.231305  89.37 0.0003496982    1.181    0.153
        46 -10.3389    122.0279      5.4099   1.1310698084e+01   5.4415569997e+01    0.2787015    0.2007819 -12.19  0.001002183    1.472    0.320
        47  -8.8882     89.2974      7.3669   2.0399747362e+01   6.1846481686e+01    0.1451802   0.09334057  18.19 0.0007031361    1.726    0.421
        48 -10.2219     63.0194      6.5968   2.8953199799e+01   6.7020168169e+01    0.2453507    0.1684058 -21.03 0.0009097024    1.316    0.240
        49 -11.4677    133.7229      2.5437   7.8537451971e+00   5.1694098155e+01    0.4435986    0.3197134  61.61  0.002014324    1.280    0.219
        50 -10.3232    141.2570      3.5626   6.9370810272e+00   4.9611254265e+01    0.4634148    0.2364807  69.06  0.001881757    1.870    0.465
        51  -8.8702    128.6489      1.2553   8.2626654254e+00   5.3129351610e+01    0.1451142    0.1301501  49.13 0.0005002528    1.029    0.028
        52 -10.1644     41.5844      3.7965   3.6619652103e+01   7.0724656589e+01    0.2950931    0.1912818  -4.84  0.001127689    1.621    0.383
        53 -10.0983    158.0662      3.3492   4.2250653614e+00   4.5090639987e+01    0.3819693    0.1966447  34.12   0.00149837    2.459    0.593
        54 -10.3689    113.9880      2.8364   1.1924407525e+01   5.6660418061e+01     0.438791    0.3132911 -85.37  0.001676204    1.848    0.459
        55 -10.4597    105.9841      2.1801   1.3469359688e+01   5.8643972676e+01    0.4962246    0.2638962  75.50  0.002035696    2.520    0.603
        56  -9.8091     29.8015      2.8067   4.1945068901e+01   7.2359487216e+01    0.2952473    0.1292295 -48.16  0.001401346    2.725    0.633
        57 -10.0527     22.1957      3.2371   4.6287414786e+01   7.3115392841e+01    0.2072618    0.1483975 -35.65 0.0007283028    1.175    0.149
        58 -10.2362     13.2628      2.4511   5.0965089787e+01   7.4063155322e+01    0.2264319    0.1839418   8.80  0.001018746    1.378    0.274
        59  -9.1375     64.3563      2.1510   2.6031945440e+01   6.7334056192e+01    0.1623164    0.1055527 -30.99 0.0003612323    1.498    0.332
        60  -9.6431    152.4500      1.4182   4.3501026402e+00   4.6804310690e+01    0.2765191      0.13292  70.20 0.0005739777    1.938    0.484
        61  -8.7486     52.3339      1.6978   3.0591090353e+01   6.9414852328e+01     0.110189   0.09638221 -53.47 0.0007035899    1.658    0.397
        62 -10.0518    232.1744      7.1545   3.5726844778e+02   2.4676612690e+01    0.2797739    0.1468494 -66.12  0.001232174    1.941    0.485
        63 -10.0826     56.1541    121.8771   6.7777685585e+01   4.3916209024e+01    0.2071063    0.1564354  81.97 0.0005018909    1.224    0.183
        64 -10.7664     49.6201    249.0562   8.1008885890e+01   1.8781783085e+01    0.2788801    0.1009386  66.48  0.001506295    2.483    0.597
        65  -9.1912     58.0689    118.5110   6.6713302083e+01   4.4476490521e+01    0.1874789    0.1620525  88.36  0.001149013    1.068    0.064
        66  -9.9491     44.5476    120.0231   7.0619640792e+01   4.5758032984e+01    0.3029203    0.1706903  84.66 0.0008995232    1.906    0.475
        67  -9.9714     43.6742    116.3499   7.0317365302e+01   4.6732476696e+01    0.3078202    0.1935358  47.72  0.001711934    1.681    0.405
        68 -11.7624     15.7101    109.2105   7.7062803646e+01   5.1065283001e+01    0.8263189    0.5545905 -22.78  0.004588765    2.425    0.588
        69 -11.1552     35.9755    102.7210   7.0404016983e+01   5.0800335759e+01     1.332011     0.639699   5.23  0.004265825    7.116    0.859
        70 -10.8270      7.1812    115.7372   8.0025440308e+01   5.0195391507e+01    0.4026752     0.216115 -55.13  0.001572466    1.893    0.472
        71 -12.1722      2.5199    111.9801   8.0890943978e+01   5.1373958760e+01    0.3996747    0.2230269 -78.96  0.000886496    1.323    0.244
        72 -11.3242      4.8214    105.4682   7.9643775450e+01   5.2711901459e+01    0.3640455    0.3095756  68.25  0.002719187    1.282    0.220
        73 -11.6664     22.4269    114.5238   7.5859804801e+01   4.9270606257e+01    0.4647489    0.2994241  15.35   0.00188178    2.339    0.572
        74 -11.9245     28.0320    112.8737   7.4128192502e+01   4.9155542229e+01    0.6355855    0.3509681  63.45  0.003189424    1.939    0.484
        75  -9.8173     37.2727    116.6738   7.2113538643e+01   4.7346447992e+01    0.2574836    0.1387329 -63.57 0.0008260186    1.558    0.358
        76  -9.3043     79.1997    114.9074   6.0234871653e+01   4.2312014269e+01    0.2673125    0.1789831 -48.78  0.001323821    1.566    0.362
        77  -9.2036     67.7208    114.9715   6.3429723348e+01   4.4015245542e+01    0.2060439     0.136356  68.51   0.00102821    1.657    0.396
        78  -9.2565     57.5652    114.2541   6.6132114642e+01   4.5564479575e+01    0.2625883    0.1184927 -70.24   0.00112422    2.068    0.517
        79  -9.3811    104.6643    112.9400   5.2863641296e+01   3.8350060800e+01    0.2083079    0.1807026 -76.39 0.0004395168    1.077    0.072
        80 -11.7929     80.4136    108.3451   5.8540235857e+01   4.3693360856e+01    0.5068122    0.3718176  67.44 0.0006469744    1.466    0.318
        81 -10.0036     48.9363    112.0583   6.8183427700e+01   4.7156152835e+01    0.2768101    0.1764794  47.54  0.001509232    1.674    0.403
        82  -9.9872    101.4756    109.9495   5.3034596983e+01   3.9654294504e+01    0.2703146     0.219995  23.43 0.0009840374    1.601    0.375
        83  -8.4774     69.3052    110.6733   6.2168330686e+01   4.4822739443e+01    0.1447853   0.09851328  81.05 0.0005217677    1.648    0.393
        84  -9.1349    120.2639    109.3700   4.7883413296e+01   3.6055595580e+01    0.1515528    0.1226805 -20.86  0.000698537    1.657    0.396
        85  -9.3744    182.7359    104.7018   3.2040796154e+01   2.2396780743e+01    0.2126636     0.181569 -76.57 0.0004748113    1.308    0.236
        86  -9.0010    142.7880    105.5786   4.1228432073e+01   3.1909659913e+01    0.2308571    0.1493551  62.15 0.0009501096    1.709    0.415
        87 -10.1113     89.1612    105.0939   5.5335719097e+01   4.3017832073e+01    0.2526457    0.2009952  55.78 0.0004105405    1.305    0.233
        88 -10.1109     85.5815    103.4839   5.5987762258e+01   4.4009169753e+01    0.2670201    0.2130984 -52.09 0.0005868333    1.229    0.186
        89  -8.9446     45.5301    105.5289   6.8070138999e+01   4.9114354775e+01    0.1685333    0.1173552  51.89 0.0001702603    1.547    0.354
        90 -11.3081     51.7143     99.5301   6.5155134948e+01   4.9833293482e+01    0.6083008    0.3507197 -38.73            0    2.286    0.562
        91 -12.0175     17.4880    100.6783   7.5513089312e+01   5.2918491568e+01    0.2835776    0.2477207 -83.04 0.0005490604    1.161    0.139
        92 -10.3848     35.3489     92.5004   6.8875939944e+01   5.3292052390e+01    0.3265182    0.1996159 -78.97  0.001057627    1.483    0.326
        93 -12.0419     20.9947     92.8946   7.3380283198e+01   5.4466514789e+01    0.8460324    0.4235626  76.94  0.002263821    2.550    0.608
        94 -11.4705     44.4081     84.8130   6.4488807505e+01   5.4175700326e+01    0.5157945    0.4431921  36.86  0.002228779    1.395    0.283
        95  -9.9121     37.2138     86.0066   6.7074810563e+01   5.4644385621e+01    0.2417274    0.1745967  42.94 0.0008332864    1.607    0.378
        96  -8.7267    120.3449    101.3173   4.5806764042e+01   3.7870861898e+01    0.1544949    0.1269783  -3.05  0.000430435    1.720    0.419
        97 -11.7883     68.1981     96.0817   5.9445030688e+01   4.8484930810e+01     0.599797    0.4888133  -2.29  0.002454223    1.759    0.431
        98 -11.4460     75.9693     80.5346   5.3166490387e+01   5.0969583385e+01     1.046656    0.7191741  86.62  0.004844682    2.060    0.515
        99 -11.4046     79.7748     92.6315   5.5118182231e+01   4.7538709808e+01    0.8707864     0.666951  85.59  0.004500928    1.486    0.327
       100 -11.7070      9.6704     97.0342   7.7329925947e+01   5.4333178380e+01     0.451861    0.4152891  61.83 0.0009506086    1.327    0.247
       101 -11.0589     27.0414     86.2421   7.0406401989e+01   5.5528543440e+01    0.6278858    0.4298766  40.65  0.003381368    1.718    0.418
       102 -10.3869     30.2302     96.1653   7.1071115225e+01   5.2907148615e+01    0.3658897    0.2281211  69.01   0.00194748    1.798    0.444
       103  -8.7576    210.3129     98.2925   2.5078933379e+01   1.6759748546e+01    0.1547442    0.1199698  16.98  0.000377196    1.592    0.372
       104 -11.1200    125.7521     94.8411   4.2626965265e+01   3.8145621667e+01    0.2961231    0.2730628 -58.69 0.0001942606    1.051    0.049
       105 -10.8243    121.5359     93.0694   4.3252207739e+01   3.9466967102e+01    0.4428857    0.2297198 -55.04  0.001343275    2.040    0.510
       106 -10.8515     43.1116     93.3801   6.6618199432e+01   5.2285480935e+01    0.4581211    0.2837001 -69.91  0.002476938    1.362    0.266
       107  -9.4294    116.3161     93.3367   4.4738398495e+01   4.0529260094e+01    0.1545641    0.1256451  -9.00 0.0004496803    1.697    0.411
       108 -11.4701     98.4777     91.0696   4.9150772532e+01   4.4625527304e+01    0.3164252    0.2508829  55.17 -9.140139e-05    1.332    0.249
       109 -10.2629     49.7704     91.4493   6.4151961156e+01   5.1995326154e+01    0.3268328    0.2547201  58.54  0.001929213    1.417    0.294
       110 -10.4207     88.7965     89.2457   5.1527160145e+01   4.6812474205e+01    0.7245231    0.5123494 -10.86  0.003123051    2.464    0.594
       111  -9.6043     89.6960     85.3059   5.0191153483e+01   4.7563900634e+01    0.2432214    0.2208956 -66.73 0.0009638374    1.024    0.024
       112 -11.6216      7.2814     88.4781   7.6970826990e+01   5.6463671460e+01    0.4379896    0.3877006  18.61  0.002619159    1.537    0.349
       113  -9.8800     66.4713     88.6131   5.8253253550e+01   5.0506327641e+01     0.321873    0.2269509 -15.76  0.001075655    2.279    0.561
       114  -9.2322    112.1232     88.6433   4.4580832892e+01   4.2464084514e+01    0.3010319    0.1402156  54.05  0.001081476    2.474    0.596
       115 -10.7494    103.9838     86.5489   4.6300873335e+01   4.4590994706e+01    0.3040589    0.2078521 -51.51  0.001410594    1.380    0.275
       116  -9.8857     51.9773     87.0203   6.2508421454e+01   5.2784522547e+01    0.1997595    0.1649533 -68.11            0    1.023    0.022
       117 -11.5010    143.2366     84.6409   3.5225354974e+01   3.6255069474e+01    0.2849281    0.2643909 -58.14 0.0002648686    1.053    0.050
       118  -9.2990    133.7284     84.9486   3.7700692427e+01   3.8468198637e+01    0.2622579    0.1772392 -71.44  0.001016666    1.975    0.494
       119 -11.2644    112.1636     83.0140   4.2934646266e+01   4.3706354249e+01    0.5584988    0.2802358  56.25  0.001931193    2.375    0.579
       120 -10.2424     66.8791     81.7760   5.6429213851e+01   5.2052756328e+01    0.3255033    0.2855485  -4.92  0.001706383    1.434    0.303
       121  -9.1550     46.9709     75.2699   6.1471726560e+01   5.6122069877e+01      0.35057    0.2061817 -56.83  0.001230452    1.404    0.288
       122 -11.5048     53.0861     74.7981   5.9251678667e+01   5.5508885085e+01    0.6234361    0.2873589 -62.53            0    1.989    0.497
       123 -10.9733     58.0441     77.8523   5.8344436755e+01   5.4174734227e+01    0.5458774    0.2855283 -71.67  0.002334415    2.277    0.561
       124  -9.3830    102.9948     79.7763   4.4614803985e+01   4.6302588334e+01    0.2775407     0.182045 -36.73 0.0007212635    1.628    0.386
       125 -10.2402     88.5296     73.0243   4.6985048668e+01   5.0543266163e+01    0.3785157    0.2168993 -55.85  0.001127117    1.725    0.420
       126  -9.3736     92.6024     72.2269   4.5459752971e+01   4.9971527801e+01    0.2934592    0.2464634 -82.53   0.00129945    1.359    0.264
       127 -10.4569     93.4727     76.8115   4.6592095707e+01   4.8798093522e+01    0.6700575    0.4489509  19.33  0.002899588    2.257    0.557
       128 -10.4020     88.1643     77.3828   4.8408070780e+01   4.9637728527e+01    0.6183467    0.2355633  42.80  0.002254825    2.842    0.648
       129 -11.3269     14.1718     74.6990   7.2677278998e+01   5.9188258785e+01    0.3798024    0.2319998 -75.51  0.002133711    1.334    0.251
       130  -9.6934      3.6173     78.0000   7.6720810494e+01   5.9077773314e+01    0.3261898   0.06265646  21.01  0.001224332    6.037    0.834
       131 -10.9018      2.1324     71.6456   7.6301663187e+01   6.0597243474e+01    0.4312735    0.1464082 -66.60  0.001706698    2.020    0.505
       132  -9.2574    181.8376     76.2013   2.4194602537e+01   2.7992884548e+01    0.2157508    0.1871928  26.63 0.0003698843    1.314    0.239
       133  -8.9008    126.9586     76.7660   3.6965851872e+01   4.1769915115e+01      0.19771    0.1322049  49.61 0.0003248138    1.533    0.348
       134  -9.2084    112.5023     75.3441   4.0497792473e+01   4.5298930840e+01    0.2634785    0.1457397  47.37  0.001070945    1.889    0.470
       135 -10.0608    103.2150     74.9171   4.3066748949e+01   4.7323785858e+01    0.2943227    0.2432266  73.62  0.001158982    1.389    0.280
       136 -10.6279     81.3023     72.4796   4.9135712723e+01   5.1924725373e+01    0.4992077    0.2012413 -41.15  0.001802173    2.670    0.626
       137 -10.3700     78.1863     67.4225   4.8610619052e+01   5.3562387798e+01    0.4357394     0.334969 -76.25  0.002247637    1.551    0.355
       138  -9.8569     77.9331     96.7635   5.6667740525e+01   4.6853884028e+01    0.3089115    0.2157732  46.68  0.000844037    1.545    0.353
       139  -9.5534     24.8511     73.9426   6.8854960225e+01   5.8572646567e+01    0.2020081    0.1339324 -53.80  0.001212754    1.288    0.224
       140  -9.5840    187.0919     72.4470   2.2077944633e+01   2.7273938436e+01    0.3323892    0.2241654 -32.95  0.001428553    1.488    0.328
       141  -9.9445    153.6239     72.6889   2.9086890232e+01   3.6039111092e+01    0.4388852    0.1850913  42.58  0.001396092    2.827    0.646
       142 -11.2975     35.3156     71.8560   6.4740594115e+01   5.8128992240e+01    0.4769287    0.2579175  32.65   0.00129974    2.196    0.545
       143 -10.5519     41.2854     72.9694   6.2897563372e+01   5.7273673901e+01    0.3286207    0.2060487 -54.41 0.0009728482    1.322    0.244
       144 -10.8690     39.9156     69.1093   6.2454063906e+01   5.8301721912e+01    0.2407175    0.2153097  -5.92 0.0009213932    1.365    0.268
       145  -8.9527     19.5922     71.7355   7.0263015784e+01   5.9486371657e+01    0.1238426   0.07567857 -40.12  0.000483243    1.747    0.428
       146 -11.0470    122.9388     68.8854   3.5514189507e+01   4.4319662890e+01    0.5384009    0.3189603  46.46   0.00197882    1.747    0.428
       147 -10.2741     13.7229     67.5373   7.1552918181e+01   6.0850536540e+01     0.353351    0.2362146   4.31  0.002200991    2.078    0.519
       148  -9.3703    217.5243     66.4976   1.5247024244e+01   2.0299098041e+01    0.1523074     0.146127 -43.13 1.507937e-05    1.049    0.047
       149 -10.4092     96.3065     65.2957   4.2073318643e+01   5.0750416182e+01    0.2702226    0.2479744 -22.70  0.001486894    1.133    0.117
       150 -11.0213     92.4507     62.7909   4.2447676658e+01   5.2017603628e+01    0.4317922    0.3112509  59.58  0.001204801    1.655    0.396
       151  -9.2816     52.0185     65.7246   5.7208133044e+01   5.7706023398e+01    0.1698832    0.1634733 -28.56 0.0005176315    1.166    0.142
       152 -12.6327      5.5410     61.9363   7.3505190338e+01   6.2597708392e+01    0.6266183    0.3998635 -23.11  0.003937555    2.005    0.501
       153 -10.0606      8.0915     55.1572   7.1232638020e+01   6.3961119627e+01    0.1971641    0.1651308  47.17 0.0008510813    1.514    0.339
       154 -10.6404    201.6328     64.7560   1.7257819546e+01   2.4725118852e+01    0.2831956    0.2601478  87.42  0.000252519    1.095    0.087
       155  -9.4049    192.5233     65.4620   1.9017355402e+01   2.7032752031e+01    0.1588355    0.1523784 -66.97 5.522288e-06    1.003    0.003
       156 -10.2127    106.1099     63.3112   3.8423028647e+01   4.9170591268e+01    0.4962644    0.3486683  18.49  0.001575897    2.013    0.503
       157 -10.0685    106.5087     58.4946   3.6635402249e+01   5.0051124133e+01     0.290031    0.2113895 -78.64 0.0008626442    1.975    0.494
       158 -10.0854    158.7325     62.8293   2.4794509911e+01   3.6543172577e+01    0.4648478    0.2219252  45.12  0.001094094    2.278    0.561
       159  -9.3294     57.9677     62.0849   5.3999051402e+01   5.7754679655e+01    0.3288085    0.2355286 -83.01  0.001692958    1.853    0.460
       160 -10.4942     63.8866     61.1624   5.1584703765e+01   5.7137619372e+01    0.4064588      0.33021 -15.43  0.002310311    1.440    0.305
       161  -9.0790     50.9817     56.6835   5.4931104516e+01   5.9829171401e+01    0.3684929    0.3098762 -64.01  0.002269876    1.177    0.151
       162 -10.2586     51.2459     61.4136   5.6255698727e+01   5.8761114439e+01     0.335351    0.2191842  44.17  0.001425965    1.822    0.451
       163 -10.9724     40.3039     56.7717   5.9036983422e+01   6.1026797586e+01    0.3165271    0.1953537  31.57  0.001117268    1.930    0.482
       164 -11.3678     43.0316     61.0196   5.9198820030e+01   5.9796811684e+01    0.3941378     0.201444 -58.41 0.0009432569    1.644    0.392
       165 -10.9175     46.4558     59.4974   5.7480820507e+01   5.9751406078e+01    0.3143705    0.2145656 -60.96 0.0008680893    1.311    0.237
       166  -9.6836     84.0324     61.2407   4.4659246140e+01   5.3888995692e+01    0.2701716    0.1759681 -57.52 0.0008408592    1.610    0.379
       167 -10.8393    117.9650     55.9146   3.2432546028e+01   4.8006317102e+01     0.688493    0.4530605 -73.92  0.002456225    2.464    0.594
       168  -9.8241    123.5967     60.8772   3.2637165915e+01   4.5749829598e+01    0.2851642    0.2567242 -68.03 7.021658e-05    1.173    0.147
       169 -10.2548    124.7953     56.6532   3.0843077295e+01   4.6267678219e+01    0.2892224    0.2856494  29.80 0.0006980418    1.035    0.034
       170  -9.2714    213.4852    248.5179   5.4032348711e+01  -5.8231865440e+00    0.1123703   0.08134758  32.53 -3.667773e-05    1.000    0.000
       171 -10.5734    112.2040     50.8079   3.2197956390e+01   5.0268321136e+01    0.3573615     0.306046  -4.12  0.001012708    1.294    0.227
       172 -11.0760    110.0251     39.4495   2.8473985532e+01   5.2753316744e+01    0.6540629    0.3950865  -7.26  0.002199781    2.623    0.619
       173 -11.6359    117.5051     45.6398   2.8784571152e+01   4.9975783950e+01    0.7474565    0.5310382 -33.40  0.002543199    1.386    0.278
       174 -10.6231    112.3134     42.5910   2.9056765339e+01   5.1701919373e+01    0.3855367    0.2603134  56.16  0.000770536    1.568    0.362
       175  -9.7301    113.8827     60.8831   3.5327116571e+01   4.7972347760e+01     0.299838     0.202554 -45.91  0.001359636    1.442    0.307
       176 -10.8181     31.2145     53.0535   6.1550667924e+01   6.2730885468e+01    0.4357834    0.2540421  14.56  0.001677204    2.302    0.566
       177  -9.8631     29.3061     60.0112   6.4130520571e+01   6.1365130317e+01    0.3123446    0.2003069 -61.40  0.001828182    1.258    0.205
       178 -11.1895     24.6682     57.2658   6.5237089205e+01   6.2364459428e+01    0.4908289    0.3885017 -56.97  0.002104335    1.015    0.015
       179  -9.6729     91.6311     57.3522   4.0835008591e+01   5.3291562600e+01     0.280427    0.1998263  76.40 0.0008300098    2.131    0.531
       180 -10.2914     87.9815     56.5207   4.1728262874e+01   5.4147631366e+01    0.5337644    0.1862223 -40.08  0.001826379    2.846    0.649
       181  -9.3551     89.5117     51.9915   3.9594895971e+01   5.4763235404e+01    0.4760461    0.2344416 -27.58  0.001718509    2.886    0.654
       182 -11.9641     76.9936     52.9905   4.4192570404e+01   5.6812255096e+01    0.3724713     0.297318 -53.80 0.0007558925    1.241    0.194
       183 -12.8783     73.1576     48.0383   4.3746925559e+01   5.8444573238e+01     1.134996    0.4136925 -54.26  0.002762681    3.711    0.731
       184 -10.6880    157.4693     54.2747   2.2243324635e+01   3.8380242329e+01    0.4850072    0.3526931 -84.95  0.001676929    1.722    0.419
       185  -9.0549     33.9800     57.0000   6.1547846880e+01   6.1608515432e+01    0.1788745   0.07365061  26.85 0.0008081453    2.982    0.665
       186  -8.6986    187.3769     55.6840   1.6955536584e+01   3.0042140842e+01    0.1744693    0.1172306 -69.25 0.0007028489    1.804    0.446
       187  -9.6389     66.8804     54.3325   4.8262775271e+01   5.8153517591e+01    0.3235768    0.1826653 -60.88   0.00144666    2.059    0.514
       188  -9.3743    140.0155     54.4786   2.6242846720e+01   4.2906365786e+01    0.2356294    0.1552501  56.42 0.0004534356    1.527    0.345
       189 -12.3354     43.6457     44.8330   5.3962980735e+01   6.3207770633e+01    0.5952722    0.5118461  63.39  0.001207777    1.525    0.344
       190 -10.9059     30.3636     46.2880   5.9929287148e+01   6.4263668671e+01    0.7509696     0.425018  -8.15  0.003673244    2.825    0.646
       191 -10.3771     22.8997     37.3324   6.0352317907e+01   6.6775572455e+01    0.4194975    0.1855797  38.63  0.002097639    2.934    0.659
       192 -11.2276     60.9992     48.0955   4.8261394194e+01   6.0304946376e+01    0.7863488    0.3163955 -43.53  0.003197543    2.201    0.546
       193 -10.9380     20.6556     46.2720   6.3994818543e+01   6.5073274359e+01    0.4855117    0.2303991 -47.86  0.001637079    1.678    0.404
       194 -10.1600     26.3189     42.8606   6.0593592352e+01   6.5343233521e+01    0.2750127    0.2135773 -60.44 0.0009786355    1.168    0.144
       195  -9.9903     55.5001     50.4927   5.1198477064e+01   6.0569651155e+01    0.2147326    0.1625127 -47.05 7.128682e-06    1.133    0.118
       196 -10.1903     51.9625     48.3057   5.1822752553e+01   6.1484705837e+01    0.2195812    0.2095718 -39.69 0.0006800647    1.135    0.119
       197 -10.0822    145.4549     49.6592   2.3293204321e+01   4.2338210608e+01    0.5699006    0.2890243 -15.21  0.001765975    3.486    0.713
       198 -10.4920     11.8393     49.2736   6.8431304765e+01   6.5027695093e+01    0.5537143    0.1373979 -51.31  0.002369801    2.727    0.633
       199 -10.2143    240.0037     50.7910   7.9753395169e+00   1.7050097977e+01    0.2583409    0.1978487 -34.05 0.0006676938    1.220    0.180
       200  -9.7306    189.1595     49.2970   1.4681458064e+01   3.0571561231e+01    0.2427002    0.2135296 -19.53 0.0003728459    1.235    0.190
       201  -8.8425     97.4665     50.4105   3.6460325506e+01   5.3502091828e+01    0.1449369    0.1364132 -16.98 0.0008024685    1.042    0.041
       202  -9.3841     81.6695     50.3208   4.1606392031e+01   5.6535531007e+01    0.2014527    0.1387939 -55.43 0.0005809819    1.555    0.357
       203  -9.9147     82.8883     46.8292   3.9879639218e+01   5.6995130542e+01    0.2783075    0.1941109 -32.59 0.0007353095    1.380    0.275
       204  -9.7688      2.0745     48.6166   7.2282818141e+01   6.5703549741e+01    0.2514522     0.152437 -72.76 0.0008851102    1.355    0.262
       205 -10.2797    138.6553     44.4882   2.3011868473e+01   4.4960813697e+01    0.4938512    0.2636526  30.48  0.001685339    2.910    0.656
       206 -10.3377    199.3406     44.8481   1.1719865593e+01   2.8472292141e+01     0.531604    0.2612081  80.02  0.001845782    2.693    0.629
       207 -10.6293    155.9408     42.6089   1.8577455569e+01   4.0697754820e+01    0.3605302    0.3119337 -18.29   0.00107613    1.241    0.194
       208 -10.1652     56.7083     41.9704   4.7671741735e+01   6.2137088667e+01    0.2459725    0.1869297  40.65  0.000899814    1.539    0.350
       209  -9.4082     17.4814     41.2841   6.3953137188e+01   6.6364458811e+01    0.2398724   0.08195205 -55.86  0.001124008    2.084    0.520
       210 -10.5072     32.7450     31.1866   5.3732099328e+01   6.7114354511e+01    0.2213383    0.1657136 -43.13 0.0003613712    1.079    0.073
       211 -11.7667    126.5458    241.3244   6.7760059746e+01   8.9625096967e+00    0.3260509    0.2320435  62.84   0.00186198    1.210    0.173
       212 -10.6514    131.6395    240.8519   6.6838714813e+01   8.2191736783e+00    0.2244111    0.1342015  38.31   0.00110331    1.572    0.364
       213 -11.4044     68.0796    240.4896   7.7539764252e+01   1.7763830793e+01    0.2869011    0.2158945  31.03  0.001685698    2.086    0.521
       214 -11.9302     26.7407     28.4469   5.5466923153e+01   6.8222235515e+01     0.511314    0.3720396 -25.04  0.002653416    1.322    0.243
       215 -11.1030    147.0035    237.9062   6.3868388950e+01   6.1461410514e+00    0.4397897    0.2353695  52.38  0.002562355    1.509    0.337
       216  -9.2845     49.2851    238.6301   8.0481599814e+01   2.0525658684e+01    0.1160305   0.05400446  67.49 0.0007018511    1.703    0.413
       217  -9.3071     15.4978    233.9624   8.5590220140e+01   2.5243740971e+01    0.1415926   0.07610905 -87.69  0.001023387    1.576    0.366
       218  -9.2765    247.3149    231.3062   4.6114726854e+01  -9.2043846326e+00     0.115275   0.06665437  17.45 0.0004742364    1.625    0.384
       219  -8.9229    181.2939    228.3400   5.6689734085e+01   1.7020123426e+00    0.1168815   0.08224973  19.65 0.0004783618    1.653    0.395
       220  -9.4452     49.6666    222.6589   7.9446499637e+01   2.3238965039e+01   0.09078974   0.08515766 -73.91 0.0007051205    1.753    0.429
       221  -9.2366     99.4932     41.5044   3.2402668674e+01   5.4708520279e+01    0.1445099    0.1373024 -29.37 5.081255e-06    1.047    0.045
       222  -9.2351     91.0176     41.4602   3.5067986136e+01   5.6448032099e+01    0.2014285    0.1411109  45.12 0.0004022473    1.509    0.337
       223  -9.0945    152.6950    219.3259   6.0587443119e+01   7.8998998366e+00    0.1234702   0.08422286  67.74 0.0003543213    1.646    0.392
       224  -9.6458    220.4740     39.0050   7.1407381437e+00   2.3670586653e+01     0.223928    0.1935213  84.23 0.0003457808    1.151    0.131
       225 -10.0117    167.2714    238.0218   6.0383012964e+01   2.7859088924e+00    0.1576111    0.1302136  46.21 0.0006657806    1.100    0.091
       226 -10.0735     67.9300     32.4941   3.9488667212e+01   6.2217249312e+01    0.4161908    0.3151789  55.10  0.002315134    1.703    0.413
       227 -11.4102     57.2962     30.6354   4.2877222587e+01   6.4193420437e+01    0.4153407    0.3009319 -27.52  0.001281293    1.261    0.207
       228 -11.7152     48.9752     30.4774   4.6277980805e+01   6.5372213141e+01     0.709308    0.3198948  30.87  0.003296262    2.626    0.619
       229 -12.9827    152.8247     35.8335   1.6820867914e+01   4.2564493857e+01    0.3683646    0.3494594  52.66 0.0005417333    1.051    0.048
       230  -9.2802    194.9830     37.5569   1.0150110496e+01   3.0723712933e+01    0.2204615    0.1482194  68.04 0.0003009909    1.469    0.319
       231 -11.1409    175.6134     33.7570   1.1956317109e+01   3.6611478612e+01    0.6386212    0.3936156 -44.03  0.001418089    1.616    0.381
       232  -8.9147     94.6280     36.2801   3.1807366716e+01   5.6619528039e+01    0.1400776    0.1141318 -79.67 0.0007011645    1.697    0.411
       233  -8.9716     44.6932    215.3194   7.9832821520e+01   2.5195099717e+01    0.1206714   0.05878338  67.04 0.0007031304    1.636    0.389
       234  -9.2758    164.3690    211.9543   5.7435298254e+01   6.9596475716e+00     0.164086    0.1456119  48.25 0.0005124638    1.100    0.091
       235 -11.6404    106.0093     33.0086   2.7020541518e+01   5.4702274983e+01    0.6307437    0.4162343   9.71  0.002742281    2.121    0.528
       236 -12.3966    114.4300     24.9762   2.1376195759e+01   5.3942874660e+01    0.8506497    0.3758856  42.97  0.003025276    2.365    0.577
       237 -10.7873    160.1694     29.8126   1.3288044124e+01   4.1419704696e+01    0.4309491    0.2842582 -23.00 0.0008478932    1.635    0.389
       238  -9.3182     61.3149    206.5766   7.6212336278e+01   2.4684375594e+01    0.1445208   0.09945849  44.89 0.0009349691    1.494    0.331
       239  -9.5823    140.0243     32.6908   1.8346357517e+01   4.6427894833e+01    0.3915785     0.165319  53.00   0.00140715    2.225    0.550
       240 -10.2069    240.7536     31.8316   2.9274833172e+00   1.9487974525e+01    0.2796589    0.2354147 -35.34  0.001290235    1.171    0.146
       241 -10.9247    189.0746     27.7672   7.9598917884e+00   3.3694049632e+01     0.509743    0.4093436  22.02   0.00198242    1.539    0.350
       242 -11.0855    182.9104     25.5676   8.1469122615e+00   3.5689452158e+01    0.4398672    0.3679735  85.80  0.001733573    1.162    0.139
       243  -9.3688    187.4148     22.8509   6.6392303420e+00   3.4786661152e+01    0.2804657    0.2181742  -0.18 0.0007030917    1.599    0.374
       244 -11.9300    126.2351     28.2424   1.9772090088e+01   5.0599054657e+01     0.544864    0.4424239  77.92  0.002510561    1.385    0.278
       245 -10.2060    231.6735     38.9887   5.8040059125e+00   2.0789962668e+01    0.4078616    0.1394066 -36.45  0.001464004    2.456    0.593
       246  -9.6115    196.8310     29.1144   7.3028201059e+00   3.1377879688e+01    0.2818198    0.2135679  70.22 0.0007899356    1.285    0.222
       247 -10.5818    201.0462     25.4885   5.6512482455e+00   3.0698116602e+01    0.4413472    0.2996644  -5.41  0.001958035    1.956    0.489
       248 -10.0735    230.6329     27.2355   2.7484748560e+00   2.2630095996e+01    0.3114946    0.2164657 -83.10  0.001483881    1.475    0.322
       249 -11.3368    144.8599     25.6773   1.4707322313e+01   4.6122153204e+01    0.8178251    0.4392418  86.44  0.002855154    2.950    0.661
       250 -10.6842    148.1612     22.2468   1.2785675559e+01   4.5681430579e+01    0.4522896    0.2413766  47.47  0.001470807    1.865    0.464
       251 -11.4581      5.2564    201.2020   8.5902079498e+01   3.2194958538e+01    0.6483471    0.1008073 -69.65  0.002626923    4.960    0.798
       252  -9.7158     78.4643    203.9451   7.2763362414e+01   2.2765987533e+01    0.2266744    0.1268508  59.66 0.0004233424    1.451    0.311
       253  -9.2055     21.5270    200.9421   8.3053348447e+01   3.0591438633e+01    0.1535234   0.08345081 -87.26 0.0002979281    1.492    0.330
       254  -9.8347     98.9319     26.1737   2.6199765926e+01   5.7306933006e+01    0.4754867    0.1785906  53.44  0.001760532    2.742    0.635
       255  -9.9327    169.3323     23.7266   9.6168259688e+00   3.9694992907e+01    0.4313339    0.1772586  61.16  0.001571599    2.217    0.549
       256 -10.3476    154.3371     24.1064   1.2317805737e+01   4.3771307621e+01    0.4341569    0.2568876  83.98  0.001741176    2.085    0.520
       257  -9.6020     59.8717     23.3286   3.8574740850e+01   6.5067376875e+01    0.2293279    0.1541014 -42.86 0.0006626397    1.450    0.310
       258  -9.3926     91.1013     23.1431   2.7259727378e+01   5.9414295366e+01    0.1840814    0.1710602 -72.70  0.001077719    1.335    0.251
       259  -9.0893    223.7566     22.3494   2.1343094635e+00   2.5027300448e+01    0.1931832    0.1269304  64.67 0.0003963017    1.538    0.350
       260 -10.8653    178.9415     20.7609   7.1610621817e+00   3.7398262409e+01    0.5468296    0.2799446  40.14  0.002062203    2.450    0.592
       261  -9.5958      5.0361     21.9294   6.3821464267e+01   7.1085951435e+01    0.1634257    0.1472634  52.12 0.0008149074    1.541    0.351
       262  -9.1987      1.4876     20.5284   6.5189038855e+01   7.1548502983e+01    0.1140057   0.08218053 -47.90 0.0003001217    1.022    0.021
       263  -9.7731    216.1352     20.2566   2.3582304858e+00   2.7292141048e+01    0.2512507    0.2011245 -41.05 0.0007930527    1.198    0.165
       264 -12.4138      4.5864    184.0218   8.5236891349e+01   3.5608824696e+01    0.5673481    0.3054676  84.41  0.003086592    1.355    0.262
       265 -10.3605    246.5823     19.6877   3.5926622381e+02   1.9614895113e+01    0.2613619    0.1323352 -24.04  0.001135194    2.116    0.527
       266  -9.4250     28.0326    175.7454   8.0243137856e+01   3.4971003727e+01    0.1646088    0.1203542  73.67 0.0005716384    1.062    0.058
       267  -8.7385     51.5108    173.5180   7.5244628951e+01   3.2685503459e+01     0.127792   0.09363586  76.35 0.0008097262    1.054    0.051
       268  -9.4425     46.6682     20.1718   4.2710758345e+01   6.7498182698e+01    0.1912641    0.1717687  32.19 0.0009328637    1.361    0.265
       269  -9.6113     39.4770    173.5041   7.7744520945e+01   3.4159345226e+01    0.1224381   0.09076477  79.05 0.0007799201    1.007    0.007
       270 -11.3921    239.2105     16.4423   3.5908030943e+02   2.1821088106e+01    0.3892087    0.2363253  66.69  0.001796744    1.685    0.407
       271 -11.4257      9.6161    155.5363   8.2621594176e+01   4.1095918779e+01    0.3824124    0.2020209  60.82  0.002354553    1.607    0.378
       272 -10.7977     14.1609    159.6115   8.1941626336e+01   3.9804973000e+01     0.340626    0.1659427 -88.94  0.001223399    1.624    0.384
       273  -9.2888    199.0870     17.4692   3.4771373337e+00   3.2231689237e+01    0.2221684    0.1393365  71.56 0.0006897146    1.526    0.344
       274 -10.3544    186.8886     15.0145   4.2262323250e+00   3.5880594612e+01    0.2415925    0.2218292 -89.35 0.0003526738    1.015    0.014
       275 -12.2410      9.0076    166.8692   8.3463678520e+01   3.8728712306e+01    0.6168284    0.3120853  46.00  0.003643367    1.831    0.454
       276 -11.6719     11.4379    162.7523   8.2715401898e+01   3.9380978025e+01    0.3992033    0.1870824  81.63  0.002102738    1.752    0.429
       277  -9.8448    148.0609     16.0747   1.0505509635e+01   4.6458361835e+01    0.4433576    0.1318992  53.53  0.001440157    2.907    0.656
       278 -10.7956     18.9383    165.0277   8.1325642095e+01   3.8184037286e+01    0.3099717    0.2528884 -72.05     0.002273    1.441    0.306
       279 -10.1164    205.1825    163.2848   4.1280115889e+01   6.7731099566e+00    0.2377164    0.2227355  -6.93 0.0006281312    1.098    0.090
       280 -10.6061     28.0588    161.4791   7.9141924640e+01   3.8026658533e+01     0.307947     0.196546 -72.62  0.001817839    1.421    0.296
       281  -8.8512     37.6777    160.6810   7.6997808046e+01   3.7151654574e+01    0.1111717   0.08667953 -55.65 0.0006543148    1.670    0.401
       282 -12.5823     22.7059    149.1386   7.9284607052e+01   4.1295478578e+01    0.5844045    0.3257031 -48.97  0.001653023    2.524    0.604
       283 -11.0248     16.5870    147.8247   8.0545338991e+01   4.2164504992e+01    0.2699466    0.1815237  71.59 0.0003103501    1.219    0.180
       284  -9.8425     74.5896     19.6615   3.1213248372e+01   6.3151294731e+01      0.25127    0.1931269   1.51 0.0008401963    1.328    0.247
       285  -9.0581     92.5421     11.5413   2.1449272704e+01   6.0660551146e+01    0.2363171    0.1368076  69.42  0.001031436    2.435    0.589
       286  -9.3569    104.5035    155.0273   6.1083846381e+01   2.8693459477e+01    0.2085289    0.1324497 -63.95  0.001026336    1.572    0.364
       287 -10.6904      3.9760    153.7963   8.3699223537e+01   4.1951708442e+01    0.2335684    0.1209305  47.38  0.001136509    1.817    0.450
       288 -10.0759     61.4511    151.9885   7.0687104258e+01   3.6151672718e+01    0.2348754    0.1772732  53.69 0.0005120063    1.300    0.231
       289 -11.4355     47.8125    146.8949   7.3273793961e+01   3.9070601686e+01    0.5083263    0.3958985 -41.78  0.003067001    1.865    0.464
       290  -9.9922     30.4540    152.0412   7.7802470309e+01   3.9863063405e+01    0.2125945    0.1636744  -4.31  0.001277594    2.483    0.597
       291 -10.3997      3.0336    147.9306   8.3529470094e+01   4.3298817006e+01    0.2163258    0.1414036  79.34  0.001450573    1.135    0.119
       292 -11.7336     12.6825    136.7233   8.0534899808e+01   4.4992253640e+01    0.6059391    0.3858539 -80.61   0.00392034    1.210    0.173
       293 -11.0422      8.1308    148.5531   8.2464707517e+01   4.2745123108e+01    0.2973594    0.1484963 -62.56  0.001401837    1.971    0.493
       294 -11.6975      3.5331    142.1882   8.3038431186e+01   4.4516649927e+01    0.5298801    0.2696067  58.38  0.003026071    1.755    0.430
       295  -9.5244    104.2996    147.1132   5.9797698851e+01   3.0499520502e+01    0.2174325    0.1861521  46.68 0.0001754953    1.262    0.207
       296 -10.8276     33.1141    144.3433   7.6452491941e+01   4.1322672581e+01     0.270585    0.2010586  78.22 0.0008226032    1.099    0.090
       297 -10.4582     40.2784    138.5363   7.4112623068e+01   4.1879209240e+01    0.3291203    0.1932688 -79.77  0.001437103    1.418    0.295
       298 -11.1002     23.7139    137.0695   7.7956038009e+01   4.3927334128e+01    0.3733974    0.2705081  40.55  0.001442593    1.601    0.375
       299  -9.7674     20.1929    134.6124   7.8565200321e+01   4.4815184581e+01    0.2311539    0.2098439 -35.39  0.001339306    1.624    0.384
       300  -9.4159     47.2976    133.5572   7.1762322482e+01   4.2233248444e+01    0.3191457   0.09915216 -68.79  0.001248207    2.746    0.636
       301 -11.2010     30.1356    132.8743   7.5964393006e+01   4.4268101381e+01    0.3585708    0.3445179  86.72  0.001712114    1.367    0.269
       302 -10.6036     80.0410    138.3931   6.4244391371e+01   3.6595293409e+01    0.2978818    0.2360532  76.67 0.0007336819    1.145    0.127
       303  -9.1770     62.6493    131.1871   6.7516092756e+01   4.0839307349e+01     0.193405    0.1053691 -59.26 0.0008001062    1.700    0.412
       304  -8.8831    103.9384    130.7901   5.6858883827e+01   3.4310028668e+01    0.1795998    0.1150362  44.50  0.000328587    1.588    0.370
       305 -11.1344      9.8213    127.5651   8.0437601780e+01   4.7297934762e+01    0.4606814     0.245846 -63.40  0.002241539    1.679    0.404
       306  -8.5005     93.3068    129.6521   5.9346338050e+01   3.6472585766e+01    0.1534312    0.1032369  81.55 0.0004686407    1.702    0.412
       307  -9.3059     26.5263    127.8397   7.6314859491e+01   4.5788953370e+01    0.1866054   0.09747869 -75.05 0.0008398462    1.521    0.343
       308 -10.1926     22.7632    126.9903   7.7171628929e+01   4.6335733988e+01     0.181785    0.1479219  81.32 0.0003656383    1.121    0.108
       309  -9.7461     32.0524    137.5360   7.5998267015e+01   4.2995247211e+01    0.3045737    0.1832831  37.65  0.001270158    1.871    0.466
       310  -9.9986      2.0270    125.7848   8.2185332399e+01   4.8281205327e+01    0.2526197    0.1383957  81.30  0.001484514    1.496    0.332
       311  -8.9977     82.3253    125.3101   6.1389843008e+01   3.9327936877e+01    0.1344627    0.1106202 -32.59 0.0007038999    1.656    0.396
       312 -11.1886    104.4680    122.3217   5.4987234828e+01   3.6187932886e+01    0.3717052    0.3178442  67.34 0.0009281975    1.132    0.116
       313 -10.0720     19.0077    123.5144   7.7758548139e+01   4.7472534481e+01    0.2201186    0.1366483 -79.11 0.0007789739    1.243    0.195
       314  -9.6992     49.7642    122.8902   6.9642287707e+01   4.4465624651e+01    0.2609313    0.1949813 -30.03  0.001438487    2.043    0.511
