#   1 NUMBER                 Running object number                                     
#   2 MAG_AUTO               Kron-like elliptical aperture magnitude                    [mag]
#   3 X_IMAGE                Object position along x                                    [pixel]
#   4 Y_IMAGE                Object position along y                                    [pixel]
#   5 X_WORLD                Barycenter position along world x axis                     [deg]
#   6 Y_WORLD                Barycenter position along world y axis                     [deg]
#   7 A_WORLD                Profile RMS along major axis (world units)                 [deg]
#   8 B_WORLD                Profile RMS along minor axis (world units)                 [deg]
#   9 THETA_WORLD            Position angle (CCW/world-x)                               [deg]
#  10 FWHM_WORLD             FWHM assuming a gaussian core                              [deg]
#  11 ELONGATION             A_IMAGE/B_IMAGE                                           
#  12 ELLIPTICITY            1 - B_IMAGE/A_IMAGE                                       
         1 -13.1697    194.2047     30.8837   6.7664728167e+01   3.3023206374e+01     1.222346    0.9532904  67.18  0.006705729    1.181    0.153
         2 -13.8141    207.9458     13.6355   6.1846378269e+01   3.1733863650e+01     1.436743     1.042218  37.81   0.00817294    1.866    0.464
         3 -10.5424     14.8746     12.8332   1.0901784291e+02   6.9771250754e+01    0.1702129    0.1109139 -12.25 0.0005423373    1.225    0.183
         4 -12.7106      2.9147     10.3019   1.1353819345e+02   7.1088556649e+01     1.278957    0.2994707 -42.34  0.006013712    3.254    0.693
         5 -10.7025    110.0100    247.7426   1.3254949215e+02   8.6538991467e+00    0.1832598    0.1403001  55.00  0.000513338    1.076    0.071
         6 -10.2162    249.1626    249.8737   1.0687883925e+02  -1.4317131661e+01    0.1698566    0.1443203  19.75  0.000775357    1.249    0.199
         7 -10.8935     46.6170    249.0076   1.4401809764e+02   1.7669072787e+01    0.3884664    0.1995166  70.84  0.001343932    1.748    0.428
         8 -10.6643     52.0251    249.2179   1.4311703651e+02   1.6927785091e+01    0.2970627    0.1451876  70.61  0.001620052    1.968    0.492
         9 -12.9982     33.5496    246.7844   1.4603908616e+02   1.9711725562e+01    0.8739106    0.7374547  33.91  0.006318714    1.806    0.446
        10 -14.5312      9.8223    244.5394   1.4972160350e+02   2.2811802265e+01     5.145175     1.731471  33.38    0.0242776    4.208    0.762
        11 -15.2340      9.3231    152.2965   1.4263562052e+02   4.2392719239e+01     5.651896     1.674572 -78.28   0.02132348    3.499    0.714
        12 -11.0177     98.9233    249.3873   1.3479270289e+02   1.0118217616e+01    0.3212803    0.1514837  52.71  0.001630592    1.802    0.445
        13  -8.9260    152.6823    213.0214   1.1915434307e+02   7.7606409545e+00    0.1793515    0.1746437  76.11 0.0003049557    1.087    0.080
        14  -9.7016    144.4850    243.4928   1.2542756390e+02   3.6291749675e+00    0.1303207    0.1091996  51.58 0.0001483033    1.022    0.021
        15 -14.2319      8.3685    209.1823   1.4775321628e+02   2.9981843130e+01      2.91254    0.7992653 -77.29   0.01269926    3.088    0.676
        16 -10.0282    194.0455    196.9875   1.0766828332e+02   2.9157765126e+00    0.7061674    0.3172581 -61.26  0.001624158    8.631    0.884
        17 -11.3705     63.3762    195.7959   1.3571049020e+02   2.6491036180e+01    0.3561087    0.2473466 -48.28  0.001326464    1.791    0.442
        18 -11.6076     69.0068    188.1472   1.3352408328e+02   2.7442137476e+01     0.298041    0.2327479 -59.70 0.0004896934    1.334    0.250
        19  -8.8486    120.0583    188.4583   1.2210253711e+02   1.8998095232e+01    0.1960386    0.1308641  16.14 0.0008087782    2.546    0.607
        20  -8.7222    126.2690    185.7676   1.2022652957e+02   1.8445534980e+01    0.2280917    0.1192022  31.97 0.0008856392    2.390    0.582
        21 -10.8019     78.6535    175.9798   1.2960572529e+02   2.8856907464e+01    0.2656685     0.223067 -62.76 0.0004034395    1.192    0.161
        22 -13.0270     65.7667    173.5801   1.3224930336e+02   3.1288846724e+01    0.5244383    0.2770223 -45.73  0.001674688    2.326    0.570
        23 -11.7687     86.1457    166.8039   1.2635188229e+02   2.9868503474e+01    0.6776275    0.5623997  68.08  0.003794701    1.184    0.155
        24  -8.8674    180.1408    232.3952   1.1677900316e+02  -7.4173648140e-01     0.184718    0.1108005  49.08 0.0004267291    1.616    0.381
        25  -8.5803    229.7103    230.3266   1.0697485383e+02  -8.8204937790e+00    0.1089683    0.1021345  80.47 0.0003164748    1.615    0.381
        26  -9.7611     98.6545    151.0810   1.2035837036e+02   3.1552696032e+01    0.2937712    0.2679713 -52.05  0.000785421    1.131    0.116
        27  -9.2851    101.5776    147.2025   1.1882850403e+02   3.1968162185e+01    0.2517239    0.1854211 -19.30 0.0004673107    2.007    0.502
        28 -11.8320     87.2678    150.2622   1.2310647419e+02   3.3649728548e+01    0.2979569    0.2452545 -43.66 0.0006409517    1.305    0.234
        29 -12.3691     67.5080    144.1282   1.2708296889e+02   3.8080445253e+01    0.7586986    0.5347061  79.92  0.002806108    1.666    0.400
        30  -9.0813    134.3803    148.2731   1.1081531196e+02   2.5415731664e+01     0.219625     0.144438 -60.03 0.0007112368    1.614    0.380
        31 -10.0777     39.3222    147.0024   1.3477338657e+02   4.0841837336e+01    0.1927132    0.1463432 -72.24 0.0006112623    1.089    0.081
        32 -12.5314     36.9825    229.1599   1.4414757733e+02   2.2749693354e+01     0.316551    0.2688383 -81.51  0.000758615    1.342    0.255
        33  -8.5286    192.1924    144.1871   9.6748554323e+01   1.3718807726e+01    0.2021689    0.1756485 -72.02 0.0002812334    1.283    0.221
        34 -14.7447     52.9430    210.1802   1.3944660305e+02   2.4715130869e+01      6.38284     1.188448  49.81    0.0199297    5.271    0.810
        35  -9.5536    110.2478    136.4272   1.1425891531e+02   3.2944539923e+01    0.3216998    0.2379357 -23.11  0.001317122    1.806    0.446
        36 -11.3916     58.4421    134.0841   1.2766428982e+02   4.1682219169e+01    0.4698312    0.2469115 -73.44   0.00205092    2.125    0.529
        37 -10.3512     97.3340    133.6752   1.1706096270e+02   3.5929993363e+01    0.2770974     0.231974 -25.79 0.0003139498    1.402    0.287
        38 -10.4277     50.2742    130.0159   1.2914248569e+02   4.3639014647e+01    0.2285056    0.1899692  55.89 0.0006490986    1.346    0.257
        39  -9.2616     71.3049    244.9539   1.3937571174e+02   1.5093219446e+01    0.1917486   0.08154036  88.90 0.0007041384    4.277    0.766
        40 -13.9575     43.7525    220.3825   1.4217979221e+02   2.3721107358e+01     1.099946    0.6802607  66.55  0.005252479    1.383    0.277
        41  -9.0810    107.0149    123.3734   1.1207232619e+02   3.6594658619e+01    0.1976904    0.1835521  46.00 0.0003684531    1.131    0.116
        42 -11.1192     54.4843    120.4985   1.2615787253e+02   4.5374411264e+01    0.5122619    0.2313323 -73.72  0.001848152    3.318    0.699
        43 -10.4938    168.1213    113.2526   9.4292489342e+01   2.5648334732e+01    0.3626479    0.2948198 -80.03 0.0008611371    1.444    0.307
        44  -9.1697    203.4867    111.5057   8.6640587622e+01   1.7676747859e+01    0.1514524    0.1460765 -48.06 -2.279443e-05    1.043    0.041
        45 -10.5566     65.8442    249.5859   1.4076018518e+02   1.4987343707e+01    0.2504044    0.1825587  71.49 0.0007339971    1.067    0.063
        46 -11.1085     50.5535    235.0208   1.4221084715e+02   1.9870708247e+01    0.2595163    0.1919629 -80.49  0.001125346    1.272    0.214
        47 -10.5609     81.5234    249.0065   1.3792344984e+02   1.2841002290e+01    0.2379357    0.1331366  69.12  0.001305173    1.761    0.432
