#   1 NUMBER                 Running object number                                     
#   2 MAG_AUTO               Kron-like elliptical aperture magnitude                    [mag]
#   3 X_IMAGE                Object position along x                                    [pixel]
#   4 Y_IMAGE                Object position along y                                    [pixel]
#   5 X_WORLD                Barycenter position along world x axis                     [deg]
#   6 Y_WORLD                Barycenter position along world y axis                     [deg]
#   7 A_WORLD                Profile RMS along major axis (world units)                 [deg]
#   8 B_WORLD                Profile RMS along minor axis (world units)                 [deg]
#   9 THETA_WORLD            Position angle (CCW/world-x)                               [deg]
#  10 FWHM_WORLD             FWHM assuming a gaussian core                              [deg]
#  11 ELONGATION             A_IMAGE/B_IMAGE                                           
#  12 ELLIPTICITY            1 - B_IMAGE/A_IMAGE                                       
         1  -9.1684     13.0679     30.1673   7.0888437728e+01   6.8011870221e+01    0.2594205    0.1494144 -57.66  0.001092675    1.869    0.465
         2  -8.4435     55.7960     10.0275   4.2738778451e+01   6.6177195428e+01    0.1721978    0.1515116  -8.42 0.0005638725    1.287    0.223
         3  -7.9623     90.8540      8.8039   3.0295710180e+01   5.9841168924e+01    0.1572487     0.155791 -45.15 0.0004942124    1.328    0.247
         4  -7.5710     47.3754      9.6898   4.6056108050e+01   6.7493161668e+01    0.1015862   0.09991585 -77.08 0.0007030423    1.783    0.439
         5  -7.8493     13.2949      8.6744   6.2100504782e+01   7.1539044079e+01   0.09251462   0.08556513 -31.01 0.0003992569    1.624    0.384
         6  -8.2275     70.3808      6.1281   3.5501990810e+01   6.4107951628e+01    0.1637515    0.1066132 -31.19 0.0006979704    1.724    0.420
         7  -8.7136     33.4480      4.8891   4.9983026146e+01   6.9959831114e+01     0.260563    0.1707445 -48.04  0.001484114    2.602    0.616
         8  -8.4585     79.3142      3.7867   3.1527692189e+01   6.2639736382e+01    0.2113947    0.1378654 -30.30  0.001203931    1.736    0.424
         9  -7.3922    115.6747      2.3331   2.1604450700e+01   5.4912561338e+01     0.127464   0.09958122 -69.03 0.0007051104    1.711    0.416
        10  -8.2107     62.4928      1.4426   3.6060510545e+01   6.5975219510e+01    0.1822908    0.1130462  55.24 0.0005944432    2.015    0.504
        11  -9.9226    223.9268    243.9193   6.0635646950e+01  -8.2938389523e+00    0.4131334     0.218295 -42.89  0.002225366    2.586    0.613
        12  -9.6709    246.6865    228.3418   5.3921300106e+01  -9.7230088288e+00    0.4316827    0.1868546 -31.12   0.00171386    2.337    0.572
        13 -10.0855    248.8038    242.3739   5.5946080051e+01  -1.1681653188e+01    0.5242515    0.1945114 -35.51  0.002353701    2.968    0.663
        14  -8.1671    191.9298    249.6878   6.7458834724e+01  -4.1066737597e+00    0.1801723    0.1257147  34.51 0.0005836362    1.144    0.126
        15  -8.0450    125.2632    250.3535   8.0220724316e+01   6.4675172780e+00    0.1084227   0.09093781   7.24  0.000698084    1.620    0.383
        16  -8.4689     94.0999    249.2582   8.5941502922e+01   1.1382263673e+01    0.2200446    0.1242043  72.22   0.00119744    2.086    0.521
        17  -8.4489     25.7911    250.3734   9.7923186242e+01   1.9953284611e+01    0.1320406   0.08882348  38.17 0.0009478411    1.687    0.407
        18  -9.3778    210.9210    246.2919   6.3400706485e+01  -6.6221401888e+00    0.2102684    0.1731422 -52.34 0.0008204943    1.904    0.475
        19  -8.5170     13.6881    247.3223   9.9714005439e+01   2.1772606743e+01    0.1121765   0.05213303  65.18 0.0004975055    1.654    0.395
        20  -9.3665    146.7931    245.4824   7.5507362750e+01   3.7962826785e+00    0.2628563    0.1752892  66.00  0.001126529    1.929    0.481
        21 -10.3844    146.6441    239.8596   7.4801154277e+01   4.7140155130e+00    0.4427119    0.3007106 -63.24  0.001921382    1.958    0.489
        22  -8.8088     68.0717    245.3234   9.0346047416e+01   1.5714052662e+01    0.2829323    0.1266442  71.79  0.001326981    2.897    0.655
        23  -9.3308     78.2484    243.3019   8.8320956480e+01   1.4687202531e+01    0.4372701    0.1616805  62.74  0.001668268    4.037    0.752
        24  -8.6690    201.7801    242.9940   6.4594423398e+01  -4.7698918164e+00    0.2184042    0.1630087 -42.81 0.0007052345    1.754    0.430
        25  -8.8440    169.0504    243.3721   7.0911369598e+01   4.7190245033e-01    0.1964922    0.1741978 -88.71 0.0005690363    1.560    0.359
        26  -8.7894    139.3965    244.2449   7.6782410808e+01   5.1947429949e+00    0.1524582    0.1184458 -78.08 0.0008379124    1.686    0.407
        27  -8.8734    194.6352    240.5191   6.5565455817e+01  -3.2931201673e+00    0.3171866    0.2286034 -54.29  0.001287564    2.079    0.519
        28  -9.3068    183.1681    239.9043   6.7673525555e+01  -1.3399557108e+00     0.415619    0.2905001  69.32  0.002158123    2.561    0.609
        29  -9.5178    160.1940    240.2885   7.2201522423e+01   2.4017231002e+00    0.3060244     0.228844 -87.99  0.001341334    2.155    0.536
        30  -8.1883    153.5370    241.7897   7.3709408907e+01   3.2693885282e+00    0.1479664    0.1219666 -79.99 0.0007303423    1.640    0.390
        31  -8.1175     88.1385    242.1299   8.6373215670e+01   1.3492397935e+01    0.1651218    0.1147157  71.16  0.000616328    1.354    0.261
        32  -8.0443    214.1329    241.1470   6.1991946994e+01  -6.4582219865e+00    0.1568181    0.1343569  34.30 0.0006273348    1.327    0.246
        33  -8.2483    240.4883    240.0432   5.7019475728e+01  -1.0245602164e+01    0.1622319    0.1058193 -23.98 0.0007872304    1.564    0.360
        34  -9.1855    230.9410    236.5477   5.8149090786e+01  -8.4279470032e+00    0.2815599    0.1847245 -48.46  0.001133284    2.500    0.600
        35  -8.1784    209.1511    238.2101   6.2451080598e+01  -5.2958420016e+00    0.1546555    0.1364267  37.33 0.0004809242    1.351    0.260
        36  -8.5457    135.2157    238.2704   7.6844011973e+01   6.8553721520e+00     0.170247    0.1264871  60.59 0.0005198711    1.359    0.264
        37  -8.2986    129.1539    238.2041   7.8030033806e+01   7.8547410837e+00    0.1766423    0.1285585  60.27 0.0006186372    1.348    0.258
        38  -8.5994     25.6917    236.8360   9.7194509964e+01   2.2400097698e+01    0.2472386   0.09169836  74.87   0.00115947    3.085    0.676
        39  -8.7167     13.7711    237.6039   9.9230501327e+01   2.3508505673e+01    0.1515083   0.06806846  50.97 0.0009486022    1.711    0.416
        40  -8.9445    121.6332    238.2660   7.9515676967e+01   9.0559679284e+00    0.2186421    0.1598978  49.83 0.0003555509    1.122    0.109
        41  -8.7906    216.9999    235.5060   6.0540973765e+01  -6.1685837711e+00     0.180345    0.1590108  31.11 0.0007047863    1.326    0.246
        42  -9.4263    213.6862    231.6355   6.0519823754e+01  -5.1302659024e+00    0.3249771    0.2712973  81.89  0.001311298    2.331    0.571
        43  -9.0436    203.3386    234.6817   6.2982214653e+01  -3.8893478195e+00    0.2798204    0.2077202 -54.09   0.00113956    2.056    0.514
        44  -9.9986    175.6163    233.1104   6.8119250172e+01   9.2640987740e-01    0.4718154    0.2509321 -55.04  0.002255389    2.801    0.643
        45  -8.3089     47.6639    236.1200   9.3310751398e+01   2.0004189049e+01    0.1526887    0.1161638  83.34 0.0004678431    1.157    0.135
        46  -8.1048    170.1790    235.1984   6.9506015954e+01   1.5206010034e+00    0.1623699    0.1428695  62.79 0.0007235979    1.370    0.270
        47  -9.2854    108.6176    234.1023   8.1589994507e+01   1.1848160904e+01    0.3718574    0.2016858  61.42  0.001329747    2.011    0.503
        48  -8.3129     79.2221    234.9783   8.7382021625e+01   1.6065670344e+01    0.1402943   0.09225795 -74.55 0.0003783815    1.611    0.379
        49  -8.1809    123.0156    234.0261   7.8728452415e+01   9.5699839667e+00      0.20363    0.1338203  66.87 0.0007300573    1.731    0.422
        50  -8.2526     99.8205    234.0552   8.3312628418e+01   1.3213483410e+01    0.2097478    0.1218739  72.94  0.001072111    2.126    0.530
        51  -9.3989     68.5434    231.9993   8.9136254541e+01   1.8097002035e+01    0.5178966    0.2370793  72.60  0.002346044    2.925    0.658
        52  -8.1927      8.3028    234.3577   9.9971070006e+01   2.4647568281e+01   0.09180362   0.07237603 -64.23 0.0007038629    1.716    0.417
        53  -9.2970    120.0443    245.0448   8.0613190324e+01   8.1578313255e+00    0.3116743    0.1988393  87.62  0.001425095    2.271    0.560
        54  -9.0431    140.1532    230.0296   7.4770164914e+01   7.4330330406e+00    0.3115828    0.1408789  52.96  0.001057829    2.395    0.582
        55  -8.5723    132.8046    232.6828   7.6603239998e+01   8.2015707763e+00    0.2259731    0.1540543  78.21  0.001148819    2.028    0.507
        56  -8.5005     92.7433    231.7357   8.4450399870e+01   1.4706089149e+01    0.3095107    0.1592403  69.70    0.0011073    2.552    0.608
        57  -8.3158    194.0977    232.3104   6.4376852856e+01  -2.0438088690e+00    0.1797118    0.1411209  33.04  0.000591605    1.105    0.095
        58  -9.6520    186.3809    230.4618   6.5587214636e+01  -4.8500420274e-01    0.3186786    0.2480978 -77.34  0.001260035    2.266    0.559
        59  -8.0080    157.9630    231.9836   7.1461968014e+01   4.0932537246e+00    0.1913287    0.1440273  64.37  0.000500888    1.611    0.379
        60  -8.7683    235.9233    230.4572   5.6212148149e+01  -8.4071556790e+00    0.2305998    0.1588811 -28.28 0.0008754504    1.543    0.352
        61  -8.7879      1.8180    230.6794   1.0086331026e+02   2.5944888391e+01    0.2139283   0.08588717  72.15  0.001224294    2.122    0.529
        62  -8.4807    229.5958    228.7547   5.7071049180e+01  -7.2325002022e+00    0.1483613    0.1131269 -34.84 0.0007065069    1.595    0.373
        63  -8.6828    162.0734    227.5661   6.9983193102e+01   4.1121870814e+00     0.252782    0.1927201  71.68  0.001324233    1.791    0.442
        64  -8.7830    127.8874    227.1112   7.6867015870e+01   9.9966447483e+00    0.3280465    0.1896221  62.57  0.001373697    2.103    0.524
        65  -8.1311    223.4648    226.9971   5.7901042632e+01  -6.0498907119e+00     0.170745    0.1167422 -29.31 0.0005549148    1.563    0.360
        66  -8.3620    120.0032    227.2274   7.8485058525e+01   1.1273442624e+01    0.1771313    0.1295381  81.28 0.0004849874    1.622    0.383
        67  -8.3074     49.6270    226.8080   9.2256129152e+01   2.1531707967e+01    0.2553207    0.1108774  76.86   0.00116121    2.929    0.659
        68  -8.6775    206.0886    225.4844   6.0933271190e+01  -3.0415191306e+00    0.2534337    0.1723935 -45.34  0.001226409    1.896    0.473
        69  -8.4169    200.2290    226.0233   6.2157213822e+01  -2.1479745689e+00     0.171978    0.1513679  -0.59 0.0004657663    1.161    0.138
        70 -10.0542    149.7610    226.0983   7.2265086517e+01   6.4740665379e+00    0.6186801     0.376216 -86.15  0.002423455    4.132    0.758
        71  -8.7445    180.5660    223.8031   6.5672402063e+01   1.5286952781e+00    0.2578612    0.2059806  55.06 0.0009518363    1.449    0.310
        72  -8.3223    113.5562    223.9816   7.9390999510e+01   1.2918082927e+01    0.1710601    0.1257871 -67.48 0.0005309999    1.541    0.351
        73  -8.8311    104.8818    223.6553   8.1121458353e+01   1.4362365890e+01    0.2901947    0.1887927  85.36  0.001551473    1.912    0.477
        74  -8.4942     93.7924    223.7294   8.3376826477e+01   1.6059917069e+01    0.2314697     0.139154  77.08 0.0009507398    2.010    0.502
        75  -8.0628     38.4443    224.5052   9.4151485263e+01   2.3311282929e+01    0.1181434   0.08413027  70.37 0.0001545716    1.086    0.079
        76  -8.5948    173.0293    222.6002   6.6996780081e+01   3.0271595402e+00    0.2233144     0.187521 -73.20 0.0008418256    1.671    0.401
        77  -8.9841    159.4341    220.5044   6.9442796737e+01   5.7520469673e+00    0.3984661    0.2018545  56.33  0.001663475    2.645    0.622
        78  -7.5331     59.6592    223.3321   9.0071717249e+01   2.0941455596e+01    0.1310964   0.07095784  65.90 0.0007051437    1.748    0.428
        79  -8.9070    238.8851    221.1644   5.4046781433e+01  -7.6584802450e+00     0.248837    0.1629899 -38.73 0.0008158163    1.846    0.458
        80  -9.1923    225.8958    221.7616   5.6535669680e+01  -5.7249498816e+00    0.3095742    0.2097234  47.75  0.001615979    1.823    0.451
        81  -9.3317    192.3131    220.9944   6.2866579554e+01  -5.5754276072e-02    0.2994322     0.256305 -68.58  0.001139302    1.741    0.426
        82  -8.3781     82.7485    220.4397   8.5245204069e+01   1.8336534937e+01    0.2423417    0.1303851  70.96  0.001172887    2.222    0.550
        83  -7.9837     73.4390    220.9091   8.7154480986e+01   1.9566844720e+01     0.175787    0.0899852  81.47    0.0008067    2.583    0.613
        84  -7.8691     27.4133    220.8207   9.5912594146e+01   2.5260449146e+01    0.1507542    0.0870214 -68.38 0.0009490065    1.737    0.424
        85  -8.1874    202.8608    220.0630   6.0632666180e+01  -1.7103898732e+00    0.1862319    0.1659626  38.16 0.0004968767    1.274    0.215
        86  -9.1404    120.5735    219.1498   7.7318960631e+01   1.2674839545e+01    0.4517374    0.2242624  62.59  0.001831543    2.927    0.658
        87  -8.7441    216.4038    223.0702   5.8547944603e+01  -4.3858510373e+00    0.2356266    0.2051429 -63.69 0.0009421429    1.877    0.467
        88  -8.3944    210.0395    219.0186   5.9058304629e+01  -2.7607027092e+00    0.1772311    0.1583771  62.92 0.0004501537    1.621    0.383
        89  -9.2352    248.6230    217.7290   5.1688454728e+01  -8.6706645223e+00    0.2358189    0.1923247  69.70  0.001338235    2.694    0.629
        90  -8.1961    179.6478    217.8886   6.4887053880e+01   2.6353823917e+00    0.2230698    0.1383563  68.01 0.0008910185    3.440    0.709
        91  -9.2062    132.7991    215.7683   7.4287178986e+01   1.1240804827e+01    0.4686922    0.2841862  78.64  0.001982643    2.995    0.666
        92  -8.2890     62.2048    217.2601   8.9031422923e+01   2.1812934659e+01    0.2997141    0.1245702  62.49   0.00104876    2.773    0.639
        93  -8.9057     51.3948    217.0697   9.1131106338e+01   2.3231605160e+01    0.2526637    0.1428811  80.10 0.0008457352    1.745    0.427
        94  -8.6331    169.4153    216.0626   6.6678695098e+01   4.7462557260e+00    0.2739488    0.2145944 -84.25  0.001013544    1.969    0.492
        95  -8.8344    142.8514    216.2168   7.2237937955e+01   9.4142279358e+00    0.3150157    0.2179545  82.04  0.001216492    2.204    0.546
        96  -7.7432    112.3011    217.5966   7.8840485100e+01   1.4331310318e+01    0.1393488   0.09010404  71.27 0.0006993049    1.837    0.456
        97  -7.6100     18.4975    216.5168   9.7254139449e+01   2.7035969937e+01    0.1122549   0.08263308  75.39 -8.092596e-05    1.002    0.002
        98  -8.7117    232.4144    214.5376   5.4032611900e+01  -5.7659966409e+00    0.2160282    0.1999891  32.91 0.0008457092    1.434    0.303
        99  -8.2754    154.0099    214.7689   6.9674270935e+01   7.7085393567e+00    0.2206957    0.1403428  61.09 0.0008385647    1.983    0.496
       100  -9.3605    214.1797    211.6019   5.6937267851e+01  -2.3617656154e+00    0.4159577    0.3969916 -73.78  0.001809802    1.557    0.358
       101  -8.4688    185.5034    214.1206   6.3062605763e+01   2.2155179380e+00     0.202217    0.1752834  50.58 0.0008287022    1.303    0.232
       102  -8.9347     92.9924    213.6801   8.2388418680e+01   1.8152007154e+01    0.2830719    0.1669866  73.65  0.001265603    2.057    0.514
       103  -9.2829     72.9409    211.6053   8.6311578247e+01   2.1504261822e+01    0.6236787    0.2320991  60.88  0.002232853    3.951    0.747
       104  -8.7880    161.5425    212.0745   6.7663498572e+01   6.8409431688e+00    0.2524086    0.2125435  86.18 0.0009170847    1.568    0.362
       105  -7.9550    224.8663    212.3658   5.5041496699e+01  -4.2475822733e+00    0.1674664    0.1490113  -4.35 0.0004902154    1.196    0.164
       106  -9.0538    204.2227    210.7068   5.8716703881e+01  -5.2318057266e-01    0.2727329    0.2086526 -42.97 0.0006865055    1.574    0.365
       107  -7.8489    106.4935    212.5286   7.9407323050e+01   1.6261368858e+01     0.134941    0.1108504  61.25 0.0008087679    1.078    0.072
       108  -9.3216     47.5691    210.6938   9.1338458417e+01   2.4992598202e+01    0.4167071    0.1753093  69.51  0.001810841    2.982    0.665
       109  -9.3670    175.5716    209.6937   6.4338527273e+01   4.7268075621e+00    0.3850947    0.2796012  75.88  0.001623684    2.322    0.569
       110  -8.6266    148.0003    210.2424   7.0230613397e+01   9.5984069098e+00    0.2935726    0.2090926  84.04  0.001193446    2.143    0.533
       111  -8.9343    116.5118    210.2434   7.6968662035e+01   1.5067578873e+01    0.3320366    0.2048163  72.16  0.001074625    2.169    0.539
       112  -8.4992     32.6187    210.5282   9.4229409411e+01   2.6749334590e+01     0.272456    0.1159612  70.04  0.001307064    2.531    0.605
       113  -8.3100    192.1945    210.2115   6.1027488719e+01   1.6638801808e+00    0.1702702    0.1574111  56.46 0.0004458721    1.344    0.256
       114  -8.3768     85.7869    209.4696   8.3404999485e+01   2.0090855841e+01    0.2553011    0.1394556  71.81   0.00117879    2.309    0.567
       115  -9.1215      6.2952    208.8419   9.9006851536e+01   2.9730441857e+01    0.3286197      0.10777  77.01   0.00137796    3.695    0.729
       116  -9.2444    236.5490    207.6674   5.2005127578e+01  -5.4675342987e+00    0.3657371    0.2355058 -44.69  0.001473531    2.047    0.512
       117  -9.2372    246.4130    206.8094   5.0064375738e+01  -6.8933817398e+00    0.2991043     0.192523 -19.88 0.0007333523    1.453    0.312
       118  -9.3045    250.1668    201.7872   4.8449505913e+01  -6.7849257726e+00     0.339973    0.1669563 -30.71   0.00113643    1.937    0.484
       119  -8.2200    139.0565    207.9827   7.1791545568e+01   1.1613903227e+01    0.2175667    0.1579858  74.13 0.0008682565    1.765    0.434
       120  -8.0342    126.4178    208.1836   7.4545778817e+01   1.3787990750e+01    0.1779348    0.1283554 -77.21 0.0005050236    1.707    0.414
       121  -7.7444    156.4841    207.5565   6.7990906372e+01   8.5634156267e+00    0.1389652    0.1209373  42.01 0.0001910808    1.044    0.042
       122  -9.1550     99.3188    205.7467   8.0063740562e+01   1.8775756745e+01    0.3834256    0.2252309  83.58  0.001240976    2.426    0.588
       123  -8.5494     56.4407    205.4401   8.9079891789e+01   2.4981190403e+01    0.2838808    0.1372923  67.48 0.0009190238    2.302    0.566
       124  -9.2489    194.6781    203.4418   5.9304961125e+01   2.3240011798e+00    0.3277006     0.280313 -57.64  0.001111946    1.556    0.358
       125  -9.3449    192.3969    197.1924   5.8610454041e+01   3.7863301681e+00    0.3817928    0.3074993 -83.65  0.001239453    2.046    0.511
       126  -9.0175    183.7509    203.6827   6.1587515525e+01   4.2674603651e+00    0.3234539    0.2450585  65.34  0.001117609    1.836    0.455
       127  -8.0396    109.0775    205.0141   7.7852252609e+01   1.7348185224e+01    0.2168658    0.1449442  70.26 0.0006538756    1.700    0.412
       128  -9.7220    163.9638    202.8594   6.5603460860e+01   8.0508410643e+00    0.4877707    0.2714536  55.54  0.001283096    2.200    0.545
       129  -8.8704    131.1863    203.6892   7.2835429631e+01   1.3836524425e+01    0.2835426    0.2015474  77.51   0.00121788    1.831    0.454
       130  -9.0533    243.1104    200.8746   4.9529774219e+01  -5.5558810181e+00    0.2790369     0.172632 -34.45  0.000918238    1.650    0.394
       131  -8.5029    211.0517    201.6763   5.5710314897e+01  -3.0647408871e-01    0.2572663    0.2112983 -72.23  0.001190856    2.055    0.513
       132  -8.8651    140.5957    200.9827   7.0348266081e+01   1.2685072474e+01    0.3513511      0.23823  72.19   0.00128569    2.050    0.512
       133  -8.0010    222.3542    201.2203   5.3439394164e+01  -2.1899242967e+00    0.1746448    0.1191479 -42.04  0.000531988    1.721    0.419
       134  -8.3266     79.5432    200.9934   8.3743467175e+01   2.2774020173e+01    0.2807651    0.1202792  63.22   0.00103508    3.438    0.709
       135  -9.4956    149.6134    198.5379   6.7966577343e+01   1.1509802119e+01    0.4221149    0.2914574  83.67  0.001518793    2.385    0.581
       136  -8.8738    123.9799    198.9717   7.3697199382e+01   1.6045254494e+01    0.3105635    0.2094872 -86.87  0.001152585    2.060    0.515
       137  -9.2140    113.0386    198.3620   7.6037464047e+01   1.8052418262e+01    0.4552698    0.2506826  68.35  0.001747445    2.737    0.635
       138  -9.2144    237.0587    198.0538   5.0084944782e+01  -4.1767477142e+00    0.3190415    0.1713871 -38.98  0.001172421    1.993    0.498
       139  -8.3889    177.0689    198.7205   6.2086406762e+01   6.3645612824e+00    0.2132197    0.1932902 -62.38 0.0005082803    1.362    0.266
       140  -9.0186     88.6194    198.2555   8.1430818694e+01   2.2005476681e+01    0.3491841    0.2127362  80.05  0.001404187    2.028    0.507
       141  -8.4272    202.3375    197.6251   5.6672959522e+01   1.8970801077e+00    0.2355242    0.2071385  81.30  0.001336858    1.691    0.409
       142  -8.8679     61.3270    196.8739   8.7195060813e+01   2.6169270770e+01    0.3895595    0.2003767  69.32  0.001539642    2.234    0.552
       143  -8.2579     12.8038    197.2263   9.7100187533e+01   3.1496033672e+01    0.2009893   0.07547969  65.37 0.0008180304    2.729    0.634
       144  -9.4367    245.8764    193.6777   4.7642677842e+01  -4.9728795477e+00     0.390337    0.2961351 -67.96   0.00195369    2.909    0.656
       145  -8.1712    133.1431    195.8614   7.1165208150e+01   1.5047057416e+01    0.2138221    0.1762915  68.60  0.000600214    1.288    0.223
       146  -7.7235     36.3156    196.6322   9.2399988864e+01   2.9236160045e+01    0.1320467   0.07115004  69.42 0.0007037514    1.777    0.437
       147  -8.8078    224.7139    194.0396   5.1606302349e+01  -1.4981351363e+00    0.3051005    0.1643465 -44.81  0.001325264    2.247    0.555
       148  -7.8205    209.3597    195.1948   5.4807810564e+01   1.0269769747e+00    0.1813408    0.1257818 -45.10 0.0006715551    1.707    0.414
       149  -8.9021    185.0495    194.5992   5.9646242738e+01   5.6016238910e+00    0.2346211    0.1996308 -61.63  0.000691118    1.521    0.342
       150  -8.8593    160.8959    193.9526   6.4697111008e+01   1.0278680714e+01     0.304982    0.2396334  83.68  0.001010329    1.788    0.441
       151  -8.1698    231.1349    194.1748   5.0425064149e+01  -2.6165453479e+00    0.1647834    0.1570075 -16.41 0.0004690495    1.327    0.247
       152  -8.6854     77.1844    193.8399   8.3400855165e+01   2.4648921038e+01    0.2484162     0.180782  65.53 0.0006568433    1.274    0.215
       153  -8.8483     43.7706    193.2657   9.0557426119e+01   2.9114849880e+01    0.3674268     0.172442  69.66  0.001713624    2.438    0.590
       154  -8.3972    198.9613    191.7523   5.6228654000e+01   3.4970813801e+00    0.2193872    0.1826552 -54.11 0.0005560743    1.537    0.349
       155  -8.4494    172.3061    191.6117   6.1792625805e+01   8.5519573072e+00    0.2372445    0.1756483 -56.93 0.0006112893    1.665    0.399
       156  -9.2296    139.7062    190.4487   6.8786612656e+01   1.4941519778e+01    0.4086147    0.2757767  81.42  0.001229416    2.341    0.573
       157  -8.7178    215.9427    195.4715   5.3570245843e+01  -1.8956463451e-01    0.2358861    0.1864526 -49.57 0.0007713509    1.653    0.395
       158  -8.0295    205.4050    191.2840   5.4835756697e+01   2.3869514931e+00    0.1793113     0.131206 -45.65 0.0009385221    1.606    0.377
       159  -8.0481    179.1540    191.2449   6.0257402169e+01   7.3150101537e+00    0.1831232    0.1678721  72.41 0.0005074638    1.337    0.252
       160 -10.3929     92.5557    188.8360   7.9291524156e+01   2.3429436129e+01    0.9394092    0.2504688  47.86  0.003013254    3.862    0.741
       161  -8.6951     21.9615    191.4840   9.4896269259e+01   3.1830971230e+01    0.1770505   0.06147485  53.88 0.0008097683    2.705    0.630
       162  -7.9420      6.3543    190.6776   9.7923841333e+01   3.3439386859e+01    0.1231318   0.06171844  66.43 0.0007046732    1.759    0.431
       163  -8.9328    216.5363    187.8372   5.1955124000e+01   9.2740085510e-01     0.261463    0.2262452 -46.92 0.0007962482    1.446    0.308
       164  -8.3245    148.5733    189.2643   6.6584955868e+01   1.3519969570e+01    0.2149338    0.1662874  79.51  0.001070798    1.697    0.411
       165  -8.8252    129.2985    188.3544   7.0794348631e+01   1.7283026076e+01    0.3015555    0.2296424 -87.03 0.0009331663    1.627    0.385
       166  -8.1030    237.3655    188.2722   4.8110433649e+01  -2.7782468012e+00    0.1740245    0.1164974 -37.44 0.0005829781    1.572    0.364
       167  -8.8984    191.3939    187.0235   5.6864328092e+01   5.7403688548e+00    0.3280354    0.2386343 -69.20 0.0009986545    2.263    0.558
       168  -9.2208    155.8779    187.3183   6.4599195957e+01   1.2515833309e+01    0.3103498     0.210681 -58.30 0.0008137217    1.765    0.433
       169  -9.5068    120.6733    186.0885   7.2400780487e+01   1.9310941590e+01    0.4870935    0.2804644 -76.13  0.001985005    2.645    0.622
       170  -9.1695     54.7395    186.4636   8.7510846875e+01   2.9285770742e+01    0.4428551    0.2114855  78.19  0.001748345    2.918    0.657
       171  -9.1685     34.0268    187.5373   9.2086507381e+01   3.1445544652e+01    0.3123355    0.1492831  80.04  0.001408221    2.315    0.568
       172  -8.8414    249.5536    185.4635   4.5369455891e+01  -4.3751578548e+00    0.3145064    0.1958012 -46.23  0.001609352    2.085    0.520
       173  -8.0929    230.4982    187.0658   4.9137749760e+01  -1.4205539044e+00    0.1948005      0.12468 -34.73 0.0007972031    1.563    0.360
       174  -8.7054    164.9308    186.5089   6.2441829894e+01   1.0931141611e+01    0.2530265    0.2069505 -73.50 0.0007369224    1.592    0.372
       175  -9.1583    109.6396    186.0100   7.4941745456e+01   2.1248667683e+01    0.3843814    0.2362492  71.32  0.001189442    2.192    0.544
       176  -8.6893    202.7451    184.3625   5.4001770112e+01   4.0532089467e+00    0.2898164    0.1874289 -54.25 0.0008757887    2.129    0.530
       177  -8.7731    183.1455    184.9133   5.8187261608e+01   7.7040295196e+00    0.2461738    0.2358277 -83.03 0.0008183622    1.279    0.218
       178  -9.1803     67.0017    184.3998   8.4531698869e+01   2.8152030423e+01    0.4108773    0.2009281  59.48  0.001114245    2.263    0.558
       179  -8.4201    224.1825    183.5602   4.9622902318e+01   2.4373781243e-01     0.217654    0.1733886 -35.13 0.0005525801    1.336    0.252
       180  -8.4768    210.1439    184.1374   5.2471193673e+01   2.7077939560e+00    0.2084192    0.1731968   2.72 0.0004250593    1.135    0.119
       181  -8.2894    197.1286    183.4745   5.4971852453e+01   5.2730487609e+00    0.2488395    0.1694632 -61.22  0.000724559    2.267    0.559
       182  -8.9390    174.2595    183.4600   5.9815082933e+01   9.7011932656e+00    0.2784041    0.2401474 -88.41 0.0005680099    1.538    0.350
       183  -8.2516      1.8005    183.7529   9.8378045317e+01   3.5277692230e+01     0.162966   0.09911609  69.02  0.001065584    1.382    0.277
       184  -8.0231    242.6909    183.3070   4.6151774184e+01  -2.9246358064e+00    0.1161933    0.1080552 -64.78 0.0002777759    1.614    0.380
       185  -9.1972     44.3578    182.0824   8.9339628145e+01   3.1503171228e+01    0.3157319    0.1633887  77.45 0.0009912653    2.195    0.544
       186  -7.5301     19.3103    182.6361   9.4756774957e+01   3.3990242256e+01    0.1283305   0.06866938  70.14 0.0007039481    1.752    0.429
       187  -7.7683    235.3826    181.1966   4.7048811565e+01  -1.3557646367e+00    0.1848591    0.1186644 -41.97 0.0007854822    1.726    0.420
       188  -9.2413    147.4256    180.3208   6.5213676821e+01   1.5549423992e+01    0.3554529    0.2676593  84.72   0.00108281    1.850    0.459
       189  -9.6768     25.7084    178.7499   9.3084611205e+01   3.4228118144e+01    0.6311653    0.2337485  80.31  0.002201208    4.575    0.781
       190  -8.7074    137.6586    179.1243   6.7248463741e+01   1.7667535286e+01    0.3029956    0.2117215  66.85  0.001054235    1.772    0.436
       191  -8.7174    250.5206    172.4579   4.2559791661e+01  -2.5966362134e+00    0.2762404    0.1619976 -27.72 0.0008871139    1.562    0.360
       192  -9.3522    249.0603    177.3300   4.3812968592e+01  -3.0885757808e+00    0.3247925    0.2659787 -48.53  0.001271908    1.620    0.383
       193  -8.6003    247.3213    173.6803   4.3367607654e+01  -2.2436564170e+00    0.2060139    0.1763542 -26.79 0.0006582011    1.212    0.175
       194  -9.4594    191.6074    178.1618   5.5045820089e+01   7.2906526644e+00    0.3269422    0.2774293  81.90 0.0006196153    1.670    0.401
       195  -9.2371     35.9912    176.6176   9.0642589062e+01   3.3651839423e+01     0.497662    0.2023914  79.94  0.001802415    4.047    0.753
       196  -8.4592    205.2278    177.4022   5.2083021014e+01   4.7872411225e+00    0.2176688    0.1660398 -39.65 0.0003836842    1.393    0.282
       197  -8.1700    169.1963    178.2021   5.9892721594e+01   1.1706781357e+01    0.1933026    0.1746305  88.48 0.0005543995    1.352    0.260
       198  -8.7909    129.2960    177.2278   6.8864009574e+01   1.9643351035e+01     0.345267    0.2233392  83.76  0.000999672    2.577    0.612
       199  -8.4741    231.1722    176.7599   4.6916269329e+01   8.4363437291e-02    0.2320366    0.1683271 -38.15 0.0007798215    1.444    0.308
       200  -8.4732    217.3210    176.7824   4.9555666911e+01   2.6075623087e+00    0.2439984    0.2050851 -53.93 0.0008241722    1.539    0.350
       201  -9.1000    183.0529    175.9907   5.6420709321e+01   9.3793031320e+00    0.3010233    0.2337888 -56.19 0.0005912901    1.564    0.361
       202  -8.7838     89.0026    176.6898   7.8369807580e+01   2.6691582744e+01    0.2937698    0.1862853  79.99 0.0007813238    1.984    0.496
       203  -9.9620     57.5569    173.2350   8.5346743265e+01   3.1916518198e+01    0.8366807    0.3714693  80.25  0.002683836    4.808    0.792
       204  -8.6741     12.7957    176.5423   9.5644753473e+01   3.5906623135e+01    0.2924745    0.1259718  58.43  0.001503855    2.275    0.560
       205  -8.5425    211.5225    176.0524   5.0543396054e+01   3.8209735248e+00    0.2071183    0.1352966 -37.05 0.0007291142    1.553    0.356
       206  -9.2475    158.6432    174.6638   6.1561390621e+01   1.4506520852e+01    0.3915642      0.28563 -87.79  0.001098977    2.164    0.538
       207  -9.3649    104.2047    174.3758   7.4362215788e+01   2.4744757712e+01    0.5527403    0.2918197  64.91  0.001707795    2.856    0.650
       208  -8.6038    224.7223    174.2718   4.7610810406e+01   1.6556219366e+00    0.2423333    0.1806497 -53.98 0.0009537906    1.814    0.449
       209 -10.6106     75.8274    169.8156   8.0531102535e+01   3.0241871373e+01       1.2323    0.4468721 -74.19  0.003679777    4.804    0.792
       210  -9.5476    175.7523    172.0423   5.7198673547e+01   1.1596234006e+01    0.3737274    0.2973013 -56.20 0.0009751049    1.474    0.322
       211  -8.1904    142.9984    172.5497   6.4765771820e+01   1.8030665491e+01    0.2469098    0.1963878 -84.91 0.0007512512    1.590    0.371
       212  -8.4617    134.8162    171.6831   6.6533850708e+01   1.9798094708e+01    0.2700394    0.1922367 -88.67  0.001004897    2.015    0.504
       213  -9.1169    230.3561    169.2251   4.5493444362e+01   1.4514885252e+00    0.4411755    0.2119386 -44.17  0.001868408    2.313    0.568
       214  -9.4564    121.3194    170.2543   6.9508942986e+01   2.2645664753e+01    0.3522919    0.2543094 -86.35 0.0008994382    1.785    0.440
       215  -9.1028     45.1346    170.8528   8.7962511250e+01   3.3951970122e+01    0.2856564    0.1573864  75.10  0.001398822    2.039    0.510
       216  -8.3863    205.8642    170.1269   5.0432789802e+01   5.9440464454e+00    0.2087734    0.1988657 -63.45 0.0007000154    1.309    0.236
       217  -8.6099    198.3691    169.9853   5.1935421848e+01   7.4464815288e+00    0.2416343    0.2095729  72.11 0.0007732776    1.521    0.343
       218  -8.5697    149.9396    169.4647   6.2534541129e+01   1.7313113752e+01    0.2720469    0.2129252 -75.24 0.0008802927    1.620    0.383
       219  -7.6425     68.3510    170.6488   8.2452261349e+01   3.1096299485e+01    0.1476237   0.09097659  70.67 -0.001317571    1.833    0.454
       220  -8.5286    244.7893    169.2110   4.2883366006e+01  -1.1196075269e+00    0.1934395    0.1801309 -23.51 0.0006588723    1.246    0.197
       221  -8.4651    237.0368    169.3427   4.4293763700e+01   2.2429755198e-01    0.1887171    0.1682308  10.13 0.0007283105    1.095    0.086
       222  -8.5854    218.8315    168.2729   4.7474556956e+01   3.7629835703e+00    0.2250307    0.1871266 -39.84 0.0005225033    1.304    0.233
       223  -9.2859    167.0459    168.4827   5.8403168151e+01   1.4064821257e+01    0.3693644    0.2540591  67.19  0.001282758    2.055    0.513
       224  -7.9615    211.4654    168.0031   4.8859497366e+01   5.2264971612e+00    0.1972044    0.1238672 -59.19 0.0008084186    2.589    0.614
       225  -8.4376    111.7769    167.2878   7.1302830593e+01   2.5035369048e+01    0.2752456     0.188885 -89.71 0.0009450289    1.945    0.486
       226  -8.0622     88.7336    168.6095   7.7197711364e+01   2.8583669241e+01    0.1948791    0.1202321  49.71 0.0007928419    1.591    0.372
       227  -9.0199    191.8704    166.3285   5.2515652351e+01   9.4255267048e+00    0.3246592    0.2078149 -46.20 0.0007049903    1.697    0.411
       228  -8.4690    185.1391    166.5967   5.4010287572e+01   1.0743077577e+01    0.2464239    0.2019892 -51.82 0.0006416115    1.387    0.279
       229  -9.5751    137.1729    164.4941   6.4574522711e+01   2.0904077699e+01     0.665992     0.318798  58.32  0.002154626    3.181    0.686
       230  -9.9392     94.8357    162.4438   7.4671025863e+01   2.9039172219e+01    0.8502188    0.4635653  78.37   0.00286112    3.800    0.737
       231  -9.3582     20.4411    165.9385   9.3103200180e+01   3.7583756632e+01    0.2967184    0.1387706  58.20  0.001385799    2.201    0.546
       232  -8.6797    234.1447    164.9038   4.3879135238e+01   1.4651834203e+00    0.2007756    0.1806503 -43.54 0.0006391753    1.326    0.246
       233  -8.7472    159.3652    164.0087   5.9226039458e+01   1.6547463805e+01    0.2973528    0.2299974 -72.26  0.000872779    1.684    0.406
       234  -8.9954    246.1296    162.7358   4.1286225962e+01  -3.3727971712e-01    0.3098004     0.157285 -36.79 0.0007209677    1.837    0.456
       235  -9.6057    242.1848    154.2362   4.0149022166e+01   1.7335176805e+00     0.515268    0.3391974  73.54  0.002113185    3.399    0.706
       236  -9.8588    250.1671    157.6754   3.9518385154e+01  -2.4841877950e-01    0.3494449    0.1905643 -37.53 0.0008224653    1.708    0.414
       237  -9.0509    246.7220    155.6217   3.9665000980e+01   6.8825546948e-01    0.2546683    0.1641347  -7.68  0.000806081    1.829    0.453
       238  -8.7964    213.0502    163.4827   4.7573668035e+01   5.7106095448e+00    0.2703891    0.2195647 -61.58 0.0009244024    1.658    0.397
       239  -8.3734     57.0164    163.6693   8.4262177736e+01   3.4199068433e+01     0.389308    0.1930743  14.05  0.001384219    4.606    0.783
       240  -9.7108     33.4825    163.0696   8.9826896919e+01   3.6991322363e+01    0.5213556    0.2047488  55.27  0.002237249    2.910    0.656
       241  -8.6091    221.8596    162.0662   4.5559116964e+01   4.2454870839e+00    0.2826364    0.1764043 -38.10  0.000892234    1.579    0.367
       242  -8.6067    204.9422    162.4984   4.8980116880e+01   7.4947475187e+00    0.2606194    0.1987712 -51.05 0.0005683886    1.538    0.350
       243  -9.2904    177.2195    160.6228   5.4455208979e+01   1.3540412496e+01    0.3782094    0.2725836 -39.09  0.001212147    1.429    0.300
       244  -9.4560      3.4445    162.1283   9.6546331793e+01   3.9832624393e+01    0.3962765    0.1570445  58.25  0.001759509    2.637    0.621
       245  -8.8455    151.6495    160.7176   6.0340437780e+01   1.8818053769e+01    0.3467495    0.2503454 -78.21  0.001242056    2.010    0.503
       246  -8.5093     61.1975    160.4905   8.2802637019e+01   3.4415158299e+01    0.3261098    0.1789285  67.26  0.001454671    2.283    0.562
       247  -9.2621    241.7480    159.9661   4.1461175600e+01   8.8486368007e-01    0.1950165     0.158093 -18.61 0.0004270367    1.101    0.092
       248  -8.7138    227.4772    159.1015   4.3856785164e+01   3.6754178248e+00    0.3092924    0.2127647 -55.45  0.001231139    1.992    0.498
       249  -8.4762    237.2178    159.1797   4.2095870560e+01   1.8380911133e+00    0.1805677     0.164476 -49.47  0.000636011    1.350    0.260
       250  -8.3686    128.2998    158.9418   6.5635231664e+01   2.3859949428e+01    0.2784745    0.2024125  66.76   0.00127069    1.639    0.390
       251  -9.5441    105.5941    157.8167   7.1126009998e+01   2.8298872498e+01    0.4244668    0.2927807  78.67  0.001087497    1.902    0.474
       252  -8.6577    196.7694    157.5595   4.9574307230e+01   1.0069191676e+01    0.2773324    0.1920938 -55.71 0.0009487041    1.819    0.450
       253  -8.3103    188.2896    157.6025   5.1377087468e+01   1.1821854780e+01    0.2632595    0.1787513 -50.78  0.000698617    1.673    0.402
       254  -9.2081    167.6155    157.0481   5.5836144597e+01   1.6272199799e+01    0.3662561    0.2761393 -77.12  0.001156606    1.918    0.479
       255  -9.5505     81.7120    154.8099   7.6725043813e+01   3.2896707448e+01    0.4030485     0.267582  76.70  0.001312908    1.858    0.462
       256  -8.6084    217.9834    156.4807   4.5079589320e+01   5.9700230604e+00    0.2817737    0.1896059 -49.88 0.0009745513    1.752    0.429
       257  -8.8202    157.7874    156.0078   5.7886054376e+01   1.8548299755e+01    0.3254237    0.2103534 -53.75 0.0009476969    1.721    0.419
       258  -9.0974    119.5294    155.1218   6.7067999398e+01   2.6395524594e+01    0.3848532    0.2683516 -87.08   0.00145243    2.002    0.501
       259  -9.3493     49.7981    155.0826   8.4912577836e+01   3.7084817202e+01    0.3918401    0.1983393  62.43  0.001578169    2.444    0.591
       260  -7.9869    204.8592    155.1120   4.7367552032e+01   8.8592323438e+00    0.2292004    0.1664827 -63.66 0.0007756545    1.987    0.497
       261  -8.8559    144.4526    154.6013   6.0768110007e+01   2.1608754974e+01    0.2893497    0.2508201 -88.88 0.0008151414    1.345    0.256
       262  -9.6606     68.1354    153.7003   8.0049438726e+01   3.5105374490e+01    0.4278361     0.249639  71.59  0.001436435    2.261    0.558
       263  -9.6636    132.8282    152.7389   6.3234529680e+01   2.4365532488e+01    0.4721248     0.321212  68.97  0.001122241    1.981    0.495
       264  -9.3246    133.7908    148.1661   6.2015846303e+01   2.5200056023e+01    0.4024311    0.2399773 -42.55  0.001470002    1.761    0.432
       265  -8.0408    232.5157    153.5219   4.1710464328e+01   3.6574881140e+00    0.1412473    0.1271134 -11.01  4.08617e-05    1.030    0.029
       266  -9.8844     29.0730    149.7550   8.9418510000e+01   4.0506095598e+01    0.5957086    0.2696737  84.15   0.00246609    2.993    0.666
       267  -9.1276     20.0530    152.1342   9.1868917647e+01   4.0762148962e+01    0.2010434    0.1181912  73.07  0.001045948    1.728    0.421
       268  -8.8787      2.7309    150.4901   9.5781987063e+01   4.2478586357e+01    0.3176947   0.08742972 -81.37  0.001208974    3.527    0.716
       269  -8.9240    189.5630    150.0721   4.9411408349e+01   1.3010842244e+01    0.3096609    0.2438643 -66.59 0.0008616885    1.671    0.402
       270  -8.1487    182.3947    151.1537   5.1209058021e+01   1.4327497378e+01    0.2109715    0.1430663 -52.62 0.0009279644    1.689    0.408
       271  -8.6717    162.6668    150.5197   5.5529704127e+01   1.8674107160e+01    0.2981569    0.2333692 -78.70 0.0007746546    1.735    0.424
       272  -8.5276     98.3634    150.5018   7.1622944604e+01   3.1255131873e+01    0.3130572    0.2114348  73.32  0.001097282    1.924    0.480
       273  -9.4787    248.9491    149.1028   3.7878778783e+01   1.3326224477e+00    0.3186009    0.1817713 -33.40 0.0007097447    1.578    0.366
       274  -9.8137    242.4956    149.4347   3.9048368659e+01   2.4605153955e+00    0.3599881    0.2650015  52.49  0.001922147    1.635    0.388
       275  -9.2264    233.6305    147.5733   4.0194014905e+01   4.4473008689e+00    0.2857546     0.176272 -41.61 0.0008166273    1.608    0.378
       276  -8.5620    198.7284    148.6469   4.7159566395e+01   1.1339560448e+01    0.2793151    0.1950314 -48.57 0.0006353998    1.569    0.363
       277 -10.0182     89.1756    145.9226   7.3191798312e+01   3.3853740262e+01     0.671216    0.3758777 -87.53  0.002375853    3.305    0.697
       278  -9.8145     39.9093    147.7139   8.6447878286e+01   3.9914633206e+01    0.5092869    0.2573741  69.52  0.001973737    2.655    0.623
       279  -7.6658    121.3069    148.3510   6.5230765909e+01   2.7611885504e+01    0.1545736    0.1206867 -14.02 4.912646e-05    1.710    0.415
       280 -10.4191     55.4586    144.9467   8.2018439613e+01   3.8824218233e+01    0.7395808    0.3577659  66.46  0.002780898    3.381    0.704
       281  -8.2618     51.6446    148.6930   8.3564952341e+01   3.8384057020e+01    0.1322289   0.09579015 -36.81 0.0003857368    1.721    0.419
       282  -8.5020    223.3096    146.7744   4.1900238772e+01   6.6127232597e+00    0.2521744    0.2112532 -58.75 0.0007232495    1.479    0.324
       283 -10.4469    148.8691    144.9474   5.7561703907e+01   2.2798508968e+01    0.6211183    0.4299225  87.62  0.001606836    2.465    0.594
       284 -10.2107    106.7034    144.4004   6.8226108887e+01   3.1241241944e+01    0.7139416    0.4248123  76.37  0.002456252    3.211    0.689
       285  -8.7798    105.8112    138.3880   6.7213282201e+01   3.2817079469e+01    0.5457442    0.2472294  22.97  0.001495539    5.038    0.802
       286  -9.0647     78.1358    146.7158   7.6280069455e+01   3.5359268764e+01    0.2924553    0.2014229  83.51 0.0007655922    1.755    0.430
       287  -9.4833     13.5230    146.2796   9.2853923880e+01   4.2640040939e+01    0.3222959    0.1881407  69.14  0.001322424    1.761    0.432
       288  -7.9228    206.6194    145.8686   4.4918757310e+01   1.0198182241e+01      0.20626    0.1354758 -46.82 0.0006769145    1.633    0.387
       289  -8.2340    175.7060    145.9197   5.1493031609e+01   1.6817784651e+01    0.2378831    0.1790763 -72.17 0.0006935531    1.863    0.463
       290  -9.9368    139.1314    144.9362   5.9964976397e+01   2.4835139065e+01    0.4321555    0.3063651 -82.16  0.001230142    2.099    0.524
       291 -10.1024    241.1574    144.2070   3.8126640744e+01   3.5730891673e+00    0.4149263    0.2621372  13.13   0.00137758    2.185    0.542
       292  -8.9861    247.1050    143.6707   3.7000373117e+01   2.5484431830e+00    0.2595088    0.1774308 -26.33 0.0004653972    1.341    0.254
       293  -8.8268    165.5988    143.8521   5.3322396463e+01   1.9440130530e+01    0.2865446    0.2398971  82.10 0.0007659143    1.506    0.336
       294 -10.1096     73.1895    129.3834   7.4453788963e+01   4.0243508230e+01    0.4115943    0.2931935 -86.03  0.001030943    1.645    0.392
       295 -10.7429     69.7084    141.0937   7.7571122869e+01   3.7909234744e+01    0.6111351    0.3832149  80.96  0.002341407    2.148    0.535
       296  -9.5739     70.0221    134.0665   7.6233162321e+01   3.9558732905e+01    0.4054437    0.2516467  -4.87   0.00160695    3.214    0.689
       297  -7.7330    194.3051    143.6811   4.6933412106e+01   1.3230308480e+01    0.1486003     0.123549 -80.62 0.0004252979    1.631    0.387
       298  -9.3321      2.5209    141.1682   9.5026430945e+01   4.4595973510e+01    0.3907166    0.1729779  80.84  0.001671423    2.500    0.600
       299  -8.1541    212.9822    149.3762   4.4461350603e+01   8.2401461316e+00     0.199098    0.1846425  21.46 0.0005127818    1.079    0.073
       300  -8.2559    182.0556    141.3360   4.9011769969e+01   1.6355997560e+01    0.2154958    0.1960636  46.07 0.0004719658    1.122    0.109
       301  -8.0824    250.4366    140.2892   3.5706519511e+01   2.4824233923e+00    0.1905517    0.1173691 -42.24 0.0009366274    1.583    0.368
       302 -10.0444     23.3233    137.8781   8.9487255340e+01   4.3794714661e+01    0.4713175    0.2349696  69.95  0.001814823    2.573    0.611
       303  -9.7437    125.0497    142.5087   6.3011786796e+01   2.8225875976e+01    0.5110661    0.3527706 -83.96  0.001229617    2.160    0.537
       304  -8.6941    172.4097    138.1280   5.0406323024e+01   1.9133272098e+01    0.3388945    0.2410475 -66.00  0.000862941    1.900    0.474
       305  -7.8694    218.5294    138.4691   4.0897156846e+01   9.0580696172e+00    0.1461809    0.1372654 -18.37 0.0002539749    1.045    0.043
       306  -8.5232    207.4694    137.6047   4.2828589269e+01   1.1548419744e+01    0.3051693    0.1990947 -48.39 0.0009138084    1.663    0.399
       307  -8.6676    197.3579    137.2933   4.4795534959e+01   1.3793793026e+01    0.2884569     0.241933 -73.94 0.0009340624    1.537    0.349
       308  -8.9903    150.1682    135.7341   5.5097949720e+01   2.4528831844e+01    0.4073712    0.2631078   4.64  0.001425208    2.951    0.661
       309  -9.2111    139.8935    136.8513   5.7923722209e+01   2.6478587680e+01    0.2480339     0.213804   1.92 0.0009178951    1.342    0.255
       310  -8.8491    248.5679    134.9302   3.4826058655e+01   3.7019207068e+00    0.2836212    0.1882861 -41.91 0.0007866002    1.449    0.310
       311  -8.9133    246.8702    130.0997   3.4021876843e+01   4.8176023921e+00    0.3197305    0.1678617 -43.55 0.0007621848    1.855    0.461
       312  -8.2408    162.7919    136.1692   5.2164035719e+01   2.1669908335e+01    0.2388514    0.2149386  88.94 0.0008220254    1.293    0.226
       313  -9.6703     39.1207    135.6845   8.5022690120e+01   4.2850891319e+01    0.2993705    0.1997716  84.94  0.001034755    1.588    0.370
       314  -8.4634    187.8325    135.3212   4.6325731761e+01   1.6274357314e+01    0.2158708    0.1894952 -45.09  0.000449885    1.177    0.150
       315  -8.5350    125.6962    135.1788   6.1196152219e+01   2.9776724338e+01    0.3399294    0.1844895  20.82   0.00108023    3.467    0.712
       316 -10.3553     83.4881    132.7663   7.2205946359e+01   3.7900305747e+01    0.5898897    0.3354979 -71.63  0.001402278    2.113    0.527
       317  -7.8913    231.5706    133.8401   3.7454223937e+01   7.2006322307e+00    0.1959716    0.1267568 -45.01 0.0005260543    1.573    0.364
       318  -8.6456    179.4248    133.6727   4.7758172649e+01   1.8478096251e+01    0.3222722     0.238487 -70.67 0.0008706498    1.886    0.470
       319  -9.0753    112.7958    132.9148   6.4124895205e+01   3.2813735824e+01    0.3908183    0.2762344  80.40  0.001077926    2.040    0.510
       320  -7.8128    237.5223    133.4999   3.6345023284e+01   6.0707673551e+00    0.1417033     0.128819 -31.34 0.0001462848    1.086    0.079
       321 -10.1388    132.1208    130.7805   5.8483099142e+01   2.9465972416e+01    0.6120217    0.3685246 -67.15  0.001032004    2.413    0.585
       322  -9.2922    143.0679    131.6753   5.5890920925e+01   2.6951796265e+01    0.3125091    0.2523597 -75.64 0.0007660274    1.518    0.341
       323  -9.1533    250.7732    129.4301   3.3247051695e+01   4.1834094882e+00     0.488521    0.1041222 -35.71  0.001422575    4.240    0.764
       324 -10.1326     12.6959    128.3778   9.1154163332e+01   4.6834512353e+01    0.6400702    0.2821039 -87.96  0.002912172    2.497    0.599
       325  -8.1719    220.5563    129.8044   3.8495381683e+01   1.0182735778e+01    0.2001943     0.133201 -45.70 0.0004717463    1.537    0.349
       326  -8.2262    204.4633    130.2173   4.1666009787e+01   1.3577088813e+01    0.2062395    0.1402304 -48.50 0.0005480287    1.568    0.362
       327  -8.0485    192.9986    130.2855   4.4014419932e+01   1.6106436311e+01    0.2104944    0.1980314  37.89 0.0003275642    1.078    0.073
       328  -9.0924    168.3583    129.3551   4.9202933669e+01   2.1851977239e+01    0.3156387    0.2529387 -84.12 0.0007154311    1.672    0.402
       329  -9.5848    153.0219    128.9484   5.2750757505e+01   2.5373596889e+01    0.4350588    0.2610953 -56.42 0.0009476219    1.979    0.495
       330 -10.8849     45.3069    123.7704   8.1454287362e+01   4.5056947476e+01     1.132913    0.5665067  78.25  0.003925766    4.239    0.764
       331  -8.2113      1.5061    129.9877   9.4227466687e+01   4.7201494692e+01     0.161136   0.07871424  79.00 0.0008038369    2.250    0.555
       332  -8.1701    211.5898    128.7873   3.9934976351e+01   1.2286380189e+01    0.2133036    0.1348111 -46.97 0.0007077527    1.655    0.396
       333 -10.6186     60.0519    124.9036   7.7384628523e+01   4.3078512457e+01     0.750817    0.4345787  82.63  0.002997144    2.834    0.647
       334  -8.8690     59.5261    114.9679   7.5620583416e+01   4.5524790708e+01    0.4454935    0.2529279 -22.79  0.001788349    3.001    0.667
       335  -9.9165    117.9459    124.8697   6.0848327909e+01   3.3685873852e+01    0.5885071    0.4160577 -82.62  0.001652533    2.069    0.517
       336  -7.9118    228.5027    125.4539   3.6047570873e+01   9.2828699069e+00    0.1449002     0.134037 -22.11 0.0001032877    1.010    0.009
       337  -8.8603    179.0811    124.5706   4.5587782890e+01   2.0387764116e+01    0.3073225    0.2621259  83.39 0.0006406942    1.438    0.305
       338 -10.5013     28.4107    121.9260   8.6004315260e+01   4.7117540361e+01    0.7739596    0.4074067  87.82   0.00355869    2.417    0.586
       339  -9.7355     26.5824    113.8036   8.5315160228e+01   4.9184787310e+01    0.3423155    0.1891561   2.37  0.001665315    2.805    0.644
       340  -8.1493    244.3503    124.1476   3.3083326077e+01   6.2928620948e+00    0.2016353    0.1157164 -42.74 0.0004581582    1.652    0.395
       341  -8.0673    188.5007    123.9812   4.3405864002e+01   1.8349713969e+01     0.235685    0.1506077 -41.70 0.0007042182    1.553    0.356
       342 -10.9726    131.6510    118.9228   5.5678365953e+01   3.2225957357e+01    0.8366728    0.5255187 -74.30   0.00284643    2.823    0.646
       343  -9.6498     97.9954    128.3310   6.7189641124e+01   3.6577254881e+01    0.5845464    0.2116252 -54.45  0.001995875    2.713    0.631
       344  -9.1926    158.6379    121.4682   4.9508372297e+01   2.5707110859e+01    0.4040134    0.2934647 -81.36 0.0009505193    2.100    0.524
       345  -7.8915    195.3447    122.1627   4.1530585160e+01   1.7141782911e+01    0.2186499    0.1371391 -47.17  0.000403079    1.661    0.398
       346  -8.8176    171.9765    121.4603   4.6391526734e+01   2.2649937603e+01    0.2854957    0.2175231 -56.28 0.0005103562    1.468    0.319
       347  -7.8619    203.3016    121.6805   3.9816940508e+01   1.5433512674e+01    0.1518306    0.1210235 -72.32 0.0001864422    1.625    0.385
       348  -8.6901     99.3994    120.1465   6.4923198284e+01   3.8261531360e+01    0.3990075    0.2507343   4.58  0.001451856    3.072    0.674
       349 -10.0008    141.6397    118.3257   5.2919214740e+01   3.0195428057e+01    0.4978912    0.3261057 -65.46  0.001313068    2.082    0.520
       350  -9.6324     71.0163    119.6066   7.3121725639e+01   4.2897486477e+01    0.3270202    0.2477178  84.36  0.001244517    1.605    0.377
       351  -9.6481      3.1000    117.1334   9.2450298948e+01   5.0042806017e+01    0.5521551    0.2415288  82.34   0.00243092    3.028    0.670
       352  -8.5554      3.1386    109.3527   9.1521260745e+01   5.1818591122e+01    0.2568507    0.1605965  -7.52  0.001536343    2.243    0.554
       353  -8.2957    231.5938    117.7081   3.3695767445e+01   9.9777438939e+00    0.2044134    0.1258884 -44.11 0.0004690912    1.575    0.365
       354  -7.7710    219.3417    116.3013   3.5489972639e+01   1.2851979573e+01    0.1520237    0.1142766  10.78 0.0006926275    1.674    0.403
       355  -8.0541    185.8320    115.8007   4.1903672455e+01   2.0562262568e+01    0.2101386     0.185454 -74.02 0.0004684517    1.309    0.236
       356 -10.2277    109.4233    114.0811   6.0569466534e+01   3.7821127475e+01    0.5308565    0.3430287 -70.98  0.001371718    2.184    0.542
       357 -10.1678    248.6508    107.9526   2.8719241181e+01   8.1054023580e+00    0.4223174    0.2963449 -30.61  0.001818647    1.313    0.238
       358  -8.9840    250.4755    114.5381   2.9943984004e+01   6.6697977096e+00    0.2128307    0.1812628  38.47   0.00123519    1.302    0.232
       359 -10.7469    248.4264    102.5861   2.7523412767e+01   9.0227033524e+00    0.4560022    0.3562362 -29.60  0.002537256    1.192    0.161
       360  -8.1898    193.2050    115.1305   4.0200312028e+01   1.8977381592e+01    0.2132785    0.1806323 -64.75 0.0004590151    1.350    0.259
       361  -8.5143     84.6569    122.6417   6.9756966015e+01   4.0141346028e+01    0.2313109    0.1709598 -22.07 0.0007704012    1.732    0.423
       362 -10.2120     92.9303    111.8663   6.4829692245e+01   4.1324140283e+01    0.7828626    0.3633402 -57.24  0.002528906    2.280    0.561
       363 -10.0832     79.0325    112.3932   6.9135317971e+01   4.3443981936e+01    0.5596277    0.3724945  88.17  0.001758026    2.373    0.579
       364  -8.4243    167.4340    114.2408   4.5565467178e+01   2.5175711892e+01    0.2157078    0.1508486 -50.73 0.0003079388    1.525    0.344
       365  -9.8395    121.9458    112.4194   5.6625703065e+01   3.5708817223e+01    0.3472109    0.3006241  81.24 0.0006909005    1.365    0.267
       366  -8.6130    174.8210    111.5676   4.3192810892e+01   2.3979061539e+01    0.3055225    0.2002537 -56.25 0.0007388422    1.814    0.449
       367  -8.6383    159.0819    111.7326   4.6862877172e+01   2.7638159209e+01    0.2747673    0.2269158 -43.98 0.0005725616    1.221    0.181
       368 -10.0066     66.2659    110.2361   7.2562454429e+01   4.5778385842e+01    0.4361658    0.2994665 -89.11  0.001399436    1.994    0.499
       369  -8.8100     66.3447    105.3423   7.1444043229e+01   4.6920193248e+01    0.3059229    0.1810895  19.62  0.001390387    2.157    0.536
       370  -9.8720     14.3331    110.9415   8.8493019422e+01   5.0766971445e+01    0.3578929    0.1947037 -88.22  0.001662011    1.981    0.495
       371  -8.0450    149.6471    109.8213   4.8652091607e+01   3.0216394827e+01    0.2290719    0.1460002 -51.40  0.000418887    1.694    0.410
       372  -9.8202    133.4803    108.4294   5.2437915833e+01   3.4138712904e+01    0.5256922    0.3164618 -40.25  0.001573774    1.676    0.404
       373  -7.6787    182.7994    109.0827   4.0807289930e+01   2.2580465725e+01    0.2110295    0.1223265 -39.95 0.0004565632    1.705    0.413
       374  -8.7644     42.9042    109.0684   7.9565197255e+01   4.8805719423e+01     0.283917    0.1710159  -0.47  0.001338948    2.544    0.607
       375  -8.3678    189.1156    107.6649   3.9117547440e+01   2.1357393027e+01     0.278705    0.2016751 -48.80 0.0007078359    1.433    0.302
       376  -9.5203    139.9168    104.4626   4.9665028206e+01   3.3558896549e+01     0.429856    0.3134885 -61.05 0.0007536084    1.631    0.387
       377 -11.0603    108.8496     98.6411   5.6642855244e+01   4.1400298575e+01     1.333411    0.7038775  65.35  0.001286505    4.875    0.795
       378  -9.4270    108.0154     92.2518   5.5079549068e+01   4.2949401333e+01    0.5849539     0.338973  20.65  0.002176388    2.624    0.619
       379 -10.5371     45.8488    102.1748   7.7283160172e+01   5.0121458798e+01    0.7428883    0.4251187  70.57  0.003053764    3.207    0.688
       380 -10.7276     22.8801    102.5451   8.4633571869e+01   5.2104658580e+01    0.6564696     0.364193  76.23   0.00209882    2.736    0.635
       381  -9.5380    150.7189    103.0113   4.6530027365e+01   3.1384193692e+01    0.5193124    0.3210641 -65.02  0.001455056    2.485    0.598
       382  -8.9110     78.5316    104.7717   6.7485549697e+01   4.5304709786e+01    0.3234399    0.2053669   7.02   0.00113964    2.433    0.589
       383  -8.4633    166.8013    104.0291   4.2986387181e+01   2.7381096784e+01    0.2439008    0.2111166 -67.23 0.0006342237    1.303    0.233
       384 -10.2473    128.4643    101.9473   5.2011402274e+01   3.6627154255e+01    0.4049622    0.3127892 -69.58 0.0009910568    1.630    0.387
       385  -8.9107      6.5680    102.8712   8.9675660685e+01   5.3105553006e+01    0.2234493    0.1637991  76.64 0.0009051852    1.499    0.333
       386  -8.1325    175.5417    101.9570   4.0474430846e+01   2.5693470589e+01    0.2366415    0.1535112 -40.51 0.0004879686    1.534    0.348
       387  -8.5940    159.8105    100.9051   4.3753561766e+01   2.9669466582e+01     0.284914    0.2144402 -60.36 0.0004565568    1.557    0.358
       388  -9.3171     82.1062     99.8758   6.5139534278e+01   4.5876776916e+01     0.343401    0.2560671 -84.62 0.0009256651    1.862    0.463
       389 -10.2015     64.0421     96.1475   7.0013648335e+01   4.9360461943e+01    0.6366254     0.380518 -70.58  0.001940944    2.110    0.526
       390  -9.4263     95.0968     96.9162   6.0304812170e+01   4.4356419951e+01    0.3225248    0.2498288 -64.49  0.000738801    1.469    0.319
       391  -8.6168      7.3289     97.3078   8.8653537344e+01   5.4329091462e+01    0.1261407    0.0696681 -45.12 0.0003765482    1.659    0.397
       392  -8.3008    151.3862     94.8618   4.4079650362e+01   3.2876084715e+01    0.2268055    0.1505437 -26.59 0.0009392899    1.716    0.417
       393  -8.2539    165.1671     94.2066   4.0648885995e+01   2.9697653321e+01    0.2187036    0.1873419 -74.35 0.0005362654    1.358    0.264
       394  -9.2793     46.1389     92.4859   7.5101570603e+01   5.2333845598e+01    0.4429638    0.2614225   0.60  0.002064945    2.500    0.600
       395  -7.7333    188.5146     93.4903   3.5488488624e+01   2.4146067146e+01    0.1542191    0.1498297 -65.34 0.0003135658    1.043    0.041
       396  -8.2672    176.4708     93.0329   3.7839614268e+01   2.7167225216e+01     0.235671    0.1521109 -40.87 0.0004341281    1.544    0.352
       397  -9.6160    139.0975     91.7893   4.6286367452e+01   3.6363356035e+01    0.4770277    0.2625358 -50.77  0.001415172    2.051    0.513
       398 -10.7100    124.1797     90.5145   4.9919393503e+01   3.9962385019e+01    0.7845889    0.6023537 -12.65  0.001826132    1.555    0.357
       399  -9.0478     22.2282     90.4493   8.2708418622e+01   5.4931213692e+01    0.4051043    0.1874399 -46.10  0.001621353    1.864    0.463
       400  -9.4311      5.5831     92.1607   8.8433593847e+01   5.5588758509e+01    0.2816086    0.1770351  65.63  0.001433628    2.062    0.515
       401  -9.8795    247.7003     91.4315   2.5061246173e+01   1.0964923184e+01    0.3304222    0.1840296 -42.25  0.001559747    1.603    0.376
       402  -8.2054    157.8480     91.5788   4.1594983433e+01   3.1975472545e+01    0.2609707     0.185005 -43.01 0.0006527724    1.429    0.300
       403  -9.5319     34.8031     89.6261   7.8307076328e+01   5.4096709268e+01    0.4211546    0.2496785 -82.20  0.001452763    2.260    0.558
       404  -8.4842    151.0228     88.9774   4.2475050349e+01   3.4118905730e+01     0.247867    0.1953912 -78.01 0.0006065171    1.665    0.399
       405 -10.1613     86.6019     85.9678   5.9904643395e+01   4.8232402446e+01    0.6093634    0.3793145 -58.57  0.001643818    1.854    0.460
       406  -7.8571    164.1633     87.1074   3.8864625207e+01   3.1290849911e+01    0.2168002    0.1877793 -76.42  0.000421114    1.330    0.248
       407  -9.0210     66.4190     86.7890   6.6827242174e+01   5.1152808727e+01    0.4498571    0.1976947  19.52  0.001559863    3.779    0.735
       408  -9.7293     48.4943     83.8941   7.2254493031e+01   5.4021152879e+01    0.5248068    0.3646609 -86.81  0.002483216    2.135    0.532
       409  -9.8041    104.7680     83.0195   5.3321252430e+01   4.5528571216e+01    0.4588612    0.3478868 -82.97 0.0008473045    2.058    0.514
       410  -8.3331    158.0912     83.8909   3.9318024919e+01   3.3377372945e+01     0.232906    0.2084102 -74.43 0.0004508109    1.254    0.203
       411  -9.1067    250.3116     82.8561   2.2737747880e+01   1.1769596341e+01    0.2931872   0.09801492 -40.75  0.001099082    2.551    0.608
       412  -9.0251    140.8970     82.6956   4.3131293869e+01   3.7732538265e+01    0.2973689    0.2241516 -48.62 0.0006760256    1.408    0.290
       413  -8.2649     64.1308     82.2343   6.6372278976e+01   5.2468177790e+01    0.1825479    0.1607388 -78.10 0.0005228293    1.375    0.273
       414  -9.6430     24.8073     80.3583   7.9798573838e+01   5.7008857606e+01    0.4291372    0.2703765  89.33  0.001503027    2.303    0.566
       415  -9.4096     10.2861     81.0487   8.5022300594e+01   5.7815701582e+01    0.3469844    0.1909729  59.22  0.001454234    2.856    0.650
       416  -8.4584    150.0895     80.4575   4.0187971796e+01   3.5961812891e+01    0.2911541    0.2138469 -53.23  0.000784246    1.520    0.342
       417  -8.5966    119.3621     80.0718   4.8121298657e+01   4.3111291443e+01    0.3047643    0.2214644 -58.40 0.0007304673    1.674    0.402
       418  -8.8703     74.6164     80.0397   6.2152559822e+01   5.1433245408e+01    0.3370024    0.2286409 -72.06   0.00121056    2.222    0.550
       419  -7.9774    166.6399     79.2726   3.6059405731e+01   3.2113980912e+01    0.2090719    0.1490131 -25.47 0.0005236418    1.541    0.351
       420  -7.9397    184.1987     78.0117   3.2102054422e+01   2.7958866879e+01    0.2070789    0.1205286 -35.24 0.0005599507    1.730    0.422
       421  -8.6337    105.2647     76.8750   5.1269235283e+01   4.6673377852e+01    0.2863784     0.190697  13.82  0.001215795    2.033    0.508
       422  -8.0569    157.1766     76.1406   3.7240221847e+01   3.5017283241e+01    0.2143367    0.1837564 -70.88 0.0004279443    1.342    0.255
       423  -9.3213    128.0866     75.1350   4.4160709289e+01   4.2128944187e+01    0.3605186    0.2659723 -62.75 0.0008393126    1.761    0.432
       424  -9.9336     63.2880     73.5508   6.4186673553e+01   5.4444153589e+01    0.4476178    0.2704967 -62.35  0.001071235    2.064    0.516
       425  -8.4684    140.4732     75.1395   4.0933736481e+01   3.9249200748e+01    0.2357508    0.2126191 -82.94 0.0005184876    1.290    0.225
       426  -9.7985     82.5806     72.4633   5.7148339338e+01   5.1732499353e+01    0.4278171    0.2830305 -62.76 0.0009800987    2.090    0.522
       427  -8.5962    115.6386     72.6126   4.6834400473e+01   4.5352592148e+01    0.2816285    0.1805283 -41.17 0.0006000501    1.571    0.364
       428  -8.2948     42.6032     72.7749   7.1502368391e+01   5.7084008513e+01    0.2359903     0.153475 -61.10  0.001043272    1.547    0.354
       429  -7.4080    175.5090     72.4514   3.2240742426e+01   3.1084323908e+01    0.1520491    0.1484783  58.27 0.0002610454    1.011    0.011
       430  -8.9978    105.9289     71.6304   4.9391902097e+01   4.7563696537e+01    0.2781171    0.2114922 -46.61 0.0005973894    1.386    0.278
       431  -9.2791     95.1304     70.9166   5.2527632211e+01   4.9808430261e+01     0.373957    0.2388134 -56.44 0.0009868114    1.984    0.496
       432  -9.5196     51.4209     69.5679   6.7336284719e+01   5.6789725296e+01    0.3649483    0.2425635 -72.25  0.001308511    2.194    0.544
       433  -8.9306     29.1783     70.0026   7.5803058092e+01   5.8926465895e+01    0.3037769    0.1412726 -28.54   0.00117076    2.629    0.620
       434  -8.9153     16.6344     69.6226   8.0431386830e+01   5.9931470841e+01    0.2648681    0.1622944 -70.72 0.0008717288    1.648    0.393
       435  -8.9732    147.2168     68.1708   3.7125292372e+01   3.8863861524e+01    0.3235562    0.2359762 -47.62 0.0006672926    1.479    0.324
       436  -8.7341    138.6589     65.9135   3.8491158796e+01   4.1322524911e+01    0.2866956    0.2242492 -65.44 0.0007147657    1.615    0.381
       437  -8.3871    163.5061     73.0431   3.4913517687e+01   3.3991867039e+01    0.2357526    0.1522594 -37.52  0.001022756    1.572    0.364
       438  -8.5857     64.0291     63.4888   6.0802545503e+01   5.6396882853e+01    0.3599025    0.1904851 -22.16  0.001459757    2.663    0.624
       439  -8.7941     37.2941     64.0272   7.1107376041e+01   5.9462116261e+01    0.2819605    0.2108516 -77.26  0.001124648    1.829    0.453
       440  -8.8007    110.1454     63.4847   4.5436377154e+01   4.8202269405e+01     0.267652    0.2247499 -61.89 0.0006842216    1.489    0.328
       441  -8.1053    158.0193     61.5187   3.2627870281e+01   3.7297159717e+01    0.2245701     0.147033  57.13 0.0004005857    1.489    0.328
       442  -9.2110     97.5160     60.4500   4.8265990018e+01   5.1314925755e+01    0.2591046    0.2257574  31.28 0.0008486984    1.140    0.122
       443  -9.6063     73.4362     59.3824   5.6024061782e+01   5.5782152421e+01    0.3775443    0.2456974 -50.83  0.001012632    1.706    0.414
       444  -8.8775    121.7205     65.8474   4.2914687218e+01   4.5262287691e+01    0.3203733    0.2245874 -55.37  0.000846681    1.772    0.436
       445  -8.1260     88.9942     59.2615   5.0617764752e+01   5.3143366623e+01    0.1950593    0.1549207 -58.08 0.0006133463    1.614    0.380
       446  -9.8818     23.5349     56.2839   7.4405528725e+01   6.2246132455e+01    0.3990487    0.2713791  88.15  0.002078073    2.689    0.628
       447  -9.5580      7.5045     56.6795   8.1006776666e+01   6.3197760375e+01    0.3235934    0.1884652 -75.99  0.001467175    2.038    0.509
       448  -8.6087    130.6974     57.2077   3.7664063779e+01   4.4671750377e+01    0.2255482    0.1842813 -49.43 0.0007560008    1.372    0.271
       449  -8.3728    140.1005     55.8986   3.4911101772e+01   4.2631149024e+01    0.2223808    0.2021576 -67.15  0.000514389    1.253    0.202
       450  -9.0958    119.2009     55.2685   4.0056534831e+01   4.7634911388e+01    0.3886393    0.2393842 -47.79  0.001540762    1.904    0.475
       451  -8.6597     44.0539     55.4845   6.5867252146e+01   6.0490019416e+01    0.2276194    0.1726407 -59.52  0.001050483    1.544    0.352
       452  -9.4388     62.9420     53.2764   5.7766708809e+01   5.8509606613e+01    0.6619056    0.1946173 -44.32  0.002183363    3.129    0.680
       453  -9.1849     54.1024     53.3562   6.1191801333e+01   5.9698803001e+01    0.4507614    0.2190916 -57.62   0.00169809    2.961    0.662
       454  -8.4922    105.7457     52.8968   4.3087041095e+01   5.0949505411e+01    0.2549293    0.1949059 -51.01  0.000594186    1.578    0.366
       455  -9.4708     92.4927     50.4173   4.6323022364e+01   5.4027020844e+01    0.4147839    0.2426752 -49.56  0.001230172    2.160    0.537
       456  -8.4335    144.6367     48.7712   3.1541018828e+01   4.2607485923e+01    0.2037863    0.1352044 -41.66 0.0005266278    1.615    0.381
       457  -8.5270    129.9215     49.1198   3.5140322973e+01   4.6124892918e+01    0.2190133    0.2044273 -81.25 0.0006675885    1.250    0.200
       458  -8.1673    120.8451     47.1802   3.6807865352e+01   4.8533372741e+01    0.2065742    0.2007865 -65.91 0.0005596036    1.195    0.163
       459  -8.1395    112.2948     46.6436   3.8954887393e+01   5.0535100668e+01    0.2415089    0.1656847 -43.23 0.0006039559    1.631    0.387
       460  -9.0157     82.2586     46.2898   4.8217432493e+01   5.6611952674e+01    0.2819886    0.2215699 -48.37  0.000769998    1.541    0.351
       461  -8.4823     45.0244     44.4678   6.1728545265e+01   6.2462355094e+01     0.218508    0.1668391 -53.39 0.0006718514    1.558    0.358
       462  -8.7225     16.7184     44.4132   7.3848012955e+01   6.5101491283e+01    0.1986023    0.1319344 -62.39 0.0006168337    1.628    0.386
       463  -8.4085    132.8667     43.0686   3.2360082454e+01   4.6306287424e+01    0.2169533    0.1974831 -69.38 0.0005539825    1.287    0.223
       464  -8.5682     92.7249     42.4217   4.3279613920e+01   5.5262316344e+01    0.2419436    0.1640363  -3.75 0.0009944995    1.710    0.415
       465  -8.8792     58.2514     42.3128   5.5576830240e+01   6.1132053300e+01    0.2994234    0.2196301 -58.37  0.001158623    1.993    0.498
       466  -9.6883      5.4057     41.5648   7.8010517648e+01   6.6340085007e+01    0.3647447    0.2164602 -78.13  0.001726459    2.552    0.608
       467  -9.3978     69.6323     41.1833   5.0785898331e+01   5.9597797622e+01    0.3321008    0.2411527 -55.07  0.001308893    1.964    0.491
       468  -7.8699    140.2092     41.0025   2.9970710133e+01   4.4805287942e+01    0.1857231     0.118824 -28.49 0.0003805512    1.668    0.400
       469  -8.7945    105.9944     41.0172   3.8705894704e+01   5.2743539220e+01    0.2112281    0.2028504  17.17 0.0005445224    1.125    0.111
       470  -8.5032     36.9503     40.5123   6.3716506531e+01   6.4075525442e+01    0.2158531    0.1628391 -53.83 0.0006952275    1.568    0.362
       471  -7.7759    160.5528     39.5446   2.5327426579e+01   3.9892019849e+01    0.1452514      0.13607  70.20 0.0001028126    1.039    0.037
       472  -8.4460     95.4841     37.7948   4.0645341199e+01   5.5402128902e+01     0.254983    0.1882949 -52.31 0.0007622292    1.825    0.452
       473  -8.4739     80.7107     36.5487   4.4998051116e+01   5.8422295310e+01    0.2163263    0.1602611 -49.03 0.0006901647    1.763    0.433
       474  -9.4012     26.2573     35.1413   6.6509029003e+01   6.6078649261e+01    0.3111814    0.1846716 -54.01 0.0009394749    1.814    0.449
       475  -7.7967    126.0021     35.4733   3.1373765355e+01   4.8980788362e+01    0.2063361    0.1327699  53.71 4.462101e-05    1.448    0.309
       476  -8.4848    111.9946     34.3956   3.4568157703e+01   5.2351024762e+01    0.2399422     0.193416 -57.73 0.0007579801    1.630    0.387
       477  -8.7090    119.3608     33.2168   3.2209997838e+01   5.0829059526e+01    0.2379662    0.1765295 -37.36  0.000737407    1.485    0.327
       478  -8.9314     48.5530     33.0646   5.5908926459e+01   6.3990451036e+01    0.2213795    0.1899235 -44.07 0.0006345081    1.478    0.323
       479  -8.8034     60.9220     32.4963   5.0648358038e+01   6.2337239581e+01    0.2192956     0.170114 -40.54 0.0006121706    1.480    0.324
       480  -8.8531     72.2467     30.9376   4.5727177807e+01   6.0739254969e+01    0.1874961    0.1686193 -23.75 0.0006455303    1.268    0.212
       481  -9.2511    175.8362    247.6525   7.0213383788e+01  -1.2551459241e+00    0.2976937    0.2009806  63.97  0.001203636    2.258    0.557
       482  -7.9968     42.3081     29.6909   5.7215539687e+01   6.5319945460e+01     0.104086    0.1005055 -59.57 0.0003320631    1.616    0.381
       483  -8.8706     81.5302     27.2069   4.0937459966e+01   5.9589454483e+01    0.2742843    0.1996634 -50.47 0.0009454928    1.959    0.490
       484  -8.9077      3.7399     27.6360   7.4537064206e+01   6.9042831436e+01    0.2096912     0.133135 -58.99 0.0008411899    1.626    0.385
       485  -8.8679     91.9191     26.6183   3.7350704113e+01   5.7640190185e+01    0.2490298    0.1893941 -32.38 0.0007177239    1.432    0.302
       486  -7.7018    104.3235     22.6753   3.2185573433e+01   5.5503400081e+01    0.1291177    0.1085875 -71.17 0.0007047909    1.686    0.407
       487  -8.6268     48.5196     21.4649   5.1018341517e+01   6.5767978316e+01    0.2061219     0.157452 -31.73 0.0006698442    1.364    0.267
       488  -8.8599     63.7706     20.6373   4.4489090441e+01   6.3578067037e+01    0.2670827    0.1614511 -40.00  0.001046837    1.936    0.483
       489  -8.4525    101.4361     29.2637   3.5562784847e+01   5.5326247353e+01    0.1802979    0.1268834 -37.14 0.0005712379    1.586    0.370
       490  -8.9489     74.3307     19.4987   4.0135930093e+01   6.1899896665e+01    0.2365779    0.2011893 -39.57 0.0007209992    1.520    0.342
       491  -8.2360     11.6814     20.2993   6.7907771812e+01   6.9821055228e+01   0.09138758   0.09006575 -50.59 0.0004273517    1.618    0.382
       492  -8.2151     87.9739     17.4822   3.4805378110e+01   5.9527749061e+01    0.1958257    0.1631861  -6.63 0.0005204502    1.177    0.151
       493  -8.0777     38.8567     18.3718   5.3892314905e+01   6.7472466660e+01     0.160085    0.1310867 -17.96 0.0006286633    1.188    0.158
       494  -7.5744    112.7096     16.7026   2.7720363212e+01   5.4279318199e+01    0.1410399   0.09086659  29.18 0.0002393838    1.557    0.358
       495  -8.1241     30.0454     15.7095   5.6811993019e+01   6.8882924821e+01    0.1932751    0.1434406 -59.23  0.000990152    2.562    0.610
       496  -8.0893     97.2409     14.9466   3.1050072006e+01   5.7882212486e+01    0.1606369    0.1084013 -20.64 0.0003584698    1.552    0.356
       497  -8.5083      7.9931     15.5059   6.7892857933e+01   7.0873483635e+01    0.1286073   0.08792991  41.13 0.0005612811    2.425    0.588
       498  -7.8788     17.3145     13.6985   6.2259318095e+01   7.0434495597e+01   0.09300683   0.08895732 -19.73   0.00023754    1.614    0.380
       499  -9.0292    132.4682    247.8909   7.8563180109e+01   5.7238506393e+00    0.3316418    0.1869397  63.91  0.001023061    2.334    0.572
       500  -8.2714    113.1439    248.6268   8.2321350596e+01   8.6328805401e+00    0.2057956    0.1284364 -81.50  0.001162551    2.162    0.538
       501  -8.9951    243.0365    246.3227   5.7606516436e+01  -1.1332666723e+01    0.3373052    0.1539338 -27.18  0.001791148    2.314    0.568
       502  -8.6824    218.6746    246.9896   6.2083491886e+01  -7.8856306524e+00    0.3483298    0.1329329 -29.88  0.001593501    3.216    0.689
       503  -8.6288    156.0148    247.9773   7.4055266788e+01   1.9132124096e+00    0.1856554    0.1331646  61.54 0.0006007501    1.639    0.390
       504  -9.2454    103.6595    246.1787   8.3853481314e+01   1.0490586524e+01    0.4241619    0.2061225 -78.45  0.001959676    3.312    0.698
       505  -8.8675    232.6478    247.1142   5.9575900928e+01  -9.9544444076e+00    0.1940175    0.1381688 -26.12 0.0008040643    1.554    0.357
       506  -8.4725    234.7849    243.3784   5.8587279957e+01  -9.8219697574e+00    0.2454336    0.1183974  29.65   0.00132711    1.728    0.421
