#   1 NUMBER                 Running object number                                     
#   2 MAG_AUTO               Kron-like elliptical aperture magnitude                    [mag]
#   3 X_IMAGE                Object position along x                                    [pixel]
#   4 Y_IMAGE                Object position along y                                    [pixel]
#   5 X_WORLD                Barycenter position along world x axis                     [deg]
#   6 Y_WORLD                Barycenter position along world y axis                     [deg]
#   7 A_WORLD                Profile RMS along major axis (world units)                 [deg]
#   8 B_WORLD                Profile RMS along minor axis (world units)                 [deg]
#   9 THETA_WORLD            Position angle (CCW/world-x)                               [deg]
#  10 FWHM_WORLD             FWHM assuming a gaussian core                              [deg]
#  11 ELONGATION             A_IMAGE/B_IMAGE                                           
#  12 ELLIPTICITY            1 - B_IMAGE/A_IMAGE                                       
         1 -14.5660    195.0397     17.0486   6.8616924395e+01   3.3849893634e+01     2.856507     1.617481  27.81   0.01218791    2.462    0.594
         2 -10.8842     32.7389      5.8736   1.0551351102e+02   6.9402697182e+01    0.2737823   0.08505767 -39.28  0.001203014    2.874    0.652
         3 -11.2820     94.5045    240.6926   1.3796055691e+02   1.5081198211e+01    0.2055836     0.150304 -86.84  0.001422278    1.461    0.315
         4 -11.3480    248.9447    249.6243   1.1280747714e+02  -9.1810801974e+00    0.3438761    0.1843054  28.48  0.002064839    1.421    0.296
         5 -12.4843    140.4672    248.7564   1.3091017375e+02   7.2040650566e+00    0.4406114    0.3358517  58.75  0.003178982    1.249    0.199
         6 -12.5143    106.8963    248.0447   1.3654096294e+02   1.2222570941e+01    0.4910731    0.2580095  55.50  0.002573215    1.634    0.388
         7 -11.8528     98.0732    249.3683   1.3813509745e+02   1.3251798205e+01    0.3894398    0.2462316  51.45  0.001646342    1.210    0.173
         8 -11.4071    101.4091    246.2308   1.3729618773e+02   1.3265819190e+01    0.3004901    0.1848803  87.68  0.001172701    2.036    0.509
         9 -12.3438     71.7107    243.6481   1.4201702520e+02   1.7622609820e+01    0.5658823    0.3028409  87.92  0.003517661    2.149    0.535
        10 -12.4093     80.2933    247.5561   1.4091454593e+02   1.5906651990e+01    0.5900839    0.2399906  52.50  0.003377486    1.962    0.490
        11 -12.4235     81.8351    242.4384   1.4024730732e+02   1.6509917452e+01    0.8616073    0.3298392  64.47  0.003678778    3.988    0.749
        12 -11.7870     65.9616    249.7413   1.4338928411e+02   1.7377649015e+01    0.4263828    0.1946718  41.64  0.001631884    1.871    0.466
        13 -15.2473      2.9667     16.6721   1.2452338374e+02   7.0291526545e+01     18.18518     1.447129 -55.71   0.03519315   16.168    0.938
        14 -14.0085     32.0015    246.2850   1.4845876449e+02   2.1817383875e+01     1.636889    0.5176312  40.88  0.009400878    2.598    0.615
        15 -12.8827    126.0420    243.9637   1.3286872617e+02   1.0051233042e+01    0.5868956    0.2535334  49.40  0.003156544    1.911    0.477
        16 -11.8483    119.9715    238.3997   1.3333118881e+02   1.1787755526e+01    0.3337619    0.2058209 -75.00  0.001525062    2.162    0.538
        17 -15.9527      9.1791    240.4639   1.5159625678e+02   2.5044351058e+01     7.817592    0.8815057 -71.50   0.03165247    5.930    0.831
        18 -11.9987     35.2025    229.9181   1.4703083748e+02   2.4179304832e+01    0.3195031    0.2042709  56.35  0.002417369    1.234    0.189
        19 -10.8013    193.0407    195.0036   1.1356828566e+02   6.3238936295e+00    0.7995893    0.4030426 -60.77  0.002338173    7.321    0.863
        20 -11.7990     77.0952    188.2557   1.3584215759e+02   2.6823295089e+01    0.2757258    0.2136493 -52.42 0.0007382426    1.529    0.346
        21 -11.7584     72.6010    195.1941   1.3750508250e+02   2.6065738035e+01    0.3821919     0.270842 -55.63  0.002437753    1.623    0.384
        22 -10.2982     67.7409    196.9611   1.3863581180e+02   2.6355814602e+01    0.3567173    0.1552816  57.11  0.001629529    2.325    0.570
        23  -9.4328    125.1428    185.6404   1.2557459125e+02   1.9996984305e+01    0.2665468    0.1577367  19.81  0.001126967    2.953    0.661
        24  -9.4250     93.7768    178.9508   1.3120627214e+02   2.6308868670e+01    0.2544507    0.1380126  62.31  0.001004489    2.160    0.537
        25 -11.1196     85.3099    176.2384   1.3264539173e+02   2.8098082636e+01    0.2267857    0.2010209 -77.11 0.0003899163    1.131    0.116
        26 -13.3564     73.1185    173.7143   1.3492829758e+02   3.0303828726e+01    0.4333114    0.2559765 -44.91  0.001688189    2.200    0.545
        27 -10.7840    123.9969    174.5311   1.2405778643e+02   2.2331040344e+01    0.2684049    0.1268576  36.68  0.001158383    2.180    0.541
        28 -12.8904     89.3474    166.2994   1.3037914706e+02   2.9569906186e+01      2.05601    0.6938476  53.68  0.003141142    4.206    0.762
        29 -10.2689    103.0056    150.9352   1.2477360394e+02   3.0711589304e+01    0.2825896    0.2385274  54.10 0.0007437463    1.163    0.140
        30  -9.6248    105.4541    147.0233   1.2349022967e+02   3.1148487971e+01     0.347535     0.213019 -33.63  0.001321189    2.258    0.557
        31 -12.3214     46.8073    148.8385   1.3768005725e+02   3.8819299575e+01     0.503608    0.2601503 -80.16  0.002568089    1.948    0.487
        32 -10.2347    133.9084    145.2040   1.1643254573e+02   2.6456978557e+01    0.9064397    0.1808848 -53.17  0.001810675    9.301    0.892
        33  -8.7151    192.2531    144.3210   1.0354810520e+02   1.4793239924e+01    0.1442144    0.1089555   1.89 0.0002418468    1.538    0.350
        34 -12.1402     91.9982    150.3174   1.2726589360e+02   3.2581753894e+01    0.2597843    0.2443271 -34.35 0.0005273107    1.242    0.195
        35 -10.0605    112.7753    136.3499   1.1965351797e+02   3.2197211827e+01    0.3320712    0.2527029  -9.54 0.0009453744    1.900    0.474
        36 -13.9455     10.9267    207.0173   1.4970979353e+02   3.0646418040e+01    0.9800626    0.6797249  35.90  0.004962548    1.748    0.428
        37 -10.7331    100.3965    133.6002   1.2216616166e+02   3.4903457234e+01    0.2631423    0.2223631 -26.31  0.000525968    1.401    0.286
        38 -13.2484     67.3186    144.3093   1.3220671664e+02   3.7379013569e+01    0.9640223    0.5719633  80.93  0.004626804    2.234    0.552
        39 -11.9555     50.1831    130.1434   1.3430418126e+02   4.2591514666e+01    0.3184856    0.2288451 -83.41 0.0009957122    1.324    0.244
        40 -13.0415     49.4676    229.0761   1.4463237179e+02   2.2732540483e+01    0.4023452    0.3130416 -84.10 0.0009046257    1.296    0.228
        41 -13.1352     57.9834    131.2260   1.3249185720e+02   4.1453479710e+01     1.931804    0.6041666 -72.60  0.005101582    6.671    0.850
        42  -9.4843    108.9863    123.5154   1.1787809183e+02   3.5648785911e+01    0.1968658     0.185278 -55.64 0.0003580671    1.029    0.028
        43 -11.0841    168.2790    113.4889   1.0117768776e+02   2.5645966374e+01    0.4016281    0.3275492 -77.95  0.001044749    1.616    0.381
        44 -15.5434     58.2819    216.1433   1.4213826531e+02   2.3960184998e+01     6.576112     1.007615  43.85   0.02132826    4.167    0.760
        45  -9.3596    184.6877     77.6199   8.7961409741e+01   2.8200436137e+01    0.1637692    0.1167774  13.76  0.000702533    1.802    0.445
        46  -9.1467    154.3484     76.2890   9.3930956614e+01   3.5739457838e+01    0.1601009    0.1170296  18.10 0.0007025088    1.662    0.398
        47  -9.1116    230.2936    230.6513   1.1291403420e+02  -4.5273205484e+00   0.09935299   0.09124802  54.67 0.0007030818    1.673    0.402
