#   1 NUMBER                 Running object number                                     
#   2 MAG_AUTO               Kron-like elliptical aperture magnitude                    [mag]
#   3 X_IMAGE                Object position along x                                    [pixel]
#   4 Y_IMAGE                Object position along y                                    [pixel]
#   5 X_WORLD                Barycenter position along world x axis                     [deg]
#   6 Y_WORLD                Barycenter position along world y axis                     [deg]
#   7 A_WORLD                Profile RMS along major axis (world units)                 [deg]
#   8 B_WORLD                Profile RMS along minor axis (world units)                 [deg]
#   9 THETA_WORLD            Position angle (CCW/world-x)                               [deg]
#  10 FWHM_WORLD             FWHM assuming a gaussian core                              [deg]
#  11 ELONGATION             A_IMAGE/B_IMAGE                                           
#  12 ELLIPTICITY            1 - B_IMAGE/A_IMAGE                                       
         1 -14.9201    245.6702    105.7178   7.5079048458e+00   1.3700846923e+01     2.626255    0.7401914 -37.70   0.01124341    2.633    0.620
         2 -14.8643    229.8465     64.2479   5.0149137278e-01   2.2141938408e+01     1.534272     1.048699 -64.25  0.008606449    1.431    0.301
         3 -14.3131      5.0339     49.5009   6.2455605831e+01   6.9264462473e+01     2.766714          nan -58.02   0.00655921    6.956    0.856
         4 -11.6914      9.1432      2.4951   3.6994551304e+01   7.8721676377e+01    0.4460773    0.2808377  19.71  0.001769962    1.567    0.362
         5 -12.7535      2.5889     20.3640   5.4372574121e+01   7.6054790997e+01    0.7905836    0.4126971 -54.00  0.004143766    1.722    0.419
         6 -12.3688      7.0685     11.3021   4.5268176507e+01   7.7442548859e+01    0.6501986    0.3052037 -42.90  0.003253288    1.985    0.496
         7 -16.7481    242.0298     20.0546   3.5023604730e+02   2.5427632405e+01     3.502229     1.251951 -38.10   0.01861407    1.962    0.490
         8 -13.6844     14.6580      7.7892   3.5992441136e+01   7.7132590413e+01     2.342791    0.7093506 -33.51  0.007128634    5.754    0.826
         9 -12.0094      2.4897      4.1344   4.5063773643e+01   7.9211519216e+01    0.6107661    0.3114175 -45.93  0.003295572    1.843    0.457
        10 -13.0831    179.5232     33.8912   3.5811450969e+02   3.6394392396e+01    0.7577013    0.5649604 -70.58  0.004469027    1.209    0.173
        11 -13.0565    190.9389     29.1120   3.5576421824e+02   3.4461340000e+01    0.5596496     0.509935 -60.67  0.002542602    1.169    0.145
        12 -12.7709      2.5249     30.9730   5.8733922852e+01   7.3761053738e+01    0.7008016    0.4032178 -56.10  0.003747151    1.536    0.349
        13 -12.7419     14.5663     21.6937   4.4798813593e+01   7.4643769572e+01    0.4812419    0.1984236 -55.27  0.002092692    2.547    0.607
        14 -12.6896     19.3826     13.6789   3.6185686442e+01   7.5492003822e+01    0.5182558    0.2213122 -32.98  0.002180307    2.820    0.645
        15 -12.3473     25.0969      7.6389   2.7741480864e+01   7.5555657739e+01    0.3108866    0.1983616 -14.31  0.001643121    1.892    0.471
        16 -12.0003     22.4723      2.4976   2.5709707451e+01   7.6713991646e+01    0.3739764    0.1969667  34.32  0.001431627    1.841    0.457
        17 -10.0516     82.5075    236.4912   6.1122482548e+01   1.4185649547e+01    0.1257883     0.100537  39.46 -3.301971e-05    1.070    0.065
        18 -12.9753    212.8732    186.0592   2.7241700191e+01   6.1772478378e+00     1.279079    0.8529348 -57.02  0.007145552    2.443    0.591
        19 -13.2655    203.2104    158.4973   2.3845389601e+01   1.1835501217e+01     1.299202    0.7653315 -43.37  0.007075398    1.577    0.366
        20 -13.8529    237.2302    229.6658   3.0322881983e+01  -2.3296722835e+00     1.145102    0.7803004  17.88   0.00667241    1.414    0.293
        21 -13.3777    238.0016    218.6093   2.8561498477e+01  -1.0559918760e+00     1.087726    0.9191142 -80.10  0.006850127    3.664    0.727
        22 -14.0787    219.0208    169.6942   2.3368322931e+01   7.8692609981e+00     1.792085    0.7530088 -44.46  0.008633909    2.329    0.571
        23 -15.2330    233.9252    188.1202   2.4303780576e+01   3.3756994245e+00     4.222533     1.032349 -35.87   0.01721066    3.500    0.714
        24 -12.2891    210.1483    248.1108   3.7202732767e+01  -1.9881971455e+00    0.3638961    0.3191227 -26.70  0.002488961    1.619    0.382
        25 -10.4484    104.0332    250.5198   5.7741435876e+01   9.2193329053e+00    0.1905274   0.09510078  28.60  0.001036401    1.603    0.376
        26 -10.7136     90.4099    249.2065   6.0525627746e+01   1.0996262240e+01    0.2403001    0.1466597  51.53  0.001412964    1.700    0.412
        27 -10.4172     75.5333    250.5200   6.3845515243e+01   1.2435244036e+01    0.2388718   0.06778956  37.24   0.00103775    2.489    0.598
        28 -11.5380     65.7673    249.0714   6.5856728457e+01   1.3762391152e+01    0.3535782    0.1889756  42.74  0.001352611    1.511    0.338
        29 -11.6408     50.7179    249.8925   6.9184391097e+01   1.5209398223e+01    0.4664053    0.1520703  32.20  0.001986241    2.198    0.545
        30 -11.5559     45.6314    244.5404   6.9978294166e+01   1.6729304185e+01    0.4387449    0.2021933  40.07  0.001748427    1.631    0.387
        31 -12.1984     30.1967    240.1726   7.3162079137e+01   1.9109301708e+01    0.4992779    0.2639476  61.35    0.0021818    1.752    0.429
        32 -10.7387     39.8340    250.6642   7.1580568783e+01   1.6173035775e+01    0.2605524   0.08695199  27.44  0.001106662    2.403    0.584
        33 -11.7645     35.7853    247.1318   7.2276201417e+01   1.7231103835e+01    0.4238051    0.2416707  46.57  0.001614878    1.369    0.269
        34 -11.3463     27.1228    248.3540   7.4205713006e+01   1.7837631038e+01    0.2827313    0.1695775  45.20  0.001036028    1.261    0.207
        35 -14.3264     16.1453    217.1741   7.5339743747e+01   2.5162014554e+01     1.493268     0.800919  76.36  0.008060355    1.814    0.449
        36 -14.9745      4.3093    189.4738   7.7140671369e+01   3.2482965615e+01     2.289771     1.175278  84.08   0.01150543    1.823    0.451
        37 -10.9079     36.9864    234.3628   7.1333206135e+01   1.9586095639e+01    0.3852865    0.1422995  45.55  0.001471032    2.095    0.523
        38 -10.5696     32.6656    229.2504   7.2044413600e+01   2.1051235817e+01      0.32382    0.1440949  56.06  0.001415172    2.042    0.510
        39 -10.7631     58.8046    232.2959   6.6186186511e+01   1.7692495847e+01    0.3868403    0.1225913  44.26  0.001633104    2.571    0.611
        40 -10.9854    199.4408    227.7635   3.6157600629e+01   1.7298992614e+00    0.2070209    0.1697055 -59.31 0.0009975238    2.157    0.536
        41 -12.0487     26.9482    229.1046   7.3358457215e+01   2.1638350079e+01    0.4363854    0.2023314 -85.30  0.002222858    2.362    0.577
        42 -10.4995     48.4115    230.1753   6.8444067482e+01   1.9244165483e+01    0.3577801    0.1337598  58.11  0.001465753    3.095    0.677
        43 -10.7173     40.6310    229.4355   7.0206139310e+01   2.0209214155e+01    0.2995865    0.1660565  61.18  0.001629351    1.742    0.426
        44 -11.0512    211.9979    228.1719   3.4088724155e+01   3.4230890409e-01    0.2497625    0.2098076 -50.07  0.001729996    1.949    0.487
        45 -11.0159    229.1641    227.6377   3.1257479998e+01  -1.3147443245e+00    0.2341351    0.1635663 -45.61  0.001452839    2.095    0.523
        46 -10.7848    206.4096    226.0937   3.4718661533e+01   1.2061445479e+00    0.2248642     0.178148 -55.82  0.001055948    2.184    0.542
        47 -10.0481    190.5965    226.7946   3.7575448169e+01   2.8410381181e+00    0.1410999    0.1028836 -42.98 0.0009424983    1.643    0.391
        48 -10.5812    218.0358    224.3932   3.2541108475e+01   2.1122819348e-01    0.1896834    0.1615426 -51.97  0.001309338    2.018    0.505
        49 -10.9458     32.4687    223.0636   7.1747870223e+01   2.2356242465e+01    0.3456312    0.1430282  51.20  0.001642566    2.062    0.515
        50  -9.9732    201.8154    221.7987   3.4865233940e+01   2.2926366372e+00    0.1384183    0.1242746  -0.99 0.0005516562    1.340    0.254
        51 -11.0173    193.6366    219.8355   3.6003850001e+01   3.4912185045e+00      0.22842    0.2042524 -43.84   0.00105056    1.578    0.366
        52 -10.1965    211.3176    219.0625   3.2842184657e+01   1.6292652174e+00    0.1545819    0.1182901 -17.35 0.0006435433    1.117    0.105
        53 -13.5534    248.7613    243.8874   3.0650949371e+01  -4.9742276238e+00     1.219312    0.6478615 -30.98  0.008953608    1.619    0.382
        54 -10.0050    205.3288    218.0064   3.3690038651e+01   2.4309919574e+00    0.1564633    0.1237391 -13.13 0.0006863577    1.087    0.080
        55 -11.0780    201.2150    216.0750   3.4101711193e+01   3.1650734293e+00    0.1878979    0.1518954 -45.42 0.0007341893    1.654    0.395
        56 -12.3673     20.5374    248.7700   7.5631828236e+01   1.8373331419e+01    0.4374819    0.2199635  48.20  0.001769094    1.503    0.335
        57 -11.9419    217.9212    212.7148   3.0780921811e+01   1.7759096115e+00    0.3054008    0.2547005   3.29  0.001518103    1.221    0.181
        58 -10.9123     28.1091    213.3753   7.2250881263e+01   2.4871694555e+01    0.2539982    0.1352841  68.17  0.001258264    1.852    0.460
        59 -11.5383    202.4378    204.9790   3.2149302924e+01   4.6306113241e+00    0.2759188    0.1475893 -29.26  0.001074181    1.717    0.418
        60 -11.7415     22.0841    210.3306   7.3569965484e+01   2.6121149406e+01    0.2909886    0.1767108 -85.20  0.001619185    1.674    0.403
        61 -10.8689    193.0938    210.4087   3.4655278881e+01   4.9394976126e+00    0.2119629    0.1583437 -38.04 0.0007028924    1.418    0.295
        62 -12.0015    205.8223    208.5359   3.2135399514e+01   3.7157830145e+00    0.2523122    0.2034763  29.24 0.0009765067    1.458    0.314
        63  -9.9681     36.5131    208.0043   6.9825101186e+01   2.5222753366e+01    0.1903521   0.08589229  67.88 0.0008100633    2.517    0.603
        64 -10.2605    217.9729    204.9906   2.9552847651e+01   2.8326748818e+00    0.1719089    0.1357352 -15.64 0.0006328974    1.080    0.074
        65 -12.2100    195.2287    204.0363   3.3262590188e+01   5.6415348508e+00     0.412532    0.2844155  52.37  0.002352146    2.452    0.592
        66  -9.8422    213.3667    203.8015   3.0114316521e+01   3.5231775040e+00    0.1600002   0.08756816 -28.40 0.0005584811    1.604    0.377
        67 -10.9775    186.6067    203.1523   3.4683568640e+01   6.8500865223e+00    0.2301484    0.2038878 -64.42  0.001124909    1.720    0.419
        68  -9.8033    182.7029    207.3454   3.6076825062e+01   6.6821196534e+00    0.1044345   0.09823758  76.49 0.0007034221    1.673    0.402
        69 -10.8759    223.7462    201.1416   2.8011161171e+01   2.7203983766e+00    0.2295078    0.1609306 -47.83  0.001208624    1.912    0.477
        70 -10.1618    210.5800    200.7160   3.0076588352e+01   4.2904474619e+00    0.1486819   0.09898467 -40.78 0.0007202418    1.560    0.359
        71 -11.5643     22.0497    234.8175   7.4737094882e+01   2.0942046231e+01    0.4638781    0.1654286  46.52  0.001555423    2.077    0.518
        72 -12.8274    248.5055    183.4603   2.1436242174e+01   2.3912570726e+00    0.9744689    0.4251423 -47.08   0.00484647    3.081    0.675
        73 -10.9088    202.0635    196.6533   3.0855460689e+01   5.9208709723e+00    0.2635044    0.1815131 -50.35  0.001086574    1.876    0.467
        74 -10.3031    198.9116    190.9152   3.0441322069e+01   7.2008167322e+00    0.2063268    0.1573033 -60.64 0.0009367058    2.065    0.516
        75 -10.0726    175.7216    197.4712   3.5817115464e+01   9.1839139459e+00    0.2154411    0.1023373 -42.89 0.0009468983    2.062    0.515
        76  -9.6758    191.2768    197.6631   3.2933870973e+01   7.1205014425e+00    0.1040356   0.09742902 -67.41 0.0003007217    1.611    0.379
        77 -10.6829    183.8622    196.5038   3.4108169211e+01   8.2653374211e+00    0.2526636    0.1371673 -27.78  0.001187052    1.891    0.471
        78 -10.4122    209.6630    194.0586   2.9130289997e+01   5.3777507926e+00    0.1705503    0.1645798  -9.09 0.0007246536    1.444    0.307
        79  -9.9576    193.8173    193.6020   3.1798986184e+01   7.4345372391e+00    0.1527114    0.1088096  37.20 0.0006178478    1.594    0.373
        80  -9.7961    205.4459    190.5257   2.9246286749e+01   6.4310645852e+00    0.1192677   0.09741405 -14.35 0.0001758548    1.025    0.024
        81 -10.1475    193.2942    187.7786   3.0902348129e+01   8.4309842106e+00    0.1784356    0.1451624 -46.35 0.0006688818    1.451    0.311
        82 -10.7962    203.6237    182.6641   2.8201699014e+01   7.8809496743e+00    0.2211752    0.1822526 -31.72 0.0007963194    1.198    0.165
        83  -9.8815    183.4845    182.9958   3.1873826351e+01   1.0556576838e+01     0.191684    0.1145941 -41.79  0.001030691    1.601    0.375
        84  -9.7220    197.4884    181.9650   2.9143581232e+01   8.8062315238e+00    0.1823008    0.1079952 -39.18 0.0006723665    1.546    0.353
        85 -15.9182      3.7772    156.5240   7.5744582354e+01   4.0790435119e+01     6.957742    0.9349719 -81.22    0.0168075    6.812    0.853
        86 -12.6602      2.3794    209.0785   7.8341595071e+01   2.8111350211e+01     1.147018    0.2839038  88.98   0.00400641    4.444    0.775
        87 -10.6711    205.4765    176.4041   2.6778507252e+01   8.6214767835e+00    0.2421901    0.1052881 -40.58 0.0007927623    2.053    0.513
        88 -10.4076    197.9131    175.7479   2.7961012248e+01   9.7552712148e+00    0.2073798    0.1482398 -48.89 0.0008466172    1.592    0.372
        89  -9.8699    182.5630    175.8148   3.0765200340e+01   1.1916312594e+01    0.1804215    0.1160019 -50.48 0.0009557172    1.748    0.428
        90 -10.2814    191.0394    178.9115   2.9754347463e+01   1.0187418293e+01    0.2575966    0.1565292 -52.95  0.001079001    2.081    0.520
        91 -12.0303    249.9109    199.7147   2.3895511064e+01   1.3654873370e-01    0.3858695    0.1435354 -36.81  0.001396026    2.193    0.544
        92 -10.7632    246.1648    169.2590   1.9332656783e+01   4.5770516846e+00    0.1785892    0.1555428  35.81  0.001292652    1.586    0.369
        93  -9.6878    179.3090    169.6456   3.0249590810e+01   1.3477875496e+01    0.1227846    0.1050469 -79.14 0.0007043211    1.724    0.420
        94 -11.2567    192.3773    163.8264   2.6735514574e+01   1.2537563059e+01    0.6695119     0.230854 -42.88  0.002730276    2.645    0.622
        95 -13.7748    242.9268    245.1016   3.1670257711e+01  -4.6142088283e+00     0.969218    0.5742152  -0.74  0.007331537    1.364    0.267
        96  -9.8624    185.2220    165.8029   2.8412801888e+01   1.3265445697e+01    0.1955761     0.145241 -84.71 0.0009439262    2.747    0.636
        97 -13.7890    246.7097    212.5614   2.6361835270e+01  -1.1522605898e+00     1.418975    0.3111632 -39.13  0.006044555    4.020    0.751
        98 -12.8343    241.9064    200.4019   2.5145575737e+01   8.6475553214e-01    0.7401352    0.2952377 -24.01  0.003663327    2.724    0.633
        99 -11.1498    245.4898    160.9971   1.7968674686e+01   5.8067254645e+00    0.3022357    0.1798386 -53.34  0.001697938    2.452    0.592
       100 -11.5423    245.9614    156.9665   1.7185167984e+01   6.3159756805e+00     0.504101     0.173042 -45.35  0.002212126    3.135    0.681
       101 -10.3296    177.0538    160.4841   2.8940455108e+01   1.5473842641e+01    0.2515388    0.1775967 -54.56  0.001042389    1.633    0.388
       102 -10.9786    238.4848    159.2161   1.8602022597e+01   6.9239055325e+00    0.2018616    0.1635703 -49.19  0.001278098    1.516    0.341
       103 -12.2629     13.2652    231.7449   7.6589190216e+01   2.2360589369e+01    0.4940919    0.3639546  15.60  0.002436191    1.532    0.347
       104 -11.0690    227.7475    154.3462   1.9228266506e+01   9.0413051625e+00    0.5583412    0.1728012 -31.10  0.002048234    3.768    0.735
       105 -10.6850    187.9173    155.1911   2.5870082847e+01   1.4714515844e+01    0.4882504    0.1568758 -47.79  0.001740961    3.391    0.705
       106 -13.4084    235.3304    149.4097   1.7234573259e+01   8.7645232291e+00      1.32642    0.7454776 -17.89  0.007137856    2.081    0.520
       107 -13.3890    219.4825    108.3613   1.1195055165e+01   1.7428274795e+01    0.9869551    0.7946315 -42.61  0.006401883    1.051    0.049
       108 -13.7537    228.4148    109.8582   1.0363414128e+01   1.5744242629e+01     1.732743    0.5888581 -36.60  0.007494654    2.384    0.581
       109 -13.7628    240.2707    124.0706   1.1746865924e+01   1.1826035638e+01     2.211141    0.5393968 -47.05  0.006698597    5.827    0.828
       110 -11.3230    218.2498    246.6112   3.5679470179e+01  -2.5764627980e+00    0.3563767    0.1840939 -42.92   0.00225881    2.369    0.578
       111 -12.9385    237.7850     94.7190   6.1469620491e+00   1.6496448913e+01    0.7004503    0.5040609  18.00  0.004185693    2.202    0.546
       112 -11.7289    207.8919    146.0318   2.0652398460e+01   1.3193477578e+01    0.4980752     0.301964 -43.97  0.002737737    1.509    0.337
       113 -10.7001    211.9693    150.3326   2.0848858963e+01   1.1885623806e+01    0.5810755    0.1341029 -39.16  0.002010125    3.711    0.731
       114 -10.3489    215.7684    149.5883   2.0113848614e+01   1.1451920564e+01    0.2461457    0.1850769 -57.11 0.0009098801    1.687    0.407
       115 -10.8361    217.5909    144.8380   1.8913691187e+01   1.1941315595e+01    0.3534434    0.2420602   0.43   0.00184001    1.876    0.467
       116 -10.2909    214.3375    142.6874   1.8984260815e+01   1.2766544974e+01     0.228603    0.1443281 -44.13 0.0007689862    1.447    0.309
       117 -11.2879    250.2134    153.3258   1.5978243193e+01   6.3060754555e+00    0.4791449    0.1234859 -40.54  0.002011654    3.128    0.680
       118 -11.7471    179.9156    132.4190   2.2627693091e+01   2.0159617292e+01    0.5268692    0.4059114 -28.68  0.002939793    1.248    0.199
       119 -11.9556    199.3834    126.1037   1.7916338319e+01   1.7906288839e+01    0.4418004    0.3376397 -89.24  0.002417434    1.998    0.500
       120 -12.1339    191.9207    150.5262   2.4229156671e+01   1.4902881478e+01    0.6239778    0.3601467 -46.52  0.003177911    1.679    0.404
       121 -13.3063    175.0480    141.6694   2.5521848024e+01   1.9288426458e+01    0.9748929    0.5526833 -46.92  0.004650743    1.686    0.407
       122 -13.6374    194.4608    131.0956   1.9787180258e+01   1.7879385653e+01     1.089234    0.7855202  78.66  0.005579271    2.292    0.564
       123 -13.7761    194.1524    140.3498   2.1776660257e+01   1.6318153009e+01    0.9380401    0.8389862  68.31  0.005580184    1.441    0.306
       124 -13.2247    207.0009    136.0563   1.8787197152e+01   1.4980432816e+01    0.8188905    0.6245413 -31.10  0.005018173    1.123    0.110
       125 -10.8982    182.6393    150.5557   2.5916333952e+01   1.6382420873e+01    0.4437709    0.1867345 -54.13  0.001586932    3.542    0.718
       126  -9.6675    157.4123    153.2096   3.1492245224e+01   2.0082593562e+01    0.1942817    0.1287414 -55.68 0.0008077766    1.679    0.404
       127  -9.6865    162.2917    149.6623   2.9740463434e+01   1.9949392494e+01    0.1345125    0.1107672 -79.94 0.0004747115    1.643    0.392
       128 -11.0910    223.8253    146.1676   1.8248314902e+01   1.0834740143e+01    0.3767831    0.2075939 -26.55  0.001759455    1.744    0.427
       129  -9.8585    224.5356    140.1106   1.6972248889e+01   1.1671391689e+01    0.2273615   0.09745082 -41.18 0.0007198698    1.939    0.484
       130  -9.6959    155.4696    143.4624   2.9893849578e+01   2.2374872637e+01    0.1407264    0.1325543 -30.43 0.0001314644    1.013    0.013
       131 -12.8169      9.9216    223.1148   7.7038849667e+01   2.4440368775e+01    0.9535573    0.3593047  67.54  0.004374487    2.575    0.612
       132 -10.1123    166.4978    140.4624   2.6951649926e+01   2.1010972804e+01      0.23672    0.1258447 -52.86 0.0008294233    2.060    0.515
       133 -10.6612    218.8654    138.6030   1.7497277834e+01   1.2741720613e+01     0.239252    0.1502057 -42.50 0.0007409817    1.391    0.281
       134 -10.6474    163.0787    135.3119   2.6534606808e+01   2.2630467982e+01    0.2829131    0.1986861 -48.10 0.0008713432    1.368    0.269
       135 -12.7226     11.9311    248.2352   7.7439267658e+01   1.9247357047e+01    0.5647817    0.2110252  52.26  0.002825485    2.028    0.507
       136 -10.3001    225.9312    133.4783   1.5472492840e+01   1.2494532540e+01    0.1895253    0.1366522 -34.21 0.0006889774    1.114    0.102
       137 -12.3119    183.6524    143.6903   2.4327821233e+01   1.7457847710e+01    0.8320388    0.5164483 -74.79  0.003006932    4.391    0.772
       138 -11.1707    172.0324    128.7046   2.3294853750e+01   2.2272785749e+01    0.3063999    0.1860692 -54.35  0.001216568    1.789    0.441
       139 -10.8615    220.9630    128.7228   1.5216206897e+01   1.3986213153e+01    0.2369608    0.1529685 -42.17 0.0008651182    1.315    0.239
       140 -11.6855    186.3261    112.7826   1.7114462249e+01   2.2552795235e+01    0.3949912    0.2299859 -40.75  0.001936496    1.505    0.336
       141 -12.6457    182.7940     94.9149   1.3480916816e+01   2.6373200316e+01    0.6546313    0.4143015 -10.62  0.002731877    2.844    0.648
       142 -11.7855    191.1214    112.9644   1.6362957583e+01   2.1634014012e+01    0.5088418    0.2309574 -45.73  0.002093046    1.991    0.498
       143 -14.4385    187.5927    101.2785   1.4233748681e+01   2.4328967319e+01     1.372123     1.044305   5.83   0.00718981    1.898    0.473
       144 -11.1839    212.0071    128.7441   1.6519058599e+01   1.5386808582e+01    0.3507838    0.1891351 -52.62  0.001303469    2.113    0.527
       145 -12.4434      4.8516    227.7197   7.8349441229e+01   2.3910148657e+01    0.5961952    0.2460217  57.41  0.002550304    1.966    0.491
       146 -13.4107    200.1178    112.2209   1.4779217081e+01   2.0136281821e+01     1.042293     0.517924 -43.82  0.004953375    1.737    0.424
       147 -11.3894    180.2193    123.6641   2.0643420655e+01   2.1715984104e+01    0.3949515    0.2889406 -38.17  0.001472248    1.227    0.185
       148 -13.4496    197.5974    104.0342   1.3321909695e+01   2.1970611253e+01    0.9248871    0.5474643  55.59  0.004740924    1.992    0.498
       149 -10.9358    188.6335    122.6188   1.8935603951e+01   2.0384855385e+01    0.2666689       0.2191 -48.29  0.001505313    1.152    0.132
       150 -11.9187      2.0015    220.1162   7.8772884798e+01   2.5739569043e+01    0.4007372    0.1673503  79.56   0.00157587    2.327    0.570
       151 -10.5397    220.5185    120.2131   1.3538277932e+01   1.5397204701e+01    0.2420862    0.1000449 -41.15 0.0006658921    1.969    0.492
       152 -10.1689    194.9531    120.4734   1.7412429359e+01   1.9640441765e+01    0.2521554    0.1746982 -25.81  0.001349702    1.480    0.324
       153 -10.4426    174.1410    118.8903   2.0673217348e+01   2.3730717464e+01     0.220894    0.1804453 -56.96  0.001096068    1.248    0.199
       154 -10.6678    208.2863    112.6039   1.3650472433e+01   1.8643664254e+01    0.2150546    0.1431239 -22.39 0.0005267736    1.655    0.396
       155 -13.2517    208.5547    120.6446   1.5336922185e+01   1.7277915016e+01    0.7376885    0.5667011 -71.72    0.0038967    1.725    0.420
       156 -12.4041      4.7550    249.6879   7.8984664797e+01   1.9593345790e+01    0.3808503    0.1928696  35.04   0.00137902    1.483    0.326
       157 -12.0265    186.6712    136.9302   2.2369672483e+01   1.8168805506e+01    0.6580763     0.321129 -35.12  0.002952151    1.952    0.488
       158 -12.0428    154.1022     97.2544   1.9266101557e+01   3.1890811652e+01    0.5606584    0.3112611 -60.92  0.002225239    2.336    0.572
       159 -12.9575    159.1991     95.7464   1.7864151461e+01   3.1094270416e+01    0.8447477    0.3797205 -46.05  0.003364515    2.070    0.517
       160 -11.9686    163.6829     94.7985   1.6767194715e+01   3.0322963772e+01    0.7937929    0.3980716 -60.26  0.002917596    2.867    0.651
       161 -13.7563    234.4310    129.5218   1.3551199904e+01   1.1856050030e+01     1.527352    0.4992649 -39.08  0.006774794    2.392    0.582
       162 -10.2399    202.6560     97.0056   1.0984679913e+01   2.2197928850e+01    0.1948725    0.1482327 -39.29 0.0006316682    1.123    0.110
       163 -13.0045    148.6607     90.4494   1.8572481248e+01   3.4375247878e+01     0.801078    0.5743403  -6.65  0.003512326    2.243    0.554
       164 -11.9195    142.1567     86.5573   1.8874218189e+01   3.6563455436e+01    0.6941077    0.3557288 -29.10  0.002566249    2.632    0.620
       165 -10.7326    177.3584     91.6561   1.3567189047e+01   2.8040975372e+01    0.2208026    0.1542985 -67.86 0.0008417008    1.666    0.400
       166 -10.0944    231.6539     89.0478   5.6332195956e+00   1.8319366688e+01     0.179338    0.1254636 -40.76 0.0005987062    1.117    0.105
       167 -10.7386    221.7903    152.6984   1.9795981874e+01   1.0109235508e+01    0.4389973    0.1600993 -40.35   0.00199354    2.292    0.564
       168 -12.5332    183.9874     82.6774   1.0282249386e+01   2.8206307505e+01    0.5818245    0.3428569 -53.51  0.002705337    1.647    0.393
       169 -12.2491    206.0254     75.5421   5.5803754989e+00   2.4937393751e+01    0.7251619    0.1617744 -36.93  0.002434006    3.581    0.721
       170 -13.0092      3.4165    242.7725   7.9086852723e+01   2.1022110157e+01    0.5632007    0.2659023  64.30  0.002962008    1.816    0.449
       171 -11.1643    201.0821     80.1196   7.2754040008e+00   2.5191904218e+01    0.3087846    0.2018135 -35.28   0.00167744    1.379    0.275
       172 -11.9576    146.5583     86.7504   1.7996034348e+01   3.5545664314e+01    0.4127811    0.2672621 -24.41  0.001789783    2.009    0.502
       173 -12.2903     17.7412    240.6579   7.5928303304e+01   2.0182754851e+01    0.6150474    0.1926699  42.72  0.002141966    2.150    0.535
       174 -12.4028    173.5227     75.6862   1.0103656792e+01   3.1576847443e+01     0.436599    0.2575836 -46.86  0.002100286    1.516    0.340
       175 -11.2193    219.5022    239.5251   3.4495406560e+01  -1.8417543277e+00     0.257877    0.1533226 -45.95  0.001310821    2.381    0.580
       176 -11.3437    167.0412     75.9058   1.1210330027e+01   3.2953375852e+01    0.2242987    0.2041965 -55.56  0.001289536    1.039    0.038
       177 -10.2915    176.2528     68.9726   7.9231190225e+00   3.2079234919e+01    0.1869612    0.1073162 -39.33 0.0006327865    1.560    0.359
       178 -11.4190    216.9366    235.3220   3.4313723833e+01  -1.0726176209e+00    0.2420686    0.2020779  29.04  0.001313853    1.680    0.405
       179 -11.2072    192.9996    246.0302   3.9834073844e+01  -2.5137990084e-02    0.2116378    0.1345389 -32.69  0.001441448    1.562    0.360
       180 -10.7943     98.3301    244.8226   5.8410836465e+01   1.0842338647e+01    0.3187933    0.1087914  40.13  0.001422793    2.458    0.593
       181 -10.8708     84.7464    244.8170   6.1367841463e+01   1.2410142323e+01    0.2664856     0.127405  38.11  0.001412544    1.670    0.401
       182 -10.8472    193.5790     65.3089   4.6414062322e+00   2.8968643885e+01    0.2120041    0.1571937  42.28 0.0009109882    1.773    0.436
       183 -12.0407      2.0756     40.7972   6.2184682144e+01   7.1525723799e+01    0.7205732    0.2007429 -65.68  0.002707635    2.998    0.666
       184 -11.6807    204.6412     54.2445   6.8423005379e-01   2.8305465245e+01    0.2979383    0.2074294   9.05  0.001465382    2.749    0.636
       185 -12.3243    210.3735     53.2301   3.5986768047e+02   2.7301897480e+01     0.370114    0.1754615 -39.36  0.001858755    1.694    0.410
       186 -10.7184    200.8454     51.9172   5.1489080565e-01   2.9399688709e+01    0.1883687    0.1703436 -28.40 0.0007858843    1.295    0.228
       187 -12.8849      8.4221    236.9071   7.7838716295e+01   2.1746117514e+01     0.875927    0.1463251  42.23   0.00363813    2.959    0.662
       188 -10.9068    186.4875    249.2045   4.1400462781e+01   2.3200005295e-01    0.3050714    0.1641321   4.75  0.001797772    1.947    0.486
       189 -11.6136     56.6810    241.5079   6.7330164986e+01   1.6141654645e+01    0.4690142    0.1793091  38.90  0.001879649    1.951    0.487
       190 -12.7711    185.4425     51.6563   2.1627003329e+00   3.2691360237e+01    0.6603323    0.5289549  68.68  0.003777344    1.360    0.265
       191 -10.8416    183.6938    240.7112   4.0771403790e+01   1.6613767023e+00    0.1854244    0.1732434 -31.96  0.001090712    1.547    0.354
       192 -10.8084    151.5025     40.4956   3.4926604570e+00   4.2064883538e+01    0.2869712    0.1322483  67.92  0.001212595    2.171    0.539
       193 -10.7270     73.0977    240.3196   6.3566150347e+01   1.4553605181e+01    0.2182659    0.1736827  72.63   0.00123293    1.403    0.287
       194 -12.3819    188.1227     36.0816   3.5782360495e+02   3.4208007166e+01    0.4537497    0.3064779 -75.82  0.002569638    1.436    0.303
       195 -11.1354     38.4312    240.3045   7.1335827032e+01   1.8271746061e+01    0.2873942     0.163681  49.88  0.001086848    1.443    0.307
       196 -12.1570    187.2797     25.4745   3.5514490708e+02   3.5696542359e+01    0.3052734     0.293583  57.92  0.001423075    1.347    0.258
       197 -11.2745    192.0297    237.6709   3.8865197929e+01   1.1808258198e+00    0.2573473    0.1994069  30.25  0.001530884    1.497    0.332
       198 -10.5828    214.0659    240.2521   3.5478297078e+01  -1.4042841682e+00    0.2170153    0.1365327 -35.78  0.001529084    1.645    0.392
       199 -11.1063     45.1271    237.0581   6.9641400448e+01   1.8220835508e+01    0.3629248    0.1815835  56.40  0.001548756    1.890    0.471
       200 -11.4670    206.9252    237.7989   3.6317570375e+01  -3.8456622158e-01    0.2419466    0.1611753  35.69  0.001344624    1.861    0.463
