#   1 NUMBER                 Running object number                                     
#   2 MAG_AUTO               Kron-like elliptical aperture magnitude                    [mag]
#   3 X_IMAGE                Object position along x                                    [pixel]
#   4 Y_IMAGE                Object position along y                                    [pixel]
#   5 X_WORLD                Barycenter position along world x axis                     [deg]
#   6 Y_WORLD                Barycenter position along world y axis                     [deg]
#   7 A_WORLD                Profile RMS along major axis (world units)                 [deg]
#   8 B_WORLD                Profile RMS along minor axis (world units)                 [deg]
#   9 THETA_WORLD            Position angle (CCW/world-x)                               [deg]
#  10 FWHM_WORLD             FWHM assuming a gaussian core                              [deg]
#  11 ELONGATION             A_IMAGE/B_IMAGE                                           
#  12 ELLIPTICITY            1 - B_IMAGE/A_IMAGE                                       
         1 -11.8688     76.7767     21.5429   8.3580184685e+01   6.1476736133e+01    0.5314121    0.3345999  38.81  0.001887699    1.594    0.373
         2 -11.6203     88.9896     13.5330   7.6079561399e+01   6.0191240490e+01    0.5924785    0.3301906 -39.64  0.002864723    2.011    0.503
         3 -11.0277     92.2280      9.4527   7.3293488815e+01   5.9996824745e+01    0.3918631    0.2823334  74.00 0.0009391001    1.968    0.492
         4 -11.0034     13.8616     15.9855   1.0778853840e+02   7.0510627955e+01    0.3053214    0.1972837  18.04  0.001561115    1.773    0.436
         5 -11.4359     40.3519     19.3474   9.6770714081e+01   6.7311205119e+01    0.6192068    0.3982816 -20.85  0.003662105    1.452    0.312
         6 -10.8706     22.1431      9.1363   1.0059505768e+02   7.0940530514e+01    0.3224047    0.1963132  -0.98  0.001958205    1.841    0.457
         7 -11.8346     30.3808      7.3994   9.5692487115e+01   7.0344281035e+01    0.5083378    0.3263823 -28.35  0.002367248    1.258    0.205
         8 -11.4815     35.0107     12.9541   9.6223348630e+01   6.8963397272e+01    0.3690977    0.2412294 -40.39  0.001575666    1.424    0.298
         9 -11.8951     40.2303      8.4864   9.1663705115e+01   6.8989248533e+01     0.503667    0.2909566 -30.82  0.001136993    1.469    0.319
        10 -10.9735     99.5723     19.0123   7.5429452417e+01   5.7336816887e+01    0.4050387    0.3267335  73.06  0.001851373    1.617    0.382
        11 -11.3975    155.9652     13.7741   6.1182912305e+01   4.4417363529e+01    0.5042229     0.275717  30.58  0.002102801    2.248    0.555
        12 -10.5059    119.3923     12.1792   6.7610610363e+01   5.3668524429e+01    0.2842453    0.1971271  67.16 0.0009436548    1.564    0.361
        13 -12.1317     56.5838      5.2908   8.3171151494e+01   6.7050142331e+01    0.5886832    0.3592417 -13.71  0.003313634    1.564    0.361
        14 -11.6725     11.5330      6.4139   1.0481278479e+02   7.2318783290e+01    0.4770364    0.4346998 -65.26  0.003682568    1.669    0.401
        15 -10.3860      2.1092      3.0000   1.0842341720e+02   7.3566452420e+01    0.1848922     0.139832  -1.53  0.001415718    1.375    0.273
        16 -11.2050      4.4253      9.8932   1.1015260461e+02   7.2243837175e+01    0.2507271    0.1754712  -4.19 0.0007986398    1.490    0.329
        17 -11.0579      2.3940      6.3343   1.0974688544e+02   7.2986497077e+01    0.2091261    0.1657852 -13.90 0.0005363543    1.238    0.192
        18 -11.7159    151.0538      7.5996   5.9826005018e+01   4.6288391637e+01    0.4141231     0.312045   6.74  0.002074084    1.484    0.326
        19  -9.3377    124.6240      8.7081   6.5091806804e+01   5.2774757914e+01    0.1538849   0.09071223  33.95 0.0007022012    1.735    0.424
        20 -11.7162     80.2058      1.8015   7.3232224904e+01   6.3228881524e+01    0.4523497    0.2207605  42.09   0.00111207    1.875    0.467
        21 -10.9099     64.9836      6.5192   8.0638166809e+01   6.5510073220e+01    0.2930584    0.1710477  19.64  0.001067339    1.889    0.471
        22 -10.4886     70.1699      6.9141   7.9000934834e+01   6.4554198466e+01    0.2845932    0.2563019  48.24  0.001263021    1.393    0.282
        23 -10.2776     73.6586      5.2939   7.7023817603e+01   6.4104954929e+01    0.2499202    0.1766233  57.63  0.001416865    1.757    0.431
        24 -11.7317    194.3463      5.9075   5.3468698772e+01   3.5220811239e+01    0.4528524    0.2760338  65.01  0.002230027    1.521    0.342
        25 -10.7854    119.8699      4.6254   6.4442486372e+01   5.4300232834e+01    0.4701826    0.1775795  45.21  0.001287632    2.405    0.584
        26  -9.7782    235.5889      4.2665   4.9128911550e+01   2.5128721361e+01    0.1701475    0.1253106 -12.28 0.0009466115    1.606    0.377
        27 -10.8379    209.9601      7.3342   5.2228566770e+01   3.1098234469e+01    0.2421881    0.1741703 -45.77  0.001196065    1.347    0.258
        28 -11.2183    160.1501      2.2771   5.6609945499e+01   4.4427257681e+01    0.3296852     0.301764 -73.72  0.001954743    1.148    0.129
        29 -10.9114    130.2992      3.6132   6.1969255761e+01   5.1870447406e+01    0.2893787    0.1882005  53.50  0.001474836    1.377    0.274
        30  -9.8832    230.5365      3.4966   4.9347974555e+01   2.6409808681e+01    0.1307552    0.1171806 -69.63 0.0002313017    1.011    0.011
        31 -10.0587    217.8185      3.6151   5.0477491517e+01   2.9500137100e+01    0.1872664    0.1167973 -87.23 0.0003561706    1.639    0.390
        32 -10.6508    172.6155      3.0656   5.5190890121e+01   4.1122088194e+01    0.3304566     0.190164  84.24 0.0007714931    1.876    0.467
        33  -9.6076    176.5244      2.4867   5.4516129876e+01   4.0157284396e+01    0.2372278    0.2073983 -42.46   0.00137593    1.195    0.163
        34  -9.8590    112.8789      2.9449   6.5251289479e+01   5.6095392527e+01    0.2044905    0.1612234 -63.16 0.0007604485    1.667    0.400
        35 -10.8383     19.1173      2.6856   9.8959045021e+01   7.2237508985e+01    0.3079389    0.1793581  11.35  0.001902348    1.896    0.473
        36  -9.7165     49.5801      1.9362   8.4225804619e+01   6.8550355827e+01    0.3018612    0.1517399  34.55  0.001609073    1.991    0.498
        37 -10.0421    100.0709      1.7470   6.7733557086e+01   5.9098324771e+01    0.1854923     0.182484 -50.91 0.0004069619    1.248    0.199
        38  -9.1762    204.2910      1.3328   5.1128394940e+01   3.3108869726e+01    0.1366442   0.09759542  37.33 0.0002327886    1.631    0.387
        39  -9.3663     67.4186      1.4863   7.7229793683e+01   6.5658752061e+01     0.127686    0.1026596   6.79 0.0001220475    1.043    0.041
        40 -10.0031      3.5139    118.5332   1.3277961330e+02   4.9620074029e+01    0.1142975    0.0863023 -83.97 0.0001159353    1.016    0.015
        41 -10.8513     12.4367    249.3353   1.3899152349e+02   2.3758761077e+01    0.1669151    0.1334095 -64.87  0.001479458    1.930    0.482
        42 -12.2555      4.9710    240.8318   1.3976304527e+02   2.5821599673e+01    0.4063365    0.1555536  52.64  0.002794007    1.791    0.442
        43 -10.8680      1.6914    248.6931   1.4051187379e+02   2.4884093304e+01    0.2914695    0.1079688 -83.01  0.001948236    2.378    0.580
        44 -12.6766      8.6769    246.0416   1.3941333788e+02   2.4640418229e+01    0.4265143    0.3302557  19.72  0.003458693    2.494    0.599
        45 -13.5881     10.2055    229.9292   1.3854420982e+02   2.7115456631e+01    0.7149608    0.3521143  69.21   0.00512733    1.510    0.338
        46 -10.2901      2.2129    114.3489   1.3270245073e+02   5.0618134476e+01    0.1615253    0.1046494  24.29  0.000575282    2.007    0.502
        47 -10.5942     65.8782    111.2907   1.1497252328e+02   4.5263656847e+01    0.3739059    0.1520644 -50.38   0.00157088    2.289    0.563
        48  -9.8649    249.4694    111.5348   7.4154502665e+01   7.9827346015e+00    0.1379914    0.1229616 -15.16  0.000648924    1.009    0.009
        49 -11.1943      4.1674    109.2051   1.3166710356e+02   5.1624825789e+01     0.253713     0.147494  30.86  0.001610825    2.085    0.520
        50 -10.1932     58.0777    107.9291   1.1652465214e+02   4.7018881122e+01    0.2017011    0.1488663 -31.90  0.001103066    1.674    0.403
        51 -10.7334     13.3195    108.0222   1.2907662907e+02   5.1275042102e+01    0.1727679    0.1252339 -74.70 0.0004722919    1.074    0.069
        52  -9.5998     93.4925    104.4778   1.0577575226e+02   4.2676030766e+01    0.1411381    0.1317943 -52.23  5.43854e-05    1.046    0.044
        53  -9.9011    113.5102    102.4883   9.9832065660e+01   3.9508764089e+01    0.1456822    0.1405037 -51.72 0.0001060189    1.013    0.013
        54 -10.9198     57.5287    101.5219   1.1543145273e+02   4.8545263220e+01    0.3300791    0.2289508  42.93   0.00154299    1.605    0.377
        55 -11.4169     18.1860     94.4814   1.2585255284e+02   5.3950483184e+01    0.2786284     0.176798  82.85  0.001085234    1.709    0.415
        56  -9.8949     62.0382     98.3433   1.1344199896e+02   4.8705091443e+01     0.181806     0.168654 -79.40  0.001152139    1.084    0.078
        57  -9.4025    129.5086     97.5285   9.4351459769e+01   3.7327532039e+01     0.148778    0.1460348 -46.91 0.0001979008    1.006    0.006
        58  -8.9722    101.6360     96.7053   1.0157618183e+02   4.2967674343e+01     0.146027    0.1140247  -7.52 0.0003289855    1.712    0.416
        59 -10.4764     78.9371     94.9837   1.0766638416e+02   4.7108330002e+01    0.2039487    0.1834453 -53.66 0.0003076021    1.022    0.022
        60 -11.1018     27.4553     91.1326   1.2251192647e+02   5.3976575265e+01    0.4639595    0.2457875  55.12  0.002375565    2.457    0.593
        61 -10.1119     25.3117     84.8139   1.2205872167e+02   5.5567394011e+01     0.231559     0.149544 -82.05  0.000623927    1.554    0.357
        62 -10.8027     58.5341     91.4329   1.1298846893e+02   5.0704879660e+01    0.2617835     0.215545 -25.10 8.502157e-05    1.407    0.289
        63 -11.2352     11.1765     88.1869   1.2702054851e+02   5.5835218491e+01    0.5623854     0.194613 -68.11  0.002502631    2.172    0.540
        64 -10.2806     17.3001     88.8774   1.2525322059e+02   5.5266554406e+01    0.3178099    0.1936113 -20.00  0.001792675    2.392    0.582
        65 -10.7045     76.4495     89.2149   1.0698459825e+02   4.8760549339e+01    0.2418459    0.2226208 -47.30 0.0004979462    1.042    0.040
        66 -10.2688     43.3859     89.2156   1.1721066513e+02   5.2922659828e+01    0.4364344    0.1774592  51.30  0.001708249    3.788    0.736
        67  -9.8854      1.5525     89.5669   1.3010488354e+02   5.6102258909e+01    0.2193739   0.08658007 -72.13  0.000532277    1.910    0.477
        68 -11.0809     98.7179     89.3918   1.0045708031e+02   4.5068162356e+01    0.2571564    0.1913798  29.41  0.001294764    1.529    0.346
        69  -9.6210     33.1092     87.9667   1.2018320840e+02   5.4197504219e+01    0.1715231    0.1114391 -52.60 0.0004345305    1.322    0.244
        70  -9.5326    124.1514     86.8218   9.2733768153e+01   4.0639273394e+01    0.2077427     0.179719  -0.20  0.000659734    1.314    0.239
        71 -11.3016     54.6882     84.8625   1.1268953358e+02   5.2642129186e+01    0.3140587    0.2169715 -72.17  0.001716627    1.505    0.336
        72 -10.4897      3.8568     83.2737   1.2855665973e+02   5.7358086029e+01    0.2554376    0.1717652  80.30  0.001151795    1.572    0.364
        73 -10.0503      2.8778     78.7660   1.2820890700e+02   5.8399223278e+01    0.1778675    0.1190897 -56.65  0.001193268    1.231    0.188
        74  -9.4550     78.2067     83.3735   1.0492901409e+02   4.9775112684e+01    0.1823317     0.127685  50.55 0.0004052067    1.651    0.394
        75 -11.2720     64.0586     79.8724   1.0846102114e+02   5.2562600707e+01    0.4618348    0.2865965 -55.34  0.002388404    1.436    0.304
        76  -9.6830    250.4004     80.8097   6.6642524763e+01   1.2199235294e+01    0.1954553    0.1247777 -18.80 0.0006780627    1.623    0.384
        77 -10.4215     89.7451     79.4461   1.0031112240e+02   4.8751074690e+01    0.4531519    0.2519813 -34.59  0.001960473    1.997    0.499
        78  -9.4249     24.0281     78.9987   1.2138595743e+02   5.6962326886e+01    0.1965449    0.1168573 -42.06  0.001124151    1.658    0.397
        79 -10.5095    176.8890     77.2717   7.7704187755e+01   3.0136323882e+01    0.3666198    0.2530188  49.05  0.001670235    1.449    0.310
        80 -11.7352     56.5794     75.4343   1.0975065910e+02   5.4489860109e+01    0.4615204    0.3051831  22.52  0.001713893    1.851    0.460
        81  -8.9873     74.7381     75.6764   1.0389633564e+02   5.1956327211e+01    0.1374245   0.09859435 -27.16 0.0001862483    1.557    0.358
        82  -9.3617     70.2963     75.3397   1.0522851495e+02   5.2680323019e+01    0.1401256   0.09784938 -26.23 0.0004533978    1.658    0.397
        83 -10.4017     32.1954     73.1633   1.1743600664e+02   5.7568228080e+01     0.220843    0.1776513  70.89 0.0007542554    1.523    0.343
        84 -11.1002     35.8155     72.1378   1.1596126761e+02   5.7462040922e+01    0.4388608    0.2779987 -68.27  0.001579867    1.495    0.331
        85 -11.4037      4.5030     73.9004   1.2692815028e+02   5.9373682516e+01    0.3710243    0.1998636  26.96  0.002253249    2.313    0.568
        86  -9.7180    136.4882     74.1596   8.5768777676e+01   4.0391729103e+01    0.2259866     0.148066 -37.00 0.0007881642    1.503    0.335
        87  -9.0323     96.3069     73.6539   9.6615455972e+01   4.8795551902e+01    0.1437457     0.113773 -80.36 0.0007043066    1.698    0.411
        88 -11.3383    105.9066     71.6296   9.3167299723e+01   4.7389291969e+01    0.2746135    0.2482144  -7.07 0.0004239924    1.143    0.125
        89  -9.2735    124.4565     78.9999   9.0335402863e+01   4.2131024209e+01    0.2049061    0.1273861 -63.10 0.0006013637    2.304    0.566
        90  -9.1657     81.0137     72.4985   1.0097608141e+02   5.1651971891e+01    0.1822401    0.1200514  65.69  0.000602364    2.387    0.581
        91 -10.3799     76.1624     70.6140   1.0196636065e+02   5.2806841461e+01    0.1776889    0.1309494  19.98 0.0005349812    1.615    0.381
        92  -9.6620    114.2197     66.6399   8.9213625181e+01   4.6673424887e+01    0.2080268     0.181312  69.67 0.0003299662    1.348    0.258
        93 -10.6652     34.6366     64.8093   1.1460233859e+02   5.9159812174e+01    0.2896425    0.1792036 -48.24 0.0006614875    1.333    0.250
        94 -11.5037     39.2745     62.1804   1.1224566036e+02   5.9272537632e+01    0.6808886    0.2355955 -40.44  0.001269696    3.148    0.682
        95 -10.7623    131.3951     64.4277   8.3937279124e+01   4.3327057914e+01    0.4040302    0.2919867  51.52  0.001249193    1.419    0.295
        96 -10.0594     14.2387     63.8250   1.2171637295e+02   6.0979569343e+01    0.2729455    0.1321871 -83.21  0.001247775    2.864    0.651
        97  -9.2975    109.9712     64.4714   8.9693200715e+01   4.7957628615e+01    0.1910861    0.1325902  76.09  0.000595204    2.333    0.571
        98  -9.7361     72.5405     63.2960   1.0091351965e+02   5.4864692002e+01    0.2509617    0.1237219 -51.86 0.0006061275    1.960    0.490
        99 -11.3724      3.6079     61.2616   1.2503583267e+02   6.2150177450e+01    0.4532605    0.2337737  69.28  0.002192658    3.335    0.700
       100 -11.0514      9.7198     60.5254   1.2267170910e+02   6.1968430911e+01    0.3432702     0.156057 -51.19  0.001903034    1.683    0.406
       101 -10.5058     62.7860     62.0441   1.0384452679e+02   5.6522136171e+01    0.2724077    0.1855677 -37.57  0.001069308    1.347    0.257
       102  -9.8290     66.5163     60.5568   1.0209196663e+02   5.6304955653e+01    0.2035356    0.1296183  32.53 0.0005707463    1.762    0.433
       103  -9.7853    101.0120     61.9362   9.1450505530e+01   5.0216839173e+01    0.2170964    0.1772672 -77.19 0.0005757993    1.648    0.393
       104 -12.9328     20.7409     57.6758   1.1794462161e+02   6.1841674512e+01    0.4570445    0.2852707 -66.37  0.002743654    1.434    0.302
       105 -10.2015     20.1945     51.3254   1.1655761098e+02   6.3214613211e+01    0.2757334     0.151317 -29.05  0.001060428    2.036    0.509
       106 -12.5604      5.2898     51.5143   1.2242425642e+02   6.4124278488e+01    0.4377777    0.1909415 -37.87  0.002335964    2.240    0.554
       107 -11.8614     15.8997     45.8755   1.1682540817e+02   6.4645214576e+01     0.647153    0.4222665  -9.15  0.004065452    1.864    0.463
       108 -11.1338     54.6421     58.1725   1.0552477808e+02   5.8379845840e+01    0.5698104    0.4034648 -76.49  0.002996881    2.018    0.504
       109 -12.0152     88.3536     53.4653   9.2431516514e+01   5.4162076141e+01    0.4867071    0.3973865   3.52   0.00080675    1.325    0.245
       110 -10.1604     60.0682     58.0556   1.0355134977e+02   5.7702248515e+01    0.2041533      0.17261 -41.72 0.0005686245    1.041    0.040
       111  -9.3042     71.4864     57.2133   9.9301517585e+01   5.6241086217e+01    0.1795483    0.1219628 -54.84 0.0004046864    1.543    0.352
       112 -10.4318    225.2709     55.0271   6.3410825054e+01   2.1561681496e+01    0.4275513    0.3002675   3.43  0.002008717    1.887    0.470
       113 -11.6144    114.5871     53.9816   8.4822142355e+01   4.8887220933e+01    0.3296824    0.3184641  31.97 0.0007955192    1.086    0.079
       114 -10.2560     34.3386     53.5132   1.1167587960e+02   6.1567797925e+01    0.2663412    0.1543606 -38.55 0.0008590008    1.567    0.362
       115 -12.4026     66.1437     52.5813   9.9597375560e+01   5.7940944582e+01    0.4874489    0.2350805  31.47  0.001216253    2.422    0.587
       116  -8.8850    176.2763     52.2962   7.0293911669e+01   3.4277686880e+01    0.1505776    0.1151452  22.39  0.000178393    1.530    0.346
       117  -9.4645     99.7973     56.0373   8.9795522300e+01   5.1549506901e+01    0.1927507    0.1080159 -39.42 0.0005151635    1.692    0.409
       118 -11.0428     98.4757     50.0276   8.8054648033e+01   5.2882774401e+01    0.4734139    0.2731186  21.17  0.001901948    2.614    0.617
       119 -10.6420    104.3244     46.7016   8.5102942897e+01   5.2281404413e+01    0.3955809    0.1957125  31.32  0.001503804    2.694    0.629
       120  -9.4149     75.4680     50.0226   9.5460860128e+01   5.6997535609e+01    0.3140154    0.1729202 -24.92 0.0009373062    2.252    0.556
       121 -10.4975     78.0361     46.0159   9.3127985017e+01   5.7309596159e+01    0.3163835    0.2010638  37.14 0.0007629931    1.682    0.406
       122  -9.7378    118.9428     58.9461   8.5353157451e+01   4.7076652948e+01    0.2229619    0.1795559 -69.76 0.0003936527    1.602    0.376
       123  -9.0296    211.9991     48.7838   6.3528503272e+01   2.5675575380e+01    0.1800607    0.1176059  64.42 0.0003153367    1.564    0.361
       124  -9.6215     83.5139     56.9840   9.5213199862e+01   5.4346709176e+01    0.2400585    0.1271403 -45.38  0.001077255    1.777    0.437
       125  -9.5501     65.0090     46.2579   9.7780187406e+01   5.9311037348e+01     0.172067    0.1567437  -5.72            0    1.105    0.095
       126  -9.7135     30.8239     45.8011   1.1075944686e+02   6.3465535621e+01    0.1891526    0.1356117 -36.29 0.0004362599    1.206    0.171
       127  -9.6862     91.0590     44.5255   8.8307342440e+01   5.5257119928e+01    0.2141655    0.1714783 -29.53 0.0005026918    1.163    0.140
       128 -10.9215     26.0081     43.8223   1.1210680730e+02   6.4286542832e+01    0.2512936    0.2159682 -48.62 0.0009541544    1.123    0.110
       129  -9.7777     94.8763     42.1147   8.6203469771e+01   5.4933224610e+01     0.206375    0.1841017 -48.55  0.000713097    1.270    0.212
       130 -10.2368     70.2412     41.8329   9.4262627673e+01   5.9323767092e+01    0.2930198    0.2255874  24.11  0.001272013    1.377    0.274
       131 -10.3642     36.5105     41.4212   1.0704273660e+02   6.3780227256e+01    0.2092443    0.1699211 -35.84 0.0005995499    1.016    0.015
       132  -9.5137      2.0129     42.2342   1.2160334657e+02   6.6211594158e+01    0.2149859    0.1259454  -5.77  0.001136213    2.163    0.538
       133  -9.6326      5.8089     39.2138   1.1924488843e+02   6.6624731091e+01    0.1975061   0.09074235 -46.85            0    1.634    0.388
       134 -10.3200    181.4704     40.6035   6.5764383171e+01   3.4588185832e+01    0.2963855    0.2128514  51.28 0.0009478405    1.372    0.271
       135 -10.7819    139.2853     40.4914   7.3854736141e+01   4.5335343446e+01    0.3067963    0.2519546  83.02  0.001555766    1.458    0.314
       136 -10.5378    132.3393     38.9347   7.4888567432e+01   4.7238476728e+01    0.3957604     0.343942 -89.78  0.002102547    1.386    0.279
       137 -11.5447    134.2288     34.0553   7.2678096186e+01   4.7469016557e+01    0.2447344    0.2048588  32.08 0.0002916322    1.175    0.149
       138 -10.3119     12.5767     38.1908   1.1606545613e+02   6.6420496850e+01    0.3716535    0.1112131 -56.79  0.001695018    2.426    0.588
       139  -9.4493      8.9839     35.7642   1.1691972741e+02   6.7129883066e+01     0.179899    0.1118624  18.13 0.0006881175    1.966    0.491
       140 -12.4994    122.3399     36.3741   7.6363554828e+01   4.9957129425e+01    0.7678072    0.5561258  25.09  0.003048591    1.495    0.331
       141 -10.5388     22.7765     38.5923   1.1182770294e+02   6.5592635967e+01    0.2084106    0.1848884  54.50 0.0007566003    1.546    0.353
       142 -11.1599     26.4532     35.4076   1.0920565964e+02   6.5899708771e+01    0.4008696    0.1997181 -39.87    0.0018041    1.668    0.400
       143  -9.3643     69.7352     36.9617   9.2551888875e+01   6.0254707064e+01    0.1697647     0.104019 -36.19 0.0003493403    1.470    0.320
       144 -10.5432      2.1484     35.4919   1.1983469948e+02   6.7565504824e+01    0.2769109    0.1810749 -17.34  0.001808908    1.697    0.411
       145  -9.9841     90.8563     34.5514   8.4484669743e+01   5.6926009807e+01    0.3270843    0.1589509 -19.79  0.001252006    2.783    0.641
       146  -9.9571     38.9206     35.5141   1.0396477389e+02   6.4650047883e+01    0.2443952     0.160646  49.76  0.001173617    2.290    0.563
       147 -11.7462     43.9523     28.9258   9.9313381202e+01   6.5260991768e+01    0.4935792    0.3147315 -27.42  0.002437433    1.426    0.299
       148 -10.8631     38.6930     30.8490   1.0229415294e+02   6.5530234038e+01    0.2546152    0.1693841 -15.84 0.0004021822    1.592    0.372
       149  -8.9997     54.8339     34.3974   9.7113770450e+01   6.2901761455e+01    0.3374741    0.1257878  32.21  0.001175815    3.170    0.685
       150  -9.7238     50.2033     33.7664   9.8693613602e+01   6.3627066234e+01    0.1730063     0.154323 -37.71 0.0006030981    1.204    0.170
       151  -9.8513     16.3236     33.3038   1.1293198859e+02   6.7122075230e+01    0.1812481    0.1288397 -31.97 0.0004315197    1.234    0.189
       152 -10.7204     20.0317     31.6458   1.1073199116e+02   6.7158263927e+01     0.313156    0.1872886 -10.33  0.001258659    2.029    0.507
       153 -11.3957    145.1004     32.9373   6.9928122119e+01   4.4940345634e+01    0.2313166    0.2102741  39.65 -0.001320134    1.057    0.054
       154  -9.9542    166.3329     31.1098   6.5286424152e+01   3.9751528512e+01    0.2043622    0.1807484 -28.63 0.0004314033    1.160    0.138
       155  -9.9142    204.9961     30.4913   5.9304662547e+01   2.9806090594e+01    0.2191963    0.1390033  70.49 0.0009891359    1.584    0.369
       156 -10.2374    148.8779     28.9874   6.7775471484e+01   4.4497252817e+01    0.4798914    0.2871457 -61.90  0.001945927    2.431    0.589
       157 -11.0848      8.1272     28.8035   1.1519270743e+02   6.8542061848e+01    0.2766824    0.2129634  64.89  0.001862909    2.051    0.512
       158 -10.7919     69.8744     28.3863   8.8979159680e+01   6.1642107281e+01    0.4570235    0.2232363 -25.57  0.001926435    2.220    0.549
       159 -11.1884     76.9312     25.9336   8.5450207309e+01   6.0812465713e+01     0.309247    0.2745681  24.14 0.0004265181    1.166    0.142
       160 -12.1977     19.6951    248.1745   1.3788185502e+02   2.3216564700e+01    0.3635142    0.2331153  21.25  0.002397285    3.326    0.699
       161  -9.9639    140.2488     27.1281   6.8847363289e+01   4.6894583269e+01    0.2650556    0.1816669  47.99 0.0007310284    1.383    0.277
       162  -9.9664    153.7534     25.6209   6.5674890300e+01   4.3668006073e+01    0.2459952    0.1824156  76.26 0.0006772568    1.464    0.317
       163 -10.4089    100.7089     25.5299   7.7848942371e+01   5.6250704228e+01    0.2456435    0.2022015 -40.02 0.0007735987    1.339    0.253
       164  -9.2958     18.3357     26.3032   1.0961750784e+02   6.8297727948e+01    0.1226244   0.06928562 -29.15 0.0007037751    1.664    0.399
       165 -10.3719    171.2074     24.1908   6.2215330717e+01   3.9318543884e+01    0.3269139    0.2037951 -39.70  0.001513968    1.641    0.391
       166 -10.8932    114.0697     24.1333   7.3697981386e+01   5.3511100071e+01    0.3230892     0.270598   7.65 0.0009139843    1.171    0.146
       167 -10.1508     59.1549     24.2921   9.1211991177e+01   6.3971019102e+01    0.2530595    0.1531785 -21.37  0.001331555    1.649    0.394
       168 -10.2289    219.5150     22.9744   5.5488313118e+01   2.7032258362e+01    0.1952998    0.1183445  10.53 0.0008103963    2.637    0.621
       169  -9.5854     89.4635     22.5249   7.9903315080e+01   5.8950522687e+01    0.2288835    0.1223907 -29.47  0.000898093    1.790    0.441
       170 -10.5212     85.3494     20.9222   8.0490706236e+01   5.9968466506e+01    0.4407964    0.1644726  38.15  0.001681792    2.955    0.662
       171  -9.4635    229.5271    247.9938   1.0360503763e+02  -5.8678746379e+00    0.1383646    0.1005083 -17.33  0.001018201    1.551    0.355
       172  -9.5793    224.7583    246.9326   1.0421935624e+02  -5.0688191108e+00    0.1217958   0.08719663 -17.51 0.0006534434    1.583    0.368
       173  -9.4858     21.8826     22.8186   1.0664760811e+02   6.8639319549e+01    0.1385453    0.1234703 -42.93 0.0002294071    1.275    0.216
       174 -10.5624      1.9538     21.6784   1.1580479668e+02   7.0255123353e+01    0.2459928    0.1287299 -57.50    0.0012746    1.548    0.354
       175 -11.2235     13.3604     20.6820   1.0988603622e+02   6.9709693142e+01    0.2692904    0.2128069 -63.25 0.0008903791    1.517    0.341
       176  -9.1236    136.3553    245.7066   1.1886101586e+02   8.5720205068e+00     0.115625   0.07037228  60.99 0.0007030857    1.688    0.407
       177 -10.1846    175.3060     20.9169   6.0530766999e+01   3.8621813704e+01    0.1973374    0.1941721  11.72 0.0007270345    1.064    0.060
       178  -9.7183    132.0053     20.6716   6.8180921190e+01   4.9702117070e+01    0.2051869    0.1759104  44.99 0.0008099393    1.097    0.088
       179  -9.5262    216.9240    245.0000   1.0521673439e+02  -3.7114422916e+00    0.1866914   0.04957878  41.67 0.0005868467    2.923    0.658
       180 -11.2495     37.1737    241.7242   1.3491719308e+02   2.2394461253e+01    0.3176259   0.09167849  52.87  0.001733639    2.462    0.594
       181  -9.4803     60.6912    241.1595   1.3113562778e+02   1.9749654576e+01    0.1997296   0.05572924  41.86 0.0009860115    2.767    0.639
       182  -9.6302    202.4969    240.1018   1.0691597843e+02  -9.7990849534e-01    0.1411497    0.1108174 -24.93 0.0007554844    1.541    0.351
       183 -11.9250      4.0710    232.5240   1.3958645757e+02   2.7259759962e+01    0.3474611    0.1467407  72.31 0.0003393957    1.848    0.459
       184 -10.3082     30.9559     20.5151   1.0149571786e+02   6.8175976391e+01    0.2183685    0.1318361 -35.25 0.0003007922    1.341    0.254
       185 -12.4738     26.4266    235.9054   1.3629615453e+02   2.4498635809e+01    0.3321342    0.2164348 -83.17  0.001708335    1.458    0.314
       186  -9.9374    199.8613     17.1760   5.6111211917e+01   3.2650606415e+01    0.2136101    0.1784922 -68.44 0.0004534424    1.194    0.163
       187 -10.3531     26.4921     16.4670   1.0182484009e+02   6.9314354270e+01    0.1942126     0.191856  36.34 0.0009583594    1.509    0.337
       188 -10.4232     20.0847     16.8385   1.0507117851e+02   6.9849204508e+01    0.1639186    0.1304848 -26.22 0.0003357148    1.062    0.059
       189 -10.4935     49.0633     16.0705   9.1534142830e+01   6.6690893005e+01    0.1849274    0.1551999 -18.61  0.000578197    1.099    0.090
       190  -9.8720    249.2955    234.0225   9.8366345050e+01  -7.3504287840e+00    0.1504406        0.114  13.16 0.0004337751    1.075    0.069
       191 -10.3686    190.6406     13.9029   5.6269671054e+01   3.5380281987e+01    0.2434483    0.1837949  57.44 0.0007147625    1.280    0.219
       192  -9.7490    174.4931     14.5098   5.8599776084e+01   3.9525226267e+01    0.1414669     0.134019  83.05 0.0008103687    1.032    0.031
       193  -9.7561     62.4983     13.9528   8.5192306036e+01   6.4970493852e+01    0.1888915     0.111178 -29.30 0.0003731064    1.539    0.350
       194 -10.0137    162.1611     13.1288   5.9974303207e+01   4.2880063418e+01    0.2205983    0.1773964  42.03 0.0004633683    1.227    0.185
       195  -9.7143     68.7644     13.5762   8.2715372485e+01   6.3971908739e+01     0.160002    0.1229836  51.18 0.0009414592    1.600    0.375
       196  -9.4560    140.2218    227.3714   1.1609632089e+02   1.0622975833e+01    0.1785752   0.08725421  49.88 0.0009450749    1.738    0.425
       197 -10.0943     33.1343    225.1112   1.3464373909e+02   2.5606215260e+01    0.2524087   0.08299506  47.85   0.00142401    2.232    0.552
       198 -12.0508      7.8824    217.5243   1.3837238044e+02   2.9458061472e+01    0.2782724    0.1869262  72.75   0.00226243    1.025    0.025
       199 -10.8755     16.2225    212.2475   1.3674968857e+02   2.9601226693e+01    0.1610447    0.1473922 -87.24  0.001236372    1.521    0.342
       200  -9.1565    209.6643    211.6835   1.0138346547e+02   1.2987754453e+00    0.1277516   0.08196569  16.03 0.0003622032    1.696    0.410
       201 -10.4429     20.6081    209.7245   1.3587402623e+02   2.9625559054e+01    0.1931806    0.1205616  67.97 0.0002743984    1.196    0.164
       202  -9.2330    246.7733    206.9970   9.4305049320e+01  -4.1496147518e+00    0.1483794   0.08984651 -24.35 0.0008853951    1.686    0.407
       203 -10.2682    123.9952    206.0139   1.1644421250e+02   1.6675164236e+01     0.173584    0.1457249  54.69  0.001151149    1.013    0.013
       204  -9.3718    196.8649    203.8622   1.0237540960e+02   4.5211744552e+00    0.1640104    0.1420024  53.46 0.0006508186    1.330    0.248
       205 -11.6219      9.3224    203.6547   1.3747774891e+02   3.1808345426e+01     0.219277     0.149178  57.01 0.0009077599    1.257    0.205
       206  -9.5811    180.4130    199.2342   1.0464653991e+02   8.0847070291e+00    0.2932408   0.08712213  51.14 0.0009065753    4.577    0.782
       207  -9.1218    123.2781    198.3563   1.1557448314e+02   1.8132866332e+01    0.1148576   0.09876958  -3.96  0.000585855    1.656    0.396
       208  -9.4138     23.2036    197.5598   1.3470341568e+02   3.1619000125e+01    0.1236838   0.09892525  36.19 0.0005274172    1.622    0.383
       209 -10.3787      6.7440    191.8016   1.3731618858e+02   3.4249318567e+01    0.1902054   0.09937202  77.05  0.001260592    1.520    0.342
       210  -9.5268      1.2058    183.0066   1.3785035164e+02   3.6403093131e+01    0.1349679   0.06412023 -82.90 0.0004724012    1.668    0.400
       211  -9.9477    100.9957    175.9994   1.1706664794e+02   2.5970261865e+01    0.1780935    0.1568344  69.02            0    1.019    0.019
       212 -10.9916      4.6828    167.4410   1.3630338119e+02   3.9194875733e+01    0.2873458    0.1547599  56.80  0.001302018    1.628    0.386
       213  -9.2058     41.6545    158.3141   1.2782758372e+02   3.7629763864e+01     0.123485    0.0998236  86.82 0.0008386916    1.012    0.012
       214  -8.9080    247.4684    155.5142   8.4287299963e+01   2.1454949156e+00    0.1324636     0.112676   2.21  7.72389e-05    1.002    0.002
       215 -10.0966      2.1084    153.6329   1.3592886116e+02   4.2221094755e+01    0.1949025    0.0741194  40.77   0.00109479    2.500    0.600
       216 -10.1920     21.9276    143.3616   1.3075995645e+02   4.2791927370e+01    0.2116532    0.1290866 -87.36  0.001307242    1.373    0.271
       217 -11.4663      2.7803    138.5368   1.3468666051e+02   4.5347404715e+01    0.2580489    0.1493372  42.62  0.001700754    1.834    0.455
       218 -10.9205      8.9826    135.5004   1.3301896226e+02   4.5547851005e+01    0.1835445    0.1175701 -80.49 0.0005185833    1.209    0.173
       219  -9.4378    212.3049    133.6890   8.5556629180e+01   1.2304027926e+01    0.1371323    0.1153608 -72.27 0.0003166555    1.614    0.380
       220 -11.1085     11.6696    129.3409   1.3181710246e+02   4.6684570009e+01    0.4409733    0.1868321  68.66  0.002080001    2.885    0.653
       221  -9.3192     35.4478    130.5236   1.2610715182e+02   4.4365320585e+01    0.1215215   0.09933057 -74.68  0.000116368    1.085    0.078
       222 -11.4692     23.3299    121.2108   1.2803242771e+02   4.7553409866e+01    0.4338694    0.1979171  86.45  0.001617871    2.703    0.630
