#   1 NUMBER                 Running object number                                     
#   2 MAG_AUTO               Kron-like elliptical aperture magnitude                    [mag]
#   3 X_IMAGE                Object position along x                                    [pixel]
#   4 Y_IMAGE                Object position along y                                    [pixel]
#   5 X_WORLD                Barycenter position along world x axis                     [deg]
#   6 Y_WORLD                Barycenter position along world y axis                     [deg]
#   7 A_WORLD                Profile RMS along major axis (world units)                 [deg]
#   8 B_WORLD                Profile RMS along minor axis (world units)                 [deg]
#   9 THETA_WORLD            Position angle (CCW/world-x)                               [deg]
#  10 FWHM_WORLD             FWHM assuming a gaussian core                              [deg]
#  11 ELONGATION             A_IMAGE/B_IMAGE                                           
#  12 ELLIPTICITY            1 - B_IMAGE/A_IMAGE                                       
         1 -14.3293     68.5526    144.3224   9.8934015018e+01   3.7512122209e+01     4.465897     2.269401  73.53  0.007987536    4.420    0.774
         2 -13.4736    202.0102     41.5469   4.1717235728e+01   3.0030402200e+01      1.30209     1.089146 -30.20  0.004861891    1.417    0.295
         3 -13.5070    213.3595     30.9763   3.8008139596e+01   2.8868797892e+01    0.9202669    0.8099923  33.86  0.002254199    1.613    0.380
         4 -11.9863      3.0816     24.1890   9.4426468310e+01   7.0939640107e+01    0.6157643    0.3151852 -49.53  0.003686416    1.716    0.417
         5 -11.6190      2.2961     10.4750   8.9224517141e+01   7.3209958387e+01    0.7468587    0.2368174 -43.83  0.003767965    2.568    0.611
         6 -12.0980    242.1194      6.0340   3.0448105872e+01   2.5749340814e+01    0.6029185    0.4184152 -37.78  0.004041539    1.557    0.358
         7 -12.0085    235.6132      5.4256   3.0758667039e+01   2.7134027845e+01    0.6041896    0.3433742 -41.58  0.003696644    1.632    0.387
         8 -10.4730     57.1791      6.3598   6.0304080108e+01   6.6574295507e+01    0.3253026    0.2219433  64.70  0.001869692    2.094    0.522
         9  -9.2273     89.2368    211.0402   1.0356148884e+02   1.8280510835e+01    0.2320153    0.1709448  85.00  0.000566296    1.451    0.311
        10  -9.7489    140.5286    249.8916   9.7429135634e+01   2.7461326326e+00     0.269342    0.1351975  47.58  0.001321664    1.931    0.482
        11 -10.9175    102.0617    248.0517   1.0509217122e+02   8.8231362283e+00    0.5977767    0.2253858 -66.70  0.002474773    3.569    0.720
        12 -10.2179     91.6325    249.8858   1.0741316584e+02   9.9866677259e+00     0.315783    0.1595275  32.79 0.0007802916    1.897    0.473
        13 -15.1941     43.4679    193.5519   1.1227220507e+02   2.8552588222e+01     4.669531     2.257935  64.35    0.0147688    2.292    0.564
        14  -8.3315     88.4880    178.4993   9.9183232659e+01   2.5960539334e+01    0.1459812    0.1330983  76.35 2.205147e-05    1.021    0.020
        15  -9.9074    187.2985    175.7416   7.5312598397e+01   8.7834183181e+00    0.3439145    0.2585768 -47.80   0.00121538    1.361    0.265
        16 -12.8196     67.9627    154.6763   1.0087143006e+02   3.4973041151e+01    0.6457896    0.4320095 -53.24 0.0009693716    1.467    0.318
        17 -10.5794    119.8634    245.0870   1.0107607687e+02   6.7193015826e+00    0.2759167    0.1877858 -64.10   0.00102909    1.751    0.429
        18 -15.3459      6.6476    168.2306   1.1882874884e+02   3.8304754157e+01     8.260058     1.084226 -74.32   0.01603352    5.677    0.824
        19 -10.8103    192.1443    193.3911   7.7735329021e+01   4.5666989982e+00    0.6616951    0.3749881 -67.15  0.002251753    4.527    0.779
        20 -10.4791    240.1544    169.1513   6.4199768550e+01   9.7404116897e-01     0.196956     0.157982 -12.19 0.0003886848    1.212    0.175
        21 -12.7014     79.8503    159.2482   9.8339869975e+01   3.2064200313e+01     1.527386    0.6798658  59.24 0.0004534585    3.682    0.728
        22  -8.4179    110.7768    167.9718   9.1654046239e+01   2.4764996108e+01    0.1961163    0.1217946 -56.07 0.0004195391    1.612    0.380
        23  -8.1418    120.5127    165.5327   8.8702182262e+01   2.3585869510e+01    0.1504539    0.1450499  74.50 0.0002656873    1.008    0.008
        24 -10.5713     33.2450    156.2473   1.1073562515e+02   3.8823779473e+01    0.4389643    0.2919828  54.63  0.001348178    1.534    0.348
        25 -11.6423     87.3108    152.7912   9.5133527853e+01   3.2503538328e+01    0.6388091    0.4723129 -17.57  0.001465384    1.946    0.486
        26 -10.3680    133.8124    145.3625   8.1145006696e+01   2.5779036434e+01    0.9776524    0.2475604 -53.61  0.002446065    4.811    0.792
        27  -8.7045    112.0018    150.1723   8.7865486226e+01   2.8847690291e+01    0.2559984     0.168829  65.49  0.001064988    1.938    0.484
        28 -10.7716     54.0568    147.7662   1.0371149289e+02   3.8587446189e+01    0.6004655     0.249975 -59.78  0.002433237    2.112    0.527
        29 -11.4344     66.6632    172.7085   1.0397433486e+02   3.0632821044e+01    0.4490488    0.3348954 -28.95  0.002259633    1.843    0.457
        30  -9.1941    174.3443    149.1088   7.2464523789e+01   1.6705605835e+01    0.2418715    0.1872584 -29.47 0.0009140949    1.368    0.269
        31 -10.4300    101.5541    138.6898   8.8319713477e+01   3.3566149322e+01    0.6105371    0.3800728 -25.06  0.002321071    2.586    0.613
        32 -11.5958     88.7417    138.2631   9.1891307943e+01   3.5901666281e+01    0.3076983    0.2647627 -44.75 0.0003710515    1.191    0.161
        33  -9.7559     25.4191    137.3778   1.1055295457e+02   4.4314938478e+01    0.2711217    0.1477395  36.51  0.001350136    1.968    0.492
        34  -9.8604    105.6718    130.9368   8.5441532048e+01   3.4700861169e+01    0.3686811    0.3244887 -52.05  0.001718821    1.113    0.101
        35  -9.5468    110.6901    129.7968   8.3768996667e+01   3.4024188691e+01    0.3291207    0.2673112   7.91  0.001075583    1.558    0.358
        36  -9.8432    135.3792    128.6411   7.6896977741e+01   2.9320833812e+01    0.3738048    0.3108118 -84.54  0.001504224    1.394    0.282
        37 -11.3716     71.1108    168.0965   1.0212393344e+02   3.1150072478e+01    0.4375143    0.3004406 -54.90 0.0006874894    1.455    0.313
        38  -8.2882    147.7672    173.9911   8.3683317654e+01   1.6539823646e+01    0.1858581     0.123863 -49.27 0.0002203702    1.525    0.344
        39 -10.3740     97.9623    125.4663   8.6403637557e+01   3.7446666235e+01    0.3117496    0.2674106  -8.37 0.0008557951    1.401    0.286
        40 -10.1387    116.7879    123.8251   8.0661818444e+01   3.4246578694e+01     0.348744    0.2446951  -1.21  0.001382142    2.378    0.579
        41  -8.4494    163.4245    121.2370   6.8399308540e+01   2.4912016352e+01    0.2115908    0.1427849 -54.89  0.000542643    1.537    0.349
        42  -9.5604    135.0000    120.4028   7.4980962227e+01   3.1267364515e+01    0.3505268   0.08798494 -46.72 0.0009337011    3.926    0.745
        43  -9.0078     84.6281    118.6541   8.8827438153e+01   4.1429692859e+01    0.2867045    0.2033542  76.99 0.0008210983    1.944    0.486
        44  -9.4909     32.3979    119.2103   1.0568210540e+02   4.8202347581e+01    0.1923162    0.1184624 -77.73  0.000681092    1.616    0.381
        45 -10.0150    231.3040    113.7145   5.4168231923e+01   1.2173325315e+01    0.2794859    0.2230785 -45.22 0.0007093267    1.088    0.081
        46 -10.4278    111.4036    173.2610   9.2451950600e+01   2.3390467015e+01    0.3109437    0.2423173  58.22  0.001555639    1.312    0.238
        47  -9.1958    107.3915    118.6169   8.2031704534e+01   3.7318365686e+01    0.2528248    0.1874144  36.01 0.0005645662    1.415    0.293
        48  -9.3878    205.2820    110.3581   5.7575763591e+01   1.8004845114e+01    0.2926871    0.2185537  41.64  0.001131871    1.536    0.349
        49 -11.4362    246.7610    107.8925   5.0760606828e+01   1.0290915590e+01    0.4001688    0.2299253 -56.42   0.00199704    1.800    0.444
        50 -13.7858     19.7255    220.0451   1.1965054323e+02   2.5187046931e+01    0.8565234    0.5850591  61.65  0.003158652    1.194    0.163
        51  -9.4234     42.6811    104.0377   9.9359979085e+01   5.0860623932e+01     0.215905    0.1849286  46.19 0.0005389196    1.311    0.237
        52 -10.2288     33.5043    108.2797   1.0337178078e+02   5.0785264468e+01     0.293215    0.2462299 -42.46  0.001756249    1.156    0.135
        53 -10.2497     35.9862    101.0083   1.0107745721e+02   5.2296927267e+01    0.3049045    0.2504762  76.58   0.00125588    1.428    0.300
        54  -9.6624    120.7248     99.0039   7.3155296143e+01   3.9031536226e+01    0.2021151    0.1342005 -45.79   0.00050033    1.495    0.331
        55 -11.3730    243.1196     93.3301   4.8190888656e+01   1.3378307659e+01    0.3648373    0.1668683 -41.61  0.001690267    1.840    0.456
        56 -16.9592     15.5124    242.7767   1.2179806522e+02   2.0913791129e+01     6.200978     2.160634  26.99   0.02683929    3.943    0.746
        57  -9.4534     81.3406    182.1191   1.0154890378e+02   2.6189101711e+01    0.4453647    0.2118236  37.92  0.001400237    2.029    0.507
        58  -8.6758    151.0274     82.9928   6.1189826274e+01   3.5419232981e+01    0.2393503    0.1785357 -80.22 0.0007170591    1.668    0.400
        59  -8.4313    109.7658     79.5750   7.0623133127e+01   4.5360015515e+01    0.2009391     0.141373  57.34 0.0009312475    1.552    0.356
        60  -9.4641    147.1766    187.0105   8.6277757007e+01   1.3819158435e+01    0.3386767    0.2095335 -50.00   0.00125534    1.675    0.403
        61  -8.6667     85.1478    185.9252   1.0114492101e+02   2.4692703752e+01     0.242692    0.1517579  79.80  0.001065332    2.040    0.510
        62  -8.4115     52.0021     64.4357   8.5489519860e+01   5.8549494969e+01    0.1853361    0.1272629  28.27 0.0003881649    1.506    0.336
        63 -10.6245     13.3156     59.8185   1.0049865421e+02   6.3477175148e+01    0.2420292     0.224715 -66.97 0.0004931259    1.268    0.211
        64 -12.9441    192.5051     48.6306   4.4664498718e+01   3.1233848160e+01     1.025422    0.7786251  46.31  0.001817605    1.569    0.363
        65 -11.0660     95.0916    242.2229   1.0590580702e+02   1.0946208552e+01    0.4623815    0.2281528 -63.22  0.002308647    2.287    0.563
        66 -14.7709      9.5321    207.4312   1.2095172404e+02   2.8961277668e+01     1.245411     1.079229 -23.05  0.007286659    1.769    0.435
        67 -10.4999    110.8658    203.0938   9.7441484152e+01   1.6621525120e+01    0.2512118    0.2130044  29.88 0.0008014797    1.226    0.184
        68  -9.3022    198.0395     23.5052   3.7883030071e+01   3.3245373818e+01    0.2095725    0.1823938 -14.45 0.0007222419    1.555    0.357
        69 -10.8837      1.9990     45.1061   1.0178162408e+02   6.7158714538e+01    0.4697701     0.108022 -62.21  0.001696379    4.266    0.766
        70  -9.1266    189.3168     15.0204   3.6775073668e+01   3.6227710598e+01    0.1782233    0.1506923 -72.11 0.0006598259    1.080    0.074
        71  -9.9771    121.5907    197.7367   9.4095409366e+01   1.6004569456e+01    0.3988993    0.2356259 -69.50  0.001745366    2.133    0.531
        72  -9.6141     99.3561    180.7137   9.6773005349e+01   2.3670039756e+01    0.2545274    0.2468327   7.62 0.0006386195    1.178    0.151
        73  -8.7480     82.5820    194.7473   1.0301102645e+02   2.2994395912e+01    0.1937889    0.1284871 -82.03 0.0009449451    1.635    0.389
        74  -9.8171    188.0071     31.2795   4.0930261787e+01   3.4621326806e+01     0.191415    0.1564266  86.47 0.0007163406    1.085    0.078
