#   1 NUMBER                 Running object number                                     
#   2 MAG_AUTO               Kron-like elliptical aperture magnitude                    [mag]
#   3 X_IMAGE                Object position along x                                    [pixel]
#   4 Y_IMAGE                Object position along y                                    [pixel]
#   5 X_WORLD                Barycenter position along world x axis                     [deg]
#   6 Y_WORLD                Barycenter position along world y axis                     [deg]
#   7 A_WORLD                Profile RMS along major axis (world units)                 [deg]
#   8 B_WORLD                Profile RMS along minor axis (world units)                 [deg]
#   9 THETA_WORLD            Position angle (CCW/world-x)                               [deg]
#  10 FWHM_WORLD             FWHM assuming a gaussian core                              [deg]
#  11 ELONGATION             A_IMAGE/B_IMAGE                                           
#  12 ELLIPTICITY            1 - B_IMAGE/A_IMAGE                                       
         1 -14.7371     68.5299    144.2375   1.0816886262e+02   3.7132516831e+01     5.677517     2.135689  56.75  0.003383917    5.075    0.803
         2 -14.3787    197.1750     37.5382   4.8280500707e+01   3.1033870262e+01     1.596737      1.34942  -3.16  0.004254324    1.436    0.304
         3 -14.6751    207.4555     26.4302   4.3974363965e+01   2.9874861446e+01     1.774403     1.330715  19.86  0.002401368    1.858    0.462
         4 -10.5744     62.0530      8.3199   6.8498450748e+01   6.5909662139e+01    0.1774744    0.1422033  21.00 0.0005965662    1.098    0.090
         5 -12.8129    231.4364      2.9668   3.5930636796e+01   2.6795530120e+01    0.8147927    0.3411368  74.52  0.003815788    2.227    0.551
         6 -12.2641     57.7284      3.0277   6.7479786267e+01   6.7222282419e+01    0.6039179     0.173411  42.06  0.002466066    3.056    0.673
         7 -12.4668    206.1903    198.3716   8.6017976423e+01   1.3826699764e+00    0.7292756    0.4181281  12.60  0.003180213    2.437    0.590
         8 -11.0695    139.5681    249.4603   1.0697380955e+02   4.4848852628e+00    0.2547512    0.2010489  67.93  0.001701561    1.429    0.300
         9 -10.8797    117.5011    250.1633   1.1117477013e+02   7.7535610948e+00    0.2396366    0.1573216  59.92  0.001486048    1.454    0.312
        10 -15.2856     85.3878    229.3521   1.1513837182e+02   1.6104208153e+01     2.185931     1.490121 -85.78    0.0114172    1.550    0.355
        11 -14.7619     47.7042    222.8165   1.2175765060e+02   2.2316857328e+01     1.505042    0.8322036  82.70  0.003216425    1.740    0.425
        12 -16.1386     52.1768    198.4965   1.1883333697e+02   2.6737521582e+01     4.201931     2.756542 -42.89   0.02332222    2.284    0.562
        13 -17.0351      7.0829    246.0350   1.3005409159e+02   2.2418517365e+01     1.399664     1.366614 -87.89  0.007535588    1.736    0.424
        14 -17.2649      5.7614    215.2931   1.2890057522e+02   2.8234856338e+01      12.1404     1.086118 -75.95   0.02774559    7.397    0.865
        15 -16.3491     54.4850    247.7239   1.2231987990e+02   1.6879551201e+01     8.935153     2.891594  29.16   0.01261438   10.189    0.902
        16  -9.3424    159.7475    196.9899   9.5302459092e+01   9.9943003180e+00    0.1784458    0.1748318 -12.38 0.0003495491    1.118    0.105
        17 -13.5009     19.2528    192.3834   1.2504204605e+02   3.1636669703e+01    0.4727036    0.3266775  56.49 0.0006437933    1.296    0.228
        18  -9.8715     81.7174    194.8754   1.1212572913e+02   2.3560976040e+01    0.2462373    0.1809984 -65.86   0.00143258    1.384    0.277
        19 -11.8645     74.1313    188.7561   1.1306245675e+02   2.5974970739e+01    0.4911328    0.2558394  68.62  0.002050071    2.386    0.581
        20  -9.0005     97.3946    190.8142   1.0811489410e+02   2.2059101239e+01    0.1713946    0.1222046 -52.39 0.0003429848    1.548    0.354
        21  -9.5229     94.8674    187.6239   1.0824303071e+02   2.3147456770e+01    0.2030766    0.1757913 -65.27 0.0004083296    1.214    0.176
        22  -9.4921     98.9313    185.6472   1.0703474805e+02   2.2936030367e+01    0.4288286    0.1984804  60.39  0.001600435    3.031    0.670
        23 -10.8957    146.9443    183.2311   9.5672989789e+01   1.5029755137e+01     0.312584    0.2366102  58.62  0.001086471    1.422    0.297
        24 -10.3725     99.4320    180.6595   1.0618295586e+02   2.3954387526e+01    0.2385171    0.2244365  54.83 0.0005765922    1.112    0.101
        25 -11.4191     41.2822    178.6051   1.1926592901e+02   3.2377588902e+01    0.3955689    0.1804912  47.42  0.001985375    2.050    0.512
        26  -9.7148    204.4552    175.9759   8.1953022407e+01   5.4110726484e+00    0.3145509    0.1314174 -44.79  0.001206991    2.673    0.626
        27 -11.3113    140.8958    173.7520   9.5306325592e+01   1.8127582162e+01    0.5466623    0.3808209  87.60  0.002202978    2.233    0.552
        28 -12.3029     53.2526    109.4871   1.0627708011e+02   4.7545157164e+01    0.6719338    0.3046151 -65.02  0.002210427    2.074    0.518
        29 -11.7546     43.7301    146.1584   1.1498392593e+02   3.9687062191e+01    0.5537518     0.364565   5.63  0.002163158    2.417    0.586
        30 -13.2379     83.5375    162.0468   1.0715577450e+02   3.0709335495e+01     1.598833    0.5825484  55.79 0.0004136629    4.641    0.785
        31 -13.8061     71.8915    157.1438   1.0932790569e+02   3.3561248415e+01    0.5738515    0.4898006 -39.08  0.001951006    1.402    0.287
        32  -9.7599     37.4788    161.7536   1.1840021354e+02   3.6654688237e+01    0.3159391    0.1815264  14.60  0.001547432    2.785    0.641
        33 -10.5664    229.9965    166.0090   7.4965402695e+01   2.3525299803e+00    0.1730554    0.1466363 -13.14 0.0005111108    1.053    0.050
        34 -10.1343     50.9419    164.0598   1.1544698355e+02   3.4615313380e+01    0.3651555    0.1902555 -47.59  0.001716106    2.306    0.566
        35  -9.7830    159.8450    163.6821   8.8940623658e+01   1.6521288354e+01    0.2837216    0.2013359 -76.68  0.001009354    2.165    0.538
        36 -12.2375     90.2275    155.0045   1.0430177778e+02   3.1341934582e+01    0.6111209    0.4444971 -25.28  0.002933604    1.979    0.495
        37 -15.3876     29.4687    248.4148   1.2657512952e+02   1.9678094560e+01    0.9569109    0.8249177  -2.57  0.007242911    2.289    0.563
        38 -11.3259    133.6768    144.6484   9.1128749400e+01   2.5925578449e+01     1.216825    0.3159882 -54.53   0.00288157    5.664    0.823
        39 -10.7596    174.3926    148.8740   8.2418816706e+01   1.6548070832e+01    0.3111027    0.2749382  84.05 0.0008211521    1.393    0.282
        40  -9.9284     85.1531    144.6046   1.0378746728e+02   3.4629641964e+01     0.225605    0.1838565 -80.28 0.0009063346    1.212    0.175
        41 -10.3567    102.4960    141.4930   9.8551021779e+01   3.2525707831e+01     0.330384    0.2797082  50.37 0.0008402229    1.198    0.166
        42 -10.1258    104.6466    138.6833   9.7396609811e+01   3.2818036291e+01    0.3252835    0.2418024 -18.47  0.001332127    1.881    0.468
        43  -9.4138     39.9535    141.9982   1.1541782834e+02   4.1087321816e+01     0.190408    0.1612812 -83.37 0.0003166808    1.020    0.020
        44 -12.3433     91.0983    140.0521   1.0133070693e+02   3.4788249130e+01    0.2915329    0.2620115 -49.24 0.0004265475    1.140    0.123
        45 -11.0637     47.3755    172.3103   1.1723593863e+02   3.3117816872e+01    0.4570808    0.1862239 -63.89  0.001586869    2.162    0.537
        46  -9.2061     38.7192    137.9566   1.1520428436e+02   4.2188134452e+01    0.1794164    0.1397654 -72.79 0.0001807445    1.082    0.076
        47 -10.5672    105.8825    130.7145   9.5342784232e+01   3.4495970925e+01    0.3594751    0.3009759 -68.17  0.001297937    1.212    0.175
        48 -10.3724    112.3442    130.4861   9.3527036641e+01   3.3358646174e+01    0.3029591     0.259508 -10.76 0.0007396442    1.400    0.286
        49 -12.0572     44.1263    129.8402   1.1255636378e+02   4.3597236230e+01     0.426429    0.2571199  42.44   0.00223354    1.806    0.446
        50 -12.1403     42.8846    126.1566   1.1233551259e+02   4.4624684590e+01    0.3452396     0.311388 -65.42  0.001451475    1.101    0.091
        51  -9.9427     34.0323    131.4361   1.1558271484e+02   4.4222190743e+01     0.173745    0.1304353  26.10  0.001032276    1.626    0.385
        52 -11.3262    135.7901    127.7512   8.6669309961e+01   2.9317148684e+01    0.5321732    0.1956303 -50.68  0.001686858    2.890    0.654
        53 -10.3275    160.3578    127.7613   8.0603628991e+01   2.3990474189e+01    0.3771957    0.2789789 -71.35  0.001628125    1.824    0.452
        54 -11.0218     99.5637    126.5794   9.6174958589e+01   3.6608632361e+01    0.3028367    0.2516285  -5.67 0.0007928707    1.513    0.339
        55  -9.0407     95.5654    127.5831   9.7521718293e+01   3.7057097284e+01    0.2134341    0.1715226  72.75 0.0001546875    1.427    0.299
        56 -11.2543    119.1287    123.3777   9.0009623332e+01   3.3716896040e+01    0.6350719    0.3970004 -10.98  0.002121567    3.435    0.709
        57 -10.3747     45.4805    169.5046   1.1736670008e+02   3.3981231204e+01    0.2534693    0.1964655  83.17 0.0006652035    1.115    0.103
        58  -9.9591    108.4349    119.1968   9.1951997688e+01   3.6754752086e+01     0.237005     0.206724  39.85 0.0003202943    1.193    0.162
        59  -9.1922    159.3274    118.6540   7.8526924522e+01   2.6151758760e+01    0.1645009    0.1282333 -82.35 0.0007050213    1.750    0.428
        60  -9.9285    168.0272    112.9878   7.5011696145e+01   2.5332574096e+01     0.379148    0.2638491 -81.33  0.001461721    2.395    0.582
        61 -10.5839    134.5494    105.3744   8.1171937368e+01   3.4563307051e+01    0.8505663    0.1524878 -44.32  0.001916514    5.477    0.817
        62 -11.8527    117.7601    108.7729   8.6670165123e+01   3.7351468688e+01    0.6407216    0.4689633 -71.19  0.002633206    1.736    0.424
        63 -13.4715     44.2140    111.5426   1.0946713578e+02   4.8041559132e+01     2.459431     1.213763  71.16   0.00822035    4.621    0.784
        64 -10.1988    205.3984    110.1061   6.6494131420e+01   1.7242025770e+01    0.3200433    0.2280664  43.73 0.0008524416    1.473    0.321
        65 -10.9913     19.4503    110.9942   1.1687813443e+02   5.0361986965e+01    0.1980145    0.1913188  17.18 0.0004844997    1.302    0.232
        66 -11.2401     34.6661    100.7535   1.1047740801e+02   5.1567712241e+01    0.2510555    0.2144601  67.49 0.0006537525    1.343    0.255
        67 -10.3295    241.2615     99.0005   5.7725772411e+01   1.1317175336e+01    0.1887161    0.1114557 -34.97 0.0003762617    1.506    0.336
        68  -8.9865    164.6999     97.3335   7.1488436226e+01   2.9270930024e+01    0.1622726    0.1261718 -73.73 0.0002557184    1.653    0.395
        69 -11.0247     55.4394     95.3663   1.0251930450e+02   5.0670538491e+01    0.3879071    0.2826106  42.77  0.001669007    1.583    0.368
        70 -10.7062     53.0438     90.4692   1.0216718082e+02   5.2104954393e+01    0.3367103     0.167689 -48.18  0.001430623    1.730    0.422
        71 -12.6044     54.9464    146.6436   1.1213418127e+02   3.8288412102e+01     2.065067    0.8177642 -45.84  0.007819632    3.182    0.686
        72  -8.8137    108.6154     93.5343   8.5076269086e+01   4.2595559109e+01    0.1526862    0.1431355 -41.78 -1.579101e-05    1.041    0.039
        73 -11.2157     41.7287     91.2851   1.0621475236e+02   5.3140936625e+01    0.3467674    0.2167173 -58.83 0.0009142127    1.348    0.258
        74  -9.9612    157.6318     81.0367   6.8364562523e+01   3.4124582412e+01    0.2242426    0.2028794 -31.59 0.0005637431    1.102    0.092
        75  -9.2802    184.5928     77.1745   6.1579200065e+01   2.8143426526e+01    0.2129635     0.148479 -20.94 0.0005213342    1.635    0.388
        76 -11.1859     32.6654    165.4265   1.1991065294e+02   3.6297644910e+01    0.3337826     0.187565 -80.87  0.001081138    1.548    0.354
        77 -13.8886    187.2895     45.2060   5.1911831913e+01   3.2494154486e+01      1.24589    0.9043153  37.92   0.00101291    1.578    0.366
        78  -9.3136    131.0023    214.0271   1.0408213311e+02   1.1869212615e+01    0.1910942    0.1429248  68.55 0.0003305125    1.495    0.331
        79 -10.2770    105.2254    211.5677   1.0915134805e+02   1.6544316794e+01     0.411721     0.290464   2.31  0.001990898    2.696    0.629
        80 -10.8637    150.4776     46.2004   5.8945799676e+01   4.1749609703e+01    0.2920889    0.2561623 -66.34 0.0004815653    1.268    0.211
        81  -9.9395     31.7627     36.4539   9.4324029438e+01   6.5805338860e+01    0.2072014    0.1134787  29.15  0.001128554    2.047    0.512
        82 -11.4838     25.5313     34.9669   9.6652406070e+01   6.6664204148e+01    0.3730937    0.1511083  33.94  0.001646348    2.983    0.665
        83  -9.7175    189.5308     14.9759   4.3005243483e+01   3.5651737377e+01     0.210797    0.1737209  78.83 0.0006273888    1.107    0.097
        84 -10.7656    107.9942    203.5199   1.0751536810e+02   1.7710667016e+01    0.2462245    0.1777381  89.21 0.0008481348    1.590    0.371
        85 -11.4761    148.9725     52.7881   6.1436550707e+01   4.1134870479e+01    0.5148537    0.3446664 -80.17  0.001882746    2.351    0.575
        86 -10.3937    113.2585    207.4748   1.0692007205e+02   1.6065859390e+01    0.2497659     0.193043  75.32 0.0002239277    1.367    0.269
        87 -12.5695    194.5628    196.9962   8.8065698325e+01   3.6625087545e+00     1.334439    0.8023456 -56.82  0.006005539    2.612    0.617
