#   1 NUMBER                 Running object number                                     
#   2 MAG_AUTO               Kron-like elliptical aperture magnitude                    [mag]
#   3 X_IMAGE                Object position along x                                    [pixel]
#   4 Y_IMAGE                Object position along y                                    [pixel]
#   5 X_WORLD                Barycenter position along world x axis                     [deg]
#   6 Y_WORLD                Barycenter position along world y axis                     [deg]
#   7 A_WORLD                Profile RMS along major axis (world units)                 [deg]
#   8 B_WORLD                Profile RMS along minor axis (world units)                 [deg]
#   9 THETA_WORLD            Position angle (CCW/world-x)                               [deg]
#  10 FWHM_WORLD             FWHM assuming a gaussian core                              [deg]
#  11 ELONGATION             A_IMAGE/B_IMAGE                                           
#  12 ELLIPTICITY            1 - B_IMAGE/A_IMAGE                                       
         1 -15.7997    245.7364     30.6196   5.5622059720e+01   2.2324701392e+01     6.450243    0.5314378 -38.76   0.01775877    7.957    0.874
         2 -16.3151    245.5441    142.5494   7.7652400872e+01   4.0795715246e+00     6.056088     1.545725 -42.29   0.02021858    3.345    0.701
         3 -11.6065    160.1271    239.0512   1.1288936470e+02   2.9071521764e-01    0.2936066    0.2299412 -69.34   0.00122116    1.643    0.391
         4 -10.3029     92.3137    237.6504   1.2725288355e+02   1.1727901727e+01    0.1436178   0.09172723  69.41 0.0005359246    1.723    0.420
         5 -10.5570    144.7189    232.3664   1.1513786520e+02   4.1866387061e+00    0.2416487    0.1751737 -67.98  0.001248264    1.686    0.407
         6 -10.8377     84.3767    227.1833   1.2767067600e+02   1.5235178832e+01    0.1936157     0.121809 -80.14 0.0009531925    1.733    0.423
         7 -10.1578    190.3655    226.6892   1.0447482428e+02  -2.4287882400e+00    0.1319493    0.1076993  69.62 0.0007038624    1.757    0.431
         8 -10.7121    162.8082    225.0512   1.1001103341e+02   2.5340575715e+00    0.2647916    0.1956876 -23.90  0.001363465    1.588    0.370
         9 -10.5029    182.7917    222.8159   1.0536217983e+02  -4.4943884399e-01    0.1828617    0.1673676  71.43  0.001070787    1.361    0.265
        10 -10.6912    148.8759    222.5915   1.1264302320e+02   5.4546691129e+00    0.2807949    0.1929433 -72.11   0.00132799    1.960    0.490
        11 -10.0027    174.3074    222.6455   1.0712562812e+02   1.0258982077e+00    0.1365774    0.1111362  78.53 0.0003661424    1.720    0.419
        12 -10.7724    193.4963    220.9863   1.0281310058e+02  -1.8953946690e+00    0.2046832    0.1310026 -43.03 0.0009646718    1.587    0.370
        13 -10.4461    160.5245    220.0172   1.0964351190e+02   3.9387959571e+00    0.2114213    0.1396251 -48.27  0.001032781    1.593    0.372
        14 -11.3137    211.5034    217.9536   9.8640766229e+01  -4.2593829440e+00    0.2022113    0.1241531 -39.90 0.0008672354    1.578    0.366
        15 -12.1197    204.7768    217.6706   9.9921952487e+01  -3.1330791573e+00    0.2621139    0.1831598 -50.29 0.0008554086    1.614    0.380
        16 -10.5659    143.9505    216.1774   1.1266265268e+02   7.6682744642e+00    0.2503467    0.2111566 -52.44  0.001223182    1.247    0.198
        17 -11.5150    199.0294    214.8315   1.0055703011e+02  -1.6687043971e+00     0.243735    0.1934171 -38.67  0.000930867    1.254    0.203
        18 -11.9851    185.7655    214.2163   1.0318471572e+02   6.9163311892e-01    0.3146911    0.2469869 -45.33 0.0009873215    1.322    0.244
        19 -10.2950    154.5378    214.2867   1.0996607394e+02   6.1802525167e+00    0.2617299    0.1433937 -55.06  0.001125782    2.021    0.505
        20 -13.3132    226.2627    206.6945   9.3700240178e+01  -4.5690026184e+00    0.3929763    0.2633184 -50.58   0.00207623    1.688    0.408
        21 -10.2485    131.6062    212.8236   1.1490199431e+02   1.0589188238e+01    0.2047409    0.1387596 -68.56 0.0009542608    1.729    0.422
        22 -11.1638     76.3294    212.5463   1.2759990295e+02   1.9803731498e+01    0.2814244    0.1637193 -63.54  0.001357141    1.670    0.401
        23 -12.9291    218.1084    210.3921   9.5948129451e+01  -3.9519920845e+00    0.3874368    0.2481775 -48.11  0.001718656    1.673    0.402
        24 -11.8380    193.0223    210.2356   1.0093311507e+02   2.1517196695e-01    0.2457351    0.1986769 -38.06 0.0007035043    1.223    0.182
        25 -11.8726    116.2830    209.2581   1.1786144972e+02   1.4082682431e+01    0.4627667    0.2490064 -58.58  0.001786376    1.932    0.482
        26 -11.1095    176.9857    209.3575   1.0415367664e+02   3.1869176155e+00    0.3365412    0.2108218 -46.67  0.001598433    1.631    0.387
        27 -12.1925    206.0064    207.9381   9.7859462229e+01  -1.5399427052e+00    0.3155179    0.1964734 -49.53  0.001152963    1.732    0.423
        28 -13.1641    186.4821    204.5353   1.0122360181e+02   2.4712321471e+00     0.726982    0.3768751 -57.45  0.002891087    2.595    0.615
        29 -10.4707    147.6979    208.5555   1.1049334473e+02   8.6344308740e+00    0.2613134    0.1327719 -51.53  0.001077557    2.047    0.511
        30 -12.6241    198.6189    203.8580   9.8574234739e+01   4.8569691246e-01    0.4072517    0.2774048 -54.25  0.001587656    1.685    0.407
        31 -13.1216    174.0861    181.0131   9.9255285086e+01   9.6840382370e+00    0.8811404    0.6590691 -42.93  0.004325386    1.310    0.236
        32 -13.1615    172.4021    190.3467   1.0150782500e+02   7.9884699911e+00    0.8168464    0.4468456 -40.67  0.003445199    1.865    0.464
        33 -13.1599    164.5293    200.7097   1.0526225537e+02   7.2390373299e+00    0.8944602    0.5043401 -35.69  0.003331223    2.027    0.507
        34 -11.6901    162.1018    192.7171   1.0427483619e+02   9.4206003607e+00    0.5509738    0.3205968 -51.74  0.001903236    1.772    0.436
        35 -10.4227    130.5839    202.2465   1.1333335773e+02   1.3147954726e+01    0.2804046    0.1456126 -58.15  0.001135797    2.070    0.517
        36 -12.0388    210.3178    188.7835   9.3279959194e+01   1.3884455488e+00    0.3929962    0.2127935 -50.48   0.00148796    1.954    0.488
        37 -12.0228    205.8450    177.9392   9.1969272977e+01   4.3327903967e+00    0.3229286    0.1965948 -45.76  0.001100842    1.559    0.359
        38 -12.8755    211.7473    200.9037   9.5377010870e+01  -1.1757019119e+00    0.4113441    0.2896726 -57.05  0.001930488    1.748    0.428
        39 -12.0272    209.3036    194.7622   9.4662061143e+01   4.0607946502e-01    0.3554887    0.2379415 -54.37  0.001158636    1.711    0.415
        40 -11.9088    205.8620    190.8783   9.4577763688e+01   1.7576139571e+00    0.4278798    0.2048374 -41.62  0.001265588    1.976    0.494
        41 -12.4739    204.0925    183.8105   9.3514058287e+01   3.4727417337e+00     0.559461    0.3009385 -50.61  0.002243002    1.941    0.485
        42 -10.7663     99.1664    205.9888   1.2136459174e+02   1.7748879703e+01    0.2484549    0.1600196  84.02  0.001084513    2.046    0.511
        43 -14.1080    229.0757    200.2858   9.1955413100e+01  -3.8638448101e+00    0.5861215    0.4810349  70.05  0.003307773    1.867    0.464
        44 -14.3965    224.3488    191.4514   9.1121256108e+01  -1.4923079394e+00    0.6949987    0.5750991  75.13  0.003851117    1.791    0.442
        45 -14.6395    224.8437    183.7128   8.9500064480e+01  -1.2356711983e-01     1.141544    0.8575523 -87.43  0.005548181    2.337    0.572
        46 -10.1937    140.2955    199.9555   1.1065302396e+02   1.1891638363e+01    0.2348967    0.1228262 -73.73 0.0007030805    4.157    0.759
        47 -11.1911    148.8920    197.1249   1.0813660488e+02   1.0930333377e+01    0.4807338    0.2137226 -58.62  0.001696925    2.790    0.642
        48 -11.5501     88.3798    197.8149   1.2268974961e+02   2.1457598006e+01    0.4284281    0.1443108 -67.88  0.001255208    4.191    0.761
        49 -10.6358    177.0186    197.4958   1.0189778107e+02   5.6153480732e+00    0.2349813    0.1921699 -43.54 0.0008358687    1.220    0.180
        50 -12.0379    124.0756    196.5997   1.1388208606e+02   1.5631806275e+01    0.4356886    0.2249582 -55.91  0.001779867    1.979    0.495
        51 -10.8558    154.6195    240.7949   1.1433066061e+02   8.7900115640e-01    0.1772837    0.1305584 -64.13 0.0009474036    1.681    0.405
        52 -11.8089     94.8731    184.5982   1.1896144141e+02   2.3633510097e+01    0.6523551    0.2426672 -61.21  0.002238145    2.786    0.641
        53 -11.0871    183.1751    183.2753   9.7740328377e+01   7.4577637124e+00    0.4021859    0.2109916 -48.67  0.001663475    1.901    0.474
        54 -10.7434    108.6133    184.8244   1.1556197961e+02   2.1218680649e+01    0.2217879    0.1411683 -70.06 0.0009534362    1.757    0.431
        55 -11.4705    211.1362    181.9801   9.1753975728e+01   2.5768825267e+00    0.3478528    0.1937932 -42.21  0.001492445    1.665    0.399
        56 -10.5423    197.1411    182.2873   9.4611090015e+01   5.0486355810e+00    0.2657126    0.1874696 -34.08 0.0008901758    1.396    0.284
        57 -12.3813    147.5855    178.3266   1.0477937886e+02   1.5461521432e+01    0.6247752    0.3123184 -46.26  0.002431615    1.998    0.500
        58 -11.7901    137.9235    177.8568   1.0700310561e+02   1.7450910558e+01    0.4762703    0.2495029 -49.14  0.001519927    1.891    0.471
        59 -11.8979    192.3167    176.7302   9.4463676292e+01   7.0999850326e+00    0.4565818    0.2701541 -40.11   0.00189967    1.635    0.388
        60 -12.3727    218.3855    175.3674   8.9023795148e+01   2.5906088982e+00     0.451901    0.1685537 -42.35  0.001698517    2.446    0.591
        61 -12.3997    183.2443    174.7464   9.5965069236e+01   9.2620246382e+00      0.54455    0.3302844 -39.10  0.001708847    1.640    0.390
        62 -11.5447    197.9273    135.4583   8.4379800499e+01   1.4617811778e+01    0.7112411    0.2411296 -42.37  0.002368218    2.795    0.642
        63 -11.8942    207.8158    144.8109   8.4569068445e+01   1.0691364758e+01    0.5675199    0.3359759 -23.23  0.002243042    2.518    0.603
        64 -12.5727    191.2411    147.0872   8.8305886502e+01   1.3575401749e+01     1.003426    0.6463199 -27.82  0.004321311    1.887    0.470
        65 -12.6055    205.5332    153.2350   8.6828397925e+01   9.4228856614e+00    0.7084711    0.4323478 -17.21   0.00271039    2.806    0.644
        66 -14.6532    212.6003    162.9579   8.7548698184e+01   6.0984111750e+00     1.609343    0.7772446 -42.40  0.006732771    1.896    0.473
        67 -13.4858    217.8605    156.5370   8.5219216693e+01   6.3979457297e+00     1.198934    0.3465187 -49.87  0.003547656    3.974    0.748
        68 -12.5328    205.9405    168.9411   9.0086727151e+01   6.1351992412e+00    0.6604365    0.2359921 -48.55  0.002274698    2.823    0.646
        69 -12.8788    205.8800    160.8133   8.8384324827e+01   7.8042379766e+00    0.7082123    0.4075762 -30.49  0.002997527    1.993    0.498
        70 -12.4659     77.1795    175.1061   1.2187597583e+02   2.8826219207e+01    0.4725175    0.3124314  82.07  0.002121741    1.883    0.469
        71 -10.5545     59.3255    176.6467   1.2670404125e+02   3.0994905915e+01    0.1524303   0.09967919  73.98 0.0007047149    1.764    0.433
        72 -11.8969     12.6602    174.4732   1.3794066573e+02   3.6705369127e+01    0.4315754    0.1024682 -66.15  0.001616234    3.012    0.668
        73 -12.2724    196.5099    156.3283   8.9272200792e+01   1.0562845632e+01    0.5815085    0.3400978 -48.73  0.001543575    1.641    0.391
        74 -10.3854    159.2195    174.2421   1.0121325469e+02   1.4105284072e+01    0.2493464    0.1222535 -57.80 0.0008851229    2.442    0.590
        75 -11.0218    104.8812    173.7394   1.1447245058e+02   2.4605017214e+01    0.3108413     0.183575 -68.13  0.001272585    1.909    0.476
        76 -12.1767    177.4585    170.2585   9.6271707525e+01   1.1368615318e+01    0.5373694    0.2916016 -48.65  0.002063079    1.809    0.447
        77 -11.2371    142.3419    171.5141   1.0464026587e+02   1.8082651364e+01    0.3126655    0.1890997 -47.15  0.001075578    1.639    0.390
        78 -10.9604      2.1891    170.9669   1.4004577654e+02   3.8415103378e+01    0.3494243   0.08859354 -80.68  0.001024208    5.216    0.808
        79 -10.8991    134.4943    170.0063   1.0624767107e+02   1.9981941357e+01    0.4144638    0.1512616 -50.95  0.001355172    2.698    0.629
        80 -11.2798    198.6173    169.3536   9.1631108710e+01   7.4355763616e+00    0.3340891    0.2557396 -40.05  0.001107933    1.229    0.186
        81 -12.3912    121.1551    167.0624   1.0899138265e+02   2.3264777904e+01    0.6396189    0.2333116 -52.78  0.002108774    2.686    0.628
        82 -11.2453    168.0570    167.5188   9.7774206631e+01   1.3853492251e+01    0.4688593    0.2244939 -47.15  0.001786525    2.035    0.509
        83 -11.5137    149.4760    167.9226   1.0217267826e+02   1.7503334780e+01    0.4037923    0.2467608 -39.89  0.001581138    1.727    0.421
        84 -11.4612    185.0840    166.3169   9.3789346033e+01   1.0710975288e+01     0.400521    0.2139982 -43.75  0.001141857    1.792    0.442
        85 -11.0626     88.4779    167.5128   1.1759251581e+02   2.8954924813e+01    0.3254552    0.1419606 -58.61  0.001216067    2.188    0.543
        86 -12.1151    200.3212    147.4461   8.6578168576e+01   1.1650972224e+01    0.8499464    0.3493626 -39.54  0.003080462    2.423    0.587
        87 -10.4187    111.4746    166.4685   1.1136024535e+02   2.5217608072e+01    0.2905213    0.1489211 -66.19  0.001040137    2.432    0.589
        88 -12.3429    192.3697    163.7309   9.1711659458e+01   9.8234384196e+00    0.6134226    0.2675211 -44.21  0.002318765    2.168    0.539
        89 -12.3169    138.7748    162.7192   1.0365899147e+02   2.0872199917e+01    0.6861945    0.3357776 -54.88  0.002546172    2.127    0.530
        90 -10.8625     98.6050    165.2141   1.1448240566e+02   2.7826094068e+01    0.2271987    0.1349367 -48.18 0.0009607667    1.675    0.403
        91 -11.0316    159.3894    162.4364   9.8660318505e+01   1.6760782845e+01    0.4608226    0.2254883 -45.61  0.001749924    2.001    0.500
        92 -11.1960     79.1747    162.8617   1.1922529712e+02   3.1607517611e+01    0.4696676    0.2405639 -84.53  0.001445226    3.992    0.750
        93 -11.9458    203.0152    197.0393   9.6362489554e+01   1.0497781601e+00    0.3247685    0.2027425 -50.59  0.001074238    1.704    0.413
        94 -10.2403     69.3300    162.6566   1.2183839944e+02   3.3130036259e+01    0.1548424     0.106915  75.30 0.0007050897    1.750    0.429
        95 -11.6573    177.6131    158.6383   9.3730659970e+01   1.3882325506e+01     0.555312     0.284908 -43.69  0.002203695    1.883    0.469
        96 -11.2620    151.3328    159.5165   9.9917927094e+01   1.9080956549e+01    0.4025207    0.2163647 -48.94  0.001588125    1.823    0.451
        97 -11.4828     92.5271    158.5962   1.1481611972e+02   3.0522689981e+01    0.4655261    0.1448046 -56.68  0.001448962    3.089    0.676
        98 -11.3181    188.2109    156.7175   9.1054538714e+01   1.2144224748e+01    0.3997445    0.2092322 -41.99  0.001180325    1.836    0.455
        99 -10.5462    128.0884    157.6885   1.0525517753e+02   2.4200301349e+01    0.2871876    0.2156498 -62.51  0.001321337    1.379    0.275
       100 -11.1885    105.0901    156.0445   1.1091979993e+02   2.8962524505e+01    0.5059261     0.240338 -54.47  0.001918693    2.029    0.507
       101 -11.5995    167.7417    155.0996   9.5133622618e+01   1.6700539441e+01    0.5423826    0.2860591 -44.61  0.002149456    1.843    0.457
       102 -10.8781    157.4077    154.7261   9.7423208098e+01   1.8932134889e+01    0.3689839    0.1897248 -48.78  0.001421055    1.903    0.475
       103 -11.5103    119.0771    153.4766   1.0666984504e+02   2.6979069609e+01    0.4794047    0.2318521 -52.41  0.001800862    2.016    0.504
       104 -11.0915     48.9956    153.5932   1.2585045316e+02   3.8110264873e+01    0.3917356    0.1869068 -75.47    0.0015465    2.421    0.587
       105 -11.9412    223.3121    152.6492   8.3421018284e+01   6.1508587793e+00    0.3262409    0.1789172 -46.50  0.001181038    1.651    0.394
       106 -10.9278    144.4849    153.5138   1.0024187515e+02   2.1887201670e+01    0.3374772    0.1528109 -48.73  0.001208971    2.159    0.537
       107 -11.7118     81.0091    153.1086   1.1689350999e+02   3.3779320689e+01    0.4062289    0.2041895 -60.46  0.001637179    1.914    0.478
       108 -11.5507    133.0391    150.9674   1.0251909796e+02   2.4825154587e+01    0.5704485    0.2378102 -50.18    0.0019737    2.349    0.574
       109 -11.0304     67.2534    152.6296   1.2062423081e+02   3.5957303367e+01    0.2843619    0.1735038 -73.06  0.001263453    1.751    0.429
       110 -10.7911    203.2996    140.9252   8.4569221050e+01   1.2390882591e+01    0.2746471    0.1975507 -28.78 0.0007491664    1.544    0.352
       111 -11.0021    182.0789    149.7552   9.0802995731e+01   1.4898578253e+01    0.3528588    0.2089444 -41.39  0.001161784    1.643    0.392
       112  -9.9490    151.5150    151.5102   9.8093978103e+01   2.0897733815e+01    0.1567139     0.151935 -66.55  0.000810393    1.011    0.011
       113 -10.6337    162.2259    149.4930   9.5128373116e+01   1.9114740756e+01    0.3150814    0.2114922 -46.78  0.001390897    1.445    0.308
       114 -11.1543     98.1578    148.6353   1.1124522145e+02   3.2037269107e+01    0.4522893   0.08583028 -50.54  0.001123894    4.661    0.785
       115 -11.6619    215.4005    147.8984   8.3835066858e+01   8.5850205284e+00    0.3738046    0.1554688 -45.79   0.00130912    2.192    0.544
       116 -10.4844    142.5408    148.2306   9.9526854721e+01   2.3526129128e+01    0.3107251    0.1528602 -52.87  0.001139879    2.075    0.518
       117 -11.8408    223.8573    145.7717   8.1878962645e+01   7.3946162153e+00    0.4842107    0.2727252 -32.09  0.001933509    1.939    0.484
       118 -12.2668     38.7360    145.0502   1.2731668955e+02   4.1411567028e+01     0.622136    0.1648819 -63.41  0.002101404    3.166    0.684
       119 -10.7906    175.5442    144.7788   9.1081091495e+01   1.7350486330e+01    0.3008746    0.1464334 -41.75  0.001133734    2.029    0.507
       120 -11.9650    106.4404    142.3720   1.0760471111e+02   3.2080565403e+01    0.7525973    0.2760205 -53.18  0.002488778    2.660    0.624
       121 -11.9041     55.0397    142.5776   1.2224037603e+02   4.0116555933e+01     0.686407    0.1795579 -59.24  0.002216034    3.226    0.690
       122 -10.2599    218.5431    143.6887   8.2370142009e+01   8.8159716937e+00    0.2683788     0.129894 -40.15 0.0008651332    1.920    0.479
       123 -11.0630    165.5984    141.8745   9.2614171297e+01   2.0106782917e+01    0.4265129    0.2275017 -38.19  0.001643999    2.000    0.500
       124 -12.0156    124.3072    140.3540   1.0234860428e+02   2.9113250139e+01    0.7027735    0.2744946 -53.25  0.002312031    2.651    0.623
       125 -11.1772     87.6874    141.1938   1.1258359550e+02   3.5670664159e+01    0.6103307     0.140985 -50.78  0.001708864    3.827    0.739
       126 -13.1287    221.3078    128.3866   7.8608341266e+01   1.1271120119e+01    0.6062909    0.2220195 -39.59  0.002191263    2.638    0.621
       127 -10.7262    216.5217    138.5002   8.1614339107e+01   1.0235852072e+01    0.2027387    0.1402574  36.50   3.2061e-05    1.738    0.425
       128 -11.0193    182.0159    140.2476   8.8666934313e+01   1.6960601552e+01    0.3842409    0.2248287 -41.92  0.001480153    1.656    0.396
       129 -11.2669    224.9691    138.7836   8.0210278844e+01   8.5448714302e+00    0.3049381    0.1774105 -43.41 0.0009341678    1.526    0.345
       130 -12.2399    225.9891    132.5956   7.8726602935e+01   9.5450808281e+00    0.4635379     0.242889 -28.63  0.001824926    2.621    0.619
       131 -10.8932    172.0636    136.5140   8.9933442496e+01   1.9896883057e+01    0.4624326    0.2253184 -45.36  0.001766106    1.975    0.494
       132 -10.8690    206.7950    136.5132   8.2940594783e+01   1.2577572681e+01     0.308858    0.2447314 -41.08  0.001327158    1.187    0.158
       133 -10.6695    138.4728    136.9677   9.7918621367e+01   2.6997096339e+01    0.2520273    0.1528819 -48.43   0.00103865    1.612    0.379
       134 -11.2360     21.9981    136.1993   1.3067328844e+02   4.5204539963e+01    0.4437656    0.1727324 -80.02  0.001512185    3.815    0.738
       135 -10.2996    192.5806    135.7451   8.5488784520e+01   1.5678213557e+01    0.2986649    0.1398589 -39.18   0.00112536    2.153    0.535
       136 -11.1643    162.4930    134.9424   9.1695503182e+01   2.2311777667e+01    0.4109549    0.1507833 -44.99  0.001341101    2.649    0.622
       137 -10.5740    187.8391    134.1983   8.6084193848e+01   1.7005557738e+01    0.2907761    0.1926965 -40.63  0.001318101    1.468    0.319
       138 -11.0290    179.1971    132.0288   8.7360966550e+01   1.9319827789e+01    0.3799686    0.2136427 -44.35  0.001575241    1.703    0.413
       139 -11.9856     83.1171    127.8683   1.1095440778e+02   3.9669662169e+01         1.05    0.2022975 -50.94  0.002772241    4.446    0.775
       140 -12.6869    148.6395    141.3539   9.6452151666e+01   2.3841084762e+01     0.968928    0.3353136 -44.62  0.003046911    2.868    0.651
       141 -11.5718    142.9656    129.0374   9.4894589875e+01   2.7853376491e+01    0.5606861    0.2316935 -43.03  0.001919629    2.443    0.591
       142 -12.0095    131.4964    128.1846   9.7571754883e+01   3.0479482291e+01    0.6527271    0.2825631 -45.87  0.002317034    2.268    0.559
       143 -10.9074    204.7249    129.5808   8.1783779288e+01   1.4398910155e+01    0.2971145    0.2242688 -58.13  0.000924311    1.305    0.234
       144 -10.9445    193.0206    128.7593   8.3811089416e+01   1.7029760725e+01    0.3351705    0.2112528 -38.27  0.001416311    1.588    0.370
       145 -10.9329    212.1296    128.5330   8.0219249693e+01   1.3085202233e+01    0.2858208    0.1898967 -44.53  0.001383302    1.371    0.271
       146 -11.1676    168.4206    127.5345   8.8609890801e+01   2.2631765237e+01    0.4674878    0.2569901 -36.54  0.001839358    1.986    0.496
       147 -11.4355    152.4953    126.7291   9.2036462149e+01   2.6302111851e+01    0.5861785    0.2338665 -43.26  0.001989965    2.497    0.599
       148 -11.6176     72.6023    127.4637   1.1399620659e+02   4.1407851834e+01    0.4380975    0.1326003 -55.54  0.001413751    3.058    0.673
       149 -11.1432     98.2436    121.1168   1.0491941557e+02   3.8659085468e+01    0.4153448    0.2465468 -28.47  0.001625046    2.300    0.565
       150 -11.8316     12.0104    125.0174   1.3186424401e+02   4.8673651375e+01    0.6072481   0.05424638 -60.90  0.001857761    4.366    0.771
       151 -11.2145    112.5142    195.8453   1.1653186360e+02   1.7874137313e+01    0.4559205    0.1390033 -54.35  0.001460244    3.208    0.688
       152 -11.0143    215.7996    134.4587   8.0867338404e+01   1.1177330631e+01    0.4520227    0.2379778 -28.83   0.00173996    2.598    0.615
       153 -12.2260    117.4122    122.4165   9.9867059756e+01   3.4687246013e+01    0.6715198    0.3044251 -39.34  0.002368331    2.460    0.593
       154 -11.4665    219.5749    137.1838   8.0795613064e+01   9.8975275074e+00    0.4969716    0.2116893 -37.95  0.001903613    2.344    0.573
       155 -11.2420    179.7945    122.5720   8.5013786938e+01   2.1176889104e+01    0.4525614    0.2560645 -31.69  0.001780177    2.166    0.538
       156 -10.1737    186.4744    128.5045   8.5047047106e+01   1.8487610806e+01    0.2633154    0.1416454 -34.14  0.001019281    2.131    0.531
       157 -10.6437    188.5004    122.5367   8.3257735257e+01   1.9278575308e+01    0.3163429    0.1425328 -43.50  0.001194662    2.108    0.526
       158 -11.9449     58.0881    119.7284   1.1673178045e+02   4.5291552915e+01    0.8201413    0.1591044 -57.62  0.002171899    4.942    0.798
       159 -11.6615     42.5599    120.5435   1.2175290184e+02   4.6964654851e+01    0.5846558    0.2432749 -74.23  0.001821931    4.410    0.773
       160 -10.2215    202.8297    121.1318   8.0231459689e+01   1.6481565340e+01    0.2028888    0.1723031 -26.20   0.00099631    1.332    0.249
       161 -11.0700    158.3254    119.5724   8.8929364603e+01   2.6568777436e+01    0.4675435    0.2452985 -37.98  0.001803862    2.041    0.510
       162 -10.7724    172.2420    119.6559   8.5892454479e+01   2.3454662143e+01    0.3237028    0.2074451 -35.88   0.00138989    1.669    0.401
       163 -11.9921    141.4564    116.0130   9.2023246213e+01   3.1055524108e+01    0.8699638    0.2880182 -44.90  0.002732319    2.984    0.665
       164 -11.5496    130.2350    115.9837   9.4840018975e+01   3.3479117045e+01    0.4874914    0.2291505 -45.59   0.00182247    2.099    0.524
       165 -11.3665     98.3147    127.0264   1.0633216988e+02   3.7260378781e+01    0.4915494    0.2746257 -68.67  0.001800894    2.599    0.615
       166 -11.5019      2.2159    113.9304   1.3310310228e+02   5.1898489921e+01     0.633253    0.1209064 -71.87  0.001419329    9.220    0.892
       167 -11.2674    193.3741    195.5936   9.8051580031e+01   3.0352778068e+00     0.290004    0.1694471 -42.04  0.001297157    1.659    0.397
       168 -10.1740    194.6514    120.8450   8.1680498166e+01   1.8288168432e+01    0.2270647     0.127573 -51.87 0.0009512325    1.754    0.430
       169 -10.6283    192.9056    113.8639   8.0392077750e+01   2.0059451018e+01    0.3169337     0.188769 -40.41  0.001331813    1.647    0.393
       170 -10.6055    185.6792    114.3140   8.1878919035e+01   2.1561875654e+01    0.3248159    0.1809225 -37.21  0.001296852    1.884    0.469
       171 -11.8087    108.4928    110.7541   9.9354821942e+01   3.9072164718e+01    0.7438462    0.2693694 -48.41  0.002500805    2.733    0.634
       172 -11.4002     78.0739    110.7435   1.0838035503e+02   4.4485787614e+01    0.5641323    0.2463525 -63.06  0.001848395    3.474    0.712
       173 -11.9818    122.3382    109.4692   9.5220427095e+01   3.6555501267e+01    0.5703015    0.3071232 -29.11  0.002054527    2.652    0.623
       174 -11.9605     92.3357    107.7709   1.0327013025e+02   4.2748972938e+01    0.9465877     0.287108 -43.30  0.002938293    3.374    0.704
       175 -10.7738    174.3831    109.9362   8.3085863618e+01   2.4965224796e+01    0.3808463    0.1781671 -42.46  0.001456937    2.093    0.522
       176  -9.9537    167.5190    111.4973   8.4906101095e+01   2.6196104587e+01    0.1511143    0.1470623 -65.91 0.0008099914    1.044    0.042
       177 -10.8743    159.2259    109.7303   8.6273497930e+01   2.8427335324e+01    0.3904453    0.1798933 -35.13  0.001369985    2.592    0.614
       178 -11.0407     66.2426    107.0341   1.1118575619e+02   4.7113320666e+01    0.4928795    0.0837436 -49.57  0.001320222    4.728    0.789
       179 -10.3351    182.5097    107.9824   8.0987470473e+01   2.3526107392e+01    0.2344019     0.143006 -43.41  0.001031648    1.587    0.370
       180 -12.4679    215.4277    193.7179   9.3261167234e+01  -4.3486443586e-01    0.3169362    0.2243718 -54.63  0.001175852    1.620    0.383
       181 -10.4206    189.3628    106.2980   7.9278827537e+01   2.2322650539e+01    0.2896223    0.1374077 -38.50  0.001122118    2.170    0.539
       182 -11.4391    139.6039    101.9419   8.8828168672e+01   3.4413289750e+01    0.5630751    0.2554729 -34.87  0.001977988    2.662    0.624
       183 -11.6040    149.6431    100.0568   8.5960266691e+01   3.2545109013e+01    0.6406581    0.1415789 -42.48  0.001684724    4.512    0.778
       184 -11.5035    128.6497     99.1629   9.0820198904e+01   3.7372112671e+01    0.4767983    0.2839941 -23.76  0.001834482    2.476    0.596
       185 -10.1687    175.6009    100.2106   8.0455857270e+01   2.6601788290e+01    0.2121777    0.1419694 -32.10 0.0009504198    1.705    0.414
       186 -11.6772     13.9589    109.1063   1.2863086202e+02   5.2229281549e+01    0.4226798    0.2107555 -69.13  0.002088333    1.866    0.464
       187 -11.7818    107.4508     97.1980   9.6003743453e+01   4.2165260348e+01    0.4043769    0.2204919 -52.10  0.001669479    1.991    0.498
       188 -11.3482     81.7153     95.7123   1.0329599131e+02   4.7181193923e+01    0.4056369     0.149459 -34.94  0.001213058    4.094    0.756
       189 -11.2119    186.2274    192.7885   9.8998753833e+01   4.9006245459e+00    0.3911329    0.2009834 -42.89  0.001544771    1.904    0.475
       190 -11.0407     62.9992     95.2844   1.0923739132e+02   5.0154531772e+01    0.2774769     0.180931 -78.31  0.001180074    2.711    0.631
       191 -10.5219    166.5751    101.7161   8.2669773607e+01   2.8367692141e+01    0.2993729    0.1466969 -37.21  0.001142904    2.201    0.546
       192 -11.6420    138.6961     89.0024   8.5572809926e+01   3.7150095382e+01    0.4320779    0.2116559 -29.05  0.001534823    2.889    0.654
       193 -11.0131     34.0000     87.9990   1.1735081870e+02   5.5186008831e+01    0.3192053    0.1560649 -68.65  0.001303639    3.040    0.671
       194 -11.0156     66.1886    193.8004   1.2746035637e+02   2.5786454783e+01    0.3119583    0.1087397 -70.99  0.001011671    3.485    0.713
       195 -11.4230     44.2944    100.6537   1.1685339294e+02   5.1353428783e+01    0.4025155     0.239203  86.21  0.001407142    4.555    0.780
       196 -11.8176    104.3210     79.4882   9.1829180351e+01   4.6233241888e+01     0.621286    0.2445709 -35.39  0.002222291    2.920    0.658
       197 -11.8651    124.9876     86.6942   8.8322816504e+01   4.0601803240e+01    0.6989664    0.3877523 -23.35  0.002612551    2.794    0.642
       198 -11.2980     87.4877     80.4948   9.7133640193e+01   4.9224014011e+01    0.2659751    0.1283863  29.78  0.001042831    2.508    0.601
       199 -11.8126     21.6870    101.1497   1.2457596717e+02   5.3433880503e+01    0.5171967    0.2583467 -85.65   0.00179269    4.726    0.788
       200 -10.5871     43.3904    192.6050   1.3272995310e+02   2.9074326316e+01    0.2729911    0.1127521 -83.93 0.0009564253    3.349    0.701
       201 -11.4154    128.1953     71.5216   8.3200322374e+01   4.2605827948e+01     0.481582    0.2666328 -22.27  0.001912551    2.663    0.625
       202 -10.9397     95.4221     92.7583   9.8266373496e+01   4.5376089938e+01    0.5419195    0.2766364 -23.62   0.00176992    3.732    0.732
       203 -11.7970    199.9184    190.4783   9.5694900008e+01   2.8890670613e+00    0.3833874    0.2234001 -38.86  0.001447622    1.655    0.396
       204 -11.4764     82.2605     66.7077   9.4547853967e+01   5.2631148254e+01     0.385878     0.197329 -16.52  0.001297503    4.140    0.758
       205 -10.3418    147.3309     64.9953   7.7053802293e+01   3.9339775066e+01    0.2182389    0.1224932 -10.98 0.0007051017    4.336    0.769
       206 -10.5838    138.6799     63.6494   7.8530334723e+01   4.1530911926e+01    0.1450556    0.1081691  20.60 0.0007048108    1.743    0.426
       207 -10.6641    121.5097     62.9853   8.2338398628e+01   4.5456508192e+01    0.1970337    0.1241885  -6.64 0.0008105535    2.651    0.623
       208 -10.7059    179.4900    190.4073   9.9970371417e+01   6.6443137360e+00    0.2954689    0.1422173 -46.45 0.0009128805    2.049    0.512
       209 -10.1232    158.3330     81.3329   7.9152914236e+01   3.4066682656e+01    0.1477655    0.1161898  18.09 0.0007052233    1.730    0.422
       210 -11.8412    138.9901    187.7990   1.0869355269e+02   1.4918872364e+01    0.5035964    0.2235196 -50.17   0.00187685    2.250    0.555
       211 -10.7996    100.7420     54.7804   8.5242825035e+01   5.1051469895e+01    0.2593036    0.1812929 -18.24 0.0008639631    1.634    0.388
       212 -12.1416    217.5275    187.4212   9.1613531573e+01   4.0917615231e-01    0.3650002    0.2286744 -42.45  0.001206353    1.480    0.324
       213 -11.0169    192.3299    187.3082   9.6621941458e+01   4.9067052166e+00    0.3229987    0.1913692 -41.45  0.001199366    1.628    0.386
       214 -10.4692     84.0063     40.4628   8.5324966675e+01   5.6275856268e+01    0.1859727   0.09254563  28.46 0.0004604466    2.429    0.588
       215 -10.1623    106.3293     37.3506   7.8178569608e+01   5.2263562888e+01    0.1384501   0.09076563  24.15 0.0004468939    1.767    0.434
       216 -11.6204    165.3685    185.7066   1.0215240667e+02   1.0337842935e+01    0.4698346    0.2902688 -57.18  0.001518993    1.795    0.443
       217 -11.1568    129.1791    186.8567   1.1087411880e+02   1.6985811747e+01     0.425966    0.2197124 -50.56  0.001709195    1.934    0.483
       218 -10.8233    155.5753    185.2825   1.0430442755e+02   1.2319356630e+01    0.4541512    0.1489579 -51.02  0.001427084    3.151    0.683
       219 -14.6972    245.7927    180.5869   8.5173207933e+01  -2.9316821640e+00     1.656155    0.8731768 -45.28  0.008095351    1.721    0.419
       220 -12.0389    120.1627    182.6441   1.1229143871e+02   1.9664541693e+01    0.8350996     0.234563 -56.17  0.002381576    3.840    0.740
