#   1 NUMBER                 Running object number                                     
#   2 MAG_AUTO               Kron-like elliptical aperture magnitude                    [mag]
#   3 X_IMAGE                Object position along x                                    [pixel]
#   4 Y_IMAGE                Object position along y                                    [pixel]
#   5 X_WORLD                Barycenter position along world x axis                     [deg]
#   6 Y_WORLD                Barycenter position along world y axis                     [deg]
#   7 A_WORLD                Profile RMS along major axis (world units)                 [deg]
#   8 B_WORLD                Profile RMS along minor axis (world units)                 [deg]
#   9 THETA_WORLD            Position angle (CCW/world-x)                               [deg]
#  10 FWHM_WORLD             FWHM assuming a gaussian core                              [deg]
#  11 ELONGATION             A_IMAGE/B_IMAGE                                           
#  12 ELLIPTICITY            1 - B_IMAGE/A_IMAGE                                       
         1 -15.4139     87.5217    100.4214   7.3752094961e+01   4.5194706074e+01    0.5439437    0.4959199 -67.47  0.002925781    1.278    0.218
         2 -14.3432    171.9193     72.8354   4.4454898619e+01   3.2504649990e+01    0.3251245    0.1989037 -44.76  0.001566827    1.626    0.385
         3 -15.6786    245.2425    242.8982   6.6237251934e+01  -1.0551343466e+01     1.225464    0.7223955 -24.19  0.007565479    1.398    0.285
         4 -15.2322    214.0319    246.3179   7.2621480153e+01  -7.4164360977e+00    0.7654276     0.530508 -18.19  0.004752429    1.261    0.207
         5 -14.0385     81.0284    248.3786   1.0166213942e+02   1.0765441000e+01    0.4500326    0.3437225  33.62  0.001702677    1.207    0.171
         6 -14.3527    110.0281    245.0228   9.4796489062e+01   7.4034397407e+00    0.6188473    0.3626112  41.38  0.002937878    1.523    0.343
         7 -14.7873    103.9840    242.9933   9.5910986513e+01   8.6774857076e+00      1.29332    0.6071118  58.32   0.00484688    3.439    0.709
         8 -15.3130    195.9787    244.6341   7.5948127598e+01  -4.8310886242e+00    0.4963874    0.3462889 -12.69  0.002922529    1.348    0.258
         9 -15.2225    127.8862    231.9237   8.8909620894e+01   7.3975958417e+00    0.9663846    0.6043371 -35.40  0.004440247    1.864    0.463
        10 -14.7849    122.0674    229.8537   8.9966164689e+01   8.7059945378e+00    0.7717135    0.5521809 -67.21  0.003915019    1.712    0.416
        11 -13.6801    110.9921    230.9096   9.2715575802e+01   1.0150697174e+01    0.4561324    0.3078172  28.56  0.001752387    1.392    0.282
        12 -13.7236     29.9044    227.0285   1.1094715090e+02   2.1544378967e+01     0.759034     0.268181  51.45  0.003220999    2.708    0.631
        13 -14.5577     22.2877    218.2999   1.1195028501e+02   2.4289241447e+01    0.6465889    0.3088541  60.22  0.003140032    2.095    0.523
        14 -15.1708     19.2373    206.8321   1.1175075411e+02   2.7237450240e+01     1.072555    0.8691485 -30.09  0.006626607    1.635    0.388
        15 -14.8369     15.7227    192.0175   1.1136757468e+02   3.1092649634e+01     1.135901    0.4672302  88.00  0.004547096    2.886    0.654
        16 -15.2092      3.5122    174.7124   1.1292805252e+02   3.6287133950e+01     2.001575    0.4683872 -75.25  0.006900268    3.622    0.724
        17 -14.6453    152.0946    226.6461   8.2503873132e+01   4.7409911038e+00    0.3825015    0.3155481 -46.88  0.002181725    1.343    0.256
        18 -15.8728     35.3640    203.1414   1.0762939754e+02   2.6504574765e+01     3.197167     1.258791  80.04  0.009369382    5.485    0.818
        19 -13.1020     81.1003    221.9673   9.8655420525e+01   1.6426761948e+01    0.4994541    0.1680796  41.43  0.001877527    2.647    0.622
        20 -13.4230     71.4960    220.8172   1.0081645072e+02   1.7992351498e+01    0.3851425    0.2936115  49.70  0.001583599    1.219    0.180
        21 -13.0414     31.0526    216.6306   1.0985339449e+02   2.3781327583e+01    0.3270801    0.1658898 -89.36  0.001553584    2.096    0.523
        22 -14.0669     62.3905    206.0688   1.0130296075e+02   2.2637232695e+01       1.7403    0.8323709 -83.66  0.006695681    2.913    0.657
        23 -14.3746     49.6553    164.0278   9.9172784614e+01   3.4752927265e+01     1.150273    0.7641335  65.40  0.005466514    1.780    0.438
        24 -14.9708     58.9447    184.9937   9.9523912477e+01   2.8268658202e+01     1.387366    0.7452103  66.61  0.005502678    2.606    0.616
        25 -14.8872     55.9052    173.1719   9.8717222257e+01   3.1654578406e+01    0.9914367    0.6225766  65.53  0.004488478    1.939    0.484
        26 -13.8515      9.3230    181.0086   1.1200321266e+02   3.4307631367e+01    0.6421062    0.3143271 -53.80  0.003146019    2.003    0.501
        27 -15.5259    156.7915    189.0912   7.4724978818e+01   1.1791346067e+01     1.213039    0.6240221 -40.27  0.004980315    1.970    0.492
        28 -14.7599    145.6979    178.2921   7.5293927566e+01   1.6157678689e+01    0.9117087    0.3363918 -44.51  0.003089098    2.705    0.630
        29 -13.9329     99.5014    169.9695   8.5894732613e+01   2.6209846038e+01     0.586008    0.3461289  39.69  0.002500558    1.691    0.409
        30 -14.5227      6.5617    133.3898   1.0792877762e+02   4.6400809264e+01    0.5857884    0.4000662 -75.89  0.002406747    1.288    0.223
        31 -14.8289     12.8536    141.7400   1.0703352928e+02   4.3891067376e+01    0.9408755    0.4346494 -82.30  0.004037827    2.276    0.561
        32 -14.7105      5.1759    141.6643   1.0930815286e+02   4.4411303238e+01    0.7266121    0.4842276  52.00  0.003950288    1.700    0.412
        33 -14.2497     16.9905    166.4732   1.0864561196e+02   3.7316172730e+01    0.6371311    0.3591169  71.13  0.002919994    2.029    0.507
        34 -15.0454     12.1958    157.3135   1.0899725785e+02   3.9998107880e+01     1.074316    0.5135744 -83.65  0.004402642    2.086    0.521
        35 -15.0363    104.4919    148.1498   8.0085658387e+01   3.0827139886e+01    0.9694752    0.4339444 -56.43  0.003446071    2.339    0.572
        36 -14.8001    106.7324    161.6373   8.2252844559e+01   2.7080296057e+01     0.556435    0.3270143 -35.69  0.002225232    1.972    0.493
        37 -13.7118     62.9043    155.5235   9.3920558483e+01   3.5333597133e+01    0.6930835    0.3501709 -66.01  0.002814563    1.991    0.498
        38 -12.8136     34.8649    156.8826   1.0246411213e+02   3.8174203309e+01    0.3602891    0.1884087  75.00  0.001393985    2.865    0.651
        39 -12.5937     32.9716    149.9478   1.0206527519e+02   4.0144291947e+01     0.365555     0.181366 -83.38  0.001465952    2.441    0.590
        40 -13.7932     75.4935    199.1082   9.7086183684e+01   2.2578362238e+01     1.720448    0.6210309  47.27  0.005960384    3.075    0.675
        41 -14.1523    108.5265    130.6850   7.4934168614e+01   3.4369797188e+01    0.9611031    0.4018666 -57.18  0.003127385    2.876    0.652
        42 -14.8725     59.3471    127.8899   8.9857603270e+01   4.2893809009e+01     1.015076     0.748149  83.06  0.004796065    1.827    0.453
        43 -14.0593     32.9695    122.5414   9.7718899065e+01   4.7148079614e+01    0.6720158    0.4740345  80.84  0.003360665    1.825    0.452
        44 -14.3456     74.4110    109.2664   8.0496258390e+01   4.5330800925e+01    0.3882415    0.3052904 -25.00  0.001936966    1.293    0.227
        45 -14.5954      2.3806    104.7846   1.0542731700e+02   5.3657033943e+01    0.6240041    0.1940094 -68.01  0.002492185    2.622    0.619
        46 -15.3885      5.9111     90.4307   1.0172154398e+02   5.6865176852e+01    0.9870419    0.3813523 -47.06  0.004553165    1.989    0.497
        47 -13.6285     43.0186    244.0045   1.0946673017e+02   1.6418635528e+01     0.686901    0.3434782  60.66  0.003455561    2.010    0.503
