#   1 NUMBER                 Running object number                                     
#   2 MAG_AUTO               Kron-like elliptical aperture magnitude                    [mag]
#   3 X_IMAGE                Object position along x                                    [pixel]
#   4 Y_IMAGE                Object position along y                                    [pixel]
#   5 X_WORLD                Barycenter position along world x axis                     [deg]
#   6 Y_WORLD                Barycenter position along world y axis                     [deg]
#   7 A_WORLD                Profile RMS along major axis (world units)                 [deg]
#   8 B_WORLD                Profile RMS along minor axis (world units)                 [deg]
#   9 THETA_WORLD            Position angle (CCW/world-x)                               [deg]
#  10 FWHM_WORLD             FWHM assuming a gaussian core                              [deg]
#  11 ELONGATION             A_IMAGE/B_IMAGE                                           
#  12 ELLIPTICITY            1 - B_IMAGE/A_IMAGE                                       
         1 -11.6525    127.0310     34.6396   3.7585011772e+01   4.8738230588e+01     1.068939    0.5261515 -49.27            0    2.886    0.653
         2 -12.3439    140.6091     38.1937   3.5905238755e+01   4.5061617636e+01     0.543245    0.4808883 -63.54 0.0005403819    1.335    0.251
         3 -10.9603    157.8506     38.8075   3.2674766282e+01   4.0739058937e+01    0.8260902    0.4956371  19.30  0.002641168    2.288    0.563
         4 -11.6113     54.2429     34.5722   5.9113230171e+01   6.2358945504e+01    0.5309227    0.2226038 -43.36  0.001389944    2.199    0.545
         5 -10.1094      1.7246     21.3602   7.5377835083e+01   6.9818884979e+01    0.3316566    0.1049268 -48.42  0.001113805    2.117    0.528
         6 -11.0745     18.2900     27.6832   7.0548731896e+01   6.7489798672e+01    0.9328935    0.4713787   2.61  0.004817719    2.878    0.653
         7  -9.3087     39.5620      9.2466   5.3105352312e+01   6.8064716235e+01    0.2065478    0.1140116 -25.99 0.0006180722    1.464    0.317
         8 -10.7666     24.7428     13.1402   6.1340657019e+01   6.9255644824e+01    0.3811109    0.1928032 -24.95 0.0006265608    1.708    0.415
         9 -11.9756     16.8157     13.4769   6.5066410062e+01   6.9976258593e+01    0.3385739    0.2549852  -2.73   0.00247025    1.292    0.226
        10 -10.2728     23.8024      7.5442   5.8971789536e+01   7.0162526235e+01    0.4560533    0.1802471  23.25 0.0008243662    3.272    0.694
        11 -11.4989      8.0028     22.4835   7.2979864840e+01   6.9200798358e+01    0.6122336    0.3793642 -47.09  0.003969856    1.310    0.236
        12 -10.9483      9.3245     15.2720   6.9347250448e+01   7.0321712812e+01    0.3075817    0.2293454 -25.36 0.0009103225    1.091    0.084
        13 -10.9685     28.3152     18.3023   6.2226605570e+01   6.8096082058e+01    0.7060239    0.3519323 -18.42  0.003583915    2.279    0.561
        14 -10.9817     32.1484     10.7287   5.6937488867e+01   6.8783494359e+01    0.5366843    0.3497666  -0.11  0.002104364    1.472    0.320
        15 -11.2960     36.3205      2.5527   5.0917936883e+01   6.9322769335e+01    0.6547974     0.299582  30.97  0.003165636    2.283    0.562
        16 -11.5908     31.0063     31.8322   6.6929191881e+01   6.5582485691e+01    0.5940567    0.2655892 -48.04  0.002104277    1.980    0.495
        17 -10.5358     34.8439     26.4764   6.3150261998e+01   6.6084197397e+01    0.6524969    0.3926004 -53.21    0.0031642    2.189    0.543
        18  -9.8871    238.2070      6.7856   1.2918949003e+01   2.4343450203e+01    0.3557911    0.2670829 -85.79  0.001554045    1.292    0.226
        19 -10.9589    227.0525     18.4540   1.6883388130e+01   2.5734729214e+01    0.5083902     0.323725  39.35  0.002495777    1.958    0.489
        20 -12.1375    239.2237     19.0887   1.5889191658e+01   2.2771869367e+01    0.9959216    0.6805893 -47.96  0.002094563    1.322    0.244
        21  -9.6193    247.0186     13.9461   1.3942293424e+01   2.1547538375e+01    0.2659538    0.2261764  45.73 0.0007204343    1.406    0.289
        22 -10.2567    180.4020     29.6383   2.5841641074e+01   3.6161936657e+01    0.7520904    0.4688719  15.00  0.003205749    2.192    0.544
        23 -10.9432    178.8620     20.9892   2.3329726662e+01   3.7542336713e+01    0.5904044    0.3098301 -50.71  0.002462887    2.211    0.548
        24  -9.2966     71.6861      7.0634   4.0510552756e+01   6.3347716450e+01    0.3018857    0.2022528 -46.10  0.001580592    2.187    0.543
        25 -10.1177     77.9969      6.3076   3.8243210739e+01   6.2274314121e+01    0.3033684    0.2493511 -32.17  0.001910001    1.447    0.309
        26 -10.3613     75.7484     20.4750   4.5538859757e+01   6.1074893342e+01     0.331798    0.2558686 -19.69 0.0008878907    1.162    0.140
        27  -9.9307     76.0508     13.0159   4.2002375537e+01   6.1920211078e+01    0.4874015    0.2151952 -20.79   0.00213764    2.146    0.534
        28 -10.1868    223.5487     22.2997   1.8258260788e+01   2.6149073444e+01    0.4728527    0.3034086 -53.25   0.00196009    1.532    0.347
        29 -11.4143    100.0107     15.9520   3.6590874897e+01   5.6929192325e+01    0.9757429    0.8496428 -64.95   0.00576698    1.611    0.379
        30 -11.9251    111.4848     19.0239   3.5055333959e+01   5.4137209217e+01    0.3675354    0.2955224  28.75  0.001026717    1.145    0.127
        31 -11.2691    112.0380     15.2171   3.3359283983e+01   5.4420964819e+01    0.2365669    0.2105294  11.81            0    1.030    0.029
        32 -10.4214     66.4558     22.0635   4.9314017472e+01   6.2434560071e+01    0.4231727    0.2843444 -19.88  0.001225495    1.268    0.211
        33 -11.9895     55.7059     19.2976   5.1819126586e+01   6.4476693787e+01    0.3439751    0.2260407  -3.01 0.0009607644    1.486    0.327
        34 -11.3569     58.0415     12.7177   4.7823299179e+01   6.4983425194e+01    0.5818521    0.3281479  45.66  0.002764323    2.084    0.520
        35  -9.4763     63.1248     10.0959   4.4773935238e+01   6.4482778939e+01     0.180277    0.1446294 -21.76 0.0004584874    1.266    0.210
        36 -11.4321    192.9370     17.6675   2.0440260006e+01   3.4307110321e+01    0.4239244    0.3190156  35.92  0.001606511    1.464    0.317
        37 -11.6996    151.9453     17.9853   2.6506499629e+01   4.4679296105e+01    0.7141718    0.5331759  46.16  0.002601514    1.269    0.212
        38 -10.5904    152.7722      4.2771   2.1588748782e+01   4.5749826867e+01     1.485992    0.4098988  38.47  0.003999491    5.593    0.821
        39 -10.1923    156.6965     10.3421   2.3086422208e+01   4.4237108667e+01    0.2751593    0.2022193 -52.48 0.0008124636    1.549    0.354
        40 -11.6157    149.0819     11.9936   2.4870932672e+01   4.5982387677e+01     0.316027    0.2236481  53.16            0    1.311    0.237
        41 -10.2921    153.1992      9.6306   2.3380722455e+01   4.5176980194e+01    0.2950108     0.229462  66.17 0.0007230895    1.260    0.207
        42  -9.7385     87.8101     17.6306   4.0626727157e+01   5.9193645924e+01    0.4244688    0.1978272 -41.18  0.001817251    2.643    0.622
        43  -9.7685     84.3423     13.2689   3.9652298333e+01   6.0352059338e+01    0.3139419    0.2282923  68.65 0.0009767248    2.066    0.516
        44 -10.7240     81.0572     19.0141   4.3233021855e+01   6.0302458857e+01    0.4304239    0.2000342 -31.15  0.002005755    1.986    0.497
        45 -10.3133     48.9832      3.1266   4.6249819139e+01   6.7484974198e+01    0.2942702     0.241044 -40.95  0.001276945    1.773    0.436
        46 -10.2314     39.1829     16.5279   5.6861299775e+01   6.7113010654e+01    0.4614742    0.3202763  26.44  0.002521517    1.575    0.365
        47 -12.1835     45.7879      9.5998   5.0817033447e+01   6.7179894910e+01     0.391798    0.2206084 -16.37 0.0004899508    1.573    0.364
        48  -9.9705    136.7426     15.6477   2.8377922042e+01   4.8648877798e+01    0.3804997    0.2583981  17.70 0.0008955739    1.585    0.369
        49 -10.6764    116.7159      8.7668   2.9684117885e+01   5.3997359253e+01      0.25653    0.2233238 -50.59 0.0004852337    1.414    0.293
        50 -10.3580    131.1365     13.2528   2.8542273123e+01   5.0226441142e+01    0.3297799    0.2529162 -83.94  0.000664162    1.734    0.423
        51 -11.6511    128.3191      5.2257   2.5988221080e+01   5.1617082163e+01    0.4922272    0.3704635  70.95  0.001922235    1.445    0.308
        52 -10.3111    135.8952      1.8157   2.3363112607e+01   5.0085106202e+01    0.6959752    0.1899073  63.25  0.002437792    3.178    0.685
        53  -9.7251    126.2267     14.9757   3.0183487788e+01   5.1214523463e+01    0.2629624    0.1919919 -11.99 0.0005775216    1.358    0.263
        54 -11.5872    122.9697     11.1582   2.9347977303e+01   5.2342615713e+01    0.5605733     0.265747  44.19  0.002481545    1.936    0.483
        55 -10.0675    176.3322     12.5376   2.1003352137e+01   3.9059037124e+01    0.3673136    0.3093584 -25.13  0.001063891    1.224    0.183
        56 -12.5767    187.1084     13.6872   1.9968110166e+01   3.6201156541e+01    0.4535835    0.3506459  -3.54 0.0003842464    1.456    0.313
        57 -11.8776    182.6044     12.0405   2.0031029231e+01   3.7510836623e+01    0.5678229    0.3508754  -6.35  0.001435794    1.927    0.481
        58 -11.4275    208.7112     10.1866   1.6503814337e+01   3.1110583788e+01     0.733341     0.464561  19.31  0.001069946    2.213    0.548
        59 -11.0032    216.1168      7.6544   1.5082141998e+01   2.9537246658e+01    0.4040395    0.2887549 -33.80 0.0005326267    1.364    0.267
        60 -10.7645    218.1252      2.9161   1.3641388667e+01   2.9510792949e+01    0.3176938    0.2685336 -74.87 0.0007053692    1.105    0.095
        61 -10.1534     90.8512      9.9971   3.6362111072e+01   5.9421323251e+01    0.3835157    0.3237512  17.65  0.002074695    1.049    0.046
        62 -11.2349     89.3757      3.2544   3.3680473596e+01   6.0351831155e+01    0.4128155    0.3234832  58.23  0.002494678    1.487    0.327
        63 -10.1542    105.2765      2.0963   2.9365778928e+01   5.7114322459e+01    0.5507735    0.2901816  74.31  0.002388202    2.796    0.642
        64 -10.8653    104.7149      7.5630   3.1836366079e+01   5.6765385916e+01    0.3111084    0.2152016  31.36 0.0004147777    1.314    0.239
        65  -8.9482    110.7952      7.4445   3.0413191569e+01   5.5444860695e+01    0.3662915    0.1985433  77.87  0.001505682    3.036    0.671
        66 -10.4208      8.7655      8.3626   6.6411589028e+01   7.1461318582e+01    0.4040318     0.183706 -40.86  0.002375621    1.660    0.398
        67 -11.6924      2.9440      4.1034   6.7192713300e+01   7.2568275794e+01    0.4318389    0.2879372 -56.07  0.002760675    2.314    0.568
        68 -10.6797      6.6530      2.8551   6.4694749361e+01   7.2458679596e+01    0.2352248    0.1512771 -28.33 0.0007489868    1.092    0.085
        69  -9.2911    225.8337      7.3443   1.4108712049e+01   2.7211812973e+01    0.2779598    0.1903158 -73.25  0.001495716    1.474    0.322
        70 -10.9496    167.6783      6.5112   2.0230993333e+01   4.1816162043e+01    0.4087153    0.3568004 -40.99  0.000813732    1.205    0.170
        71  -9.7579    170.5066      2.5514   1.8586092184e+01   4.1443077059e+01    0.2283007    0.2215266  19.67 0.0005775608    1.073    0.068
        72  -8.7410    137.6384      8.5138   2.5556050488e+01   4.9105140915e+01     0.133534    0.1244618  16.97 1.436985e-05    1.049    0.047
        73  -8.9058     98.4926      7.1236   3.3128241102e+01   5.8130321602e+01    0.1875134    0.1202589 -13.26 0.0003699623    1.484    0.326
        74  -9.1777    248.5204      5.9830   1.1920055907e+01   2.2062451329e+01    0.2384807    0.1568098 -72.91 0.0007422733    1.491    0.329
        75 -10.2547    204.6813      3.2624   1.4991239990e+01   3.2782368541e+01    0.6781873    0.2850999  50.42  0.001873108    2.478    0.596
        76  -9.2652    198.3104      3.3413   1.5653949387e+01   3.4363550318e+01    0.3037878    0.1763201  52.34  0.001333502    1.718    0.418
        77 -10.3804    194.5723      1.9756   1.5650330879e+01   3.5423182252e+01    0.5722021     0.223656  68.53  0.002343483    2.331    0.571
        78  -8.5942    178.7068      6.3173   1.8748487479e+01   3.9039818052e+01    0.3025874    0.2343916 -76.34  0.001147507    1.394    0.283
        79  -9.7389    176.0891      2.8946   1.8003881940e+01   4.0003639342e+01    0.3276528    0.2251006  71.39 0.0004302444    1.386    0.278
        80  -9.4101    120.3411      2.8858   2.6576657914e+01   5.3670777473e+01    0.3724004    0.1892481 -18.52  0.001746683    1.975    0.494
        81  -9.2292     14.2287      1.4088   6.0205252643e+01   7.1982453346e+01    0.1676028    0.1284829  10.88 0.0006673786    1.406    0.289
        82 -10.0789    244.9498      1.5330   1.1132594075e+01   2.3328006239e+01    0.6164063    0.1403157  74.63  0.002035798    4.507    0.778
        83  -9.1990    229.9397      2.0690   1.2419932161e+01   2.6758874082e+01    0.1939139    0.1686379 -67.52 0.0003495716    1.029    0.029
        84  -9.1988     61.1977      1.3433   4.1017792630e+01   6.5736344153e+01    0.1878905    0.1222507  60.19 0.0004926499    2.341    0.573
        85  -8.2775     24.2596      2.3306   5.6015813961e+01   7.0813819632e+01    0.1174151   0.06748545 -11.75  0.000195902    1.567    0.362
        86  -8.1790     21.2901      1.2598   5.6789382618e+01   7.1279272896e+01    0.1115243   0.06711719  -8.03 0.0002693198    1.492    0.330
        87  -9.4132     17.4783      4.4898   6.0295257119e+01   7.1239632203e+01    0.3395695    0.1759254  32.38  0.002070567    2.315    0.568
        88  -9.0430     61.9709    102.4851   7.7734049226e+01   4.7454539479e+01    0.1744903    0.1387352  27.96 0.0005684598    1.551    0.355
        89  -8.4604    148.4701    100.5724   5.4506685494e+01   3.2343448631e+01    0.1561949    0.1484506 -29.78 8.952797e-05    1.009    0.009
        90 -11.0402    118.0209     97.4247   6.1093516530e+01   3.9453033959e+01     0.499111    0.3752613 -26.88  0.001552104    1.413    0.292
        91 -11.7009    101.6399     97.8958   6.5564078204e+01   4.2434213146e+01    0.2902956    0.2601361 -41.65 0.0002472434    1.023    0.022
        92  -9.3802     97.2849     95.6398   6.6128369942e+01   4.3696386380e+01     0.246047    0.2075878  32.06  0.000369879    1.341    0.255
        93 -10.8191    108.6417     96.3781   6.3260913920e+01   4.1484704493e+01    0.3961227     0.295761  68.43  0.001218031    1.789    0.441
        94  -8.7516     63.9971     98.7738   7.6301848525e+01   4.8043702667e+01    0.1574143    0.1160661  34.04 0.0006842391    1.630    0.386
        95 -12.5876     34.7741     89.6937   8.2781273275e+01   5.3365255787e+01    0.5366085    0.2829699 -68.42  0.002717225    1.759    0.431
        96 -10.2464     26.8969     97.1231   8.6563795108e+01   5.2383657286e+01    0.2267846    0.2222778  22.66 0.0003741486    1.339    0.253
        97  -9.3611     22.7166     96.6535   8.7663460545e+01   5.2835171377e+01    0.3027685    0.1226786 -54.64  0.001495447    1.843    0.458
        98 -10.0418     16.8785     96.9166   8.9354682854e+01   5.3225874604e+01    0.4866446    0.1436378 -67.56  0.001998554    2.698    0.629
        99  -9.1911     51.1005     97.2089   7.9640138955e+01   4.9969918816e+01    0.1925778    0.1500515 -47.24 0.0004148108    1.158    0.136
       100  -8.5572     61.4463     95.7427   7.6311488222e+01   4.9060805542e+01    0.1959819    0.1052277 -46.72 0.0009317358    1.606    0.377
       101 -10.2670     86.1471     88.0523   6.7129291743e+01   4.7222177025e+01    0.8290979    0.5501602 -57.28  0.004057712    1.505    0.336
       102  -9.2973     93.3500     93.7564   6.6694567320e+01   4.4784483211e+01    0.2271222    0.1345133 -49.63 0.0001767674    1.510    0.338
       103  -9.8629     87.3845     80.0855   6.4424296844e+01   4.8727578460e+01    0.3255573    0.2111275  37.87 0.0005355699    1.757    0.431
       104  -9.1784     76.7297     87.0127   6.9576678698e+01   4.8909357049e+01    0.2626615    0.1921802 -68.49 0.0008126627    1.576    0.366
       105 -10.8406     79.1062     81.4237   6.7272620144e+01   4.9762822821e+01    0.4839278    0.3064269   7.23  0.002094833    2.629    0.620
       106  -9.2856    137.6645     92.9647   5.4857431120e+01   3.6282093276e+01    0.2331239    0.1933101 -40.12  0.001150393    1.133    0.117
       107  -9.5431     41.4811     91.1736   8.1109300036e+01   5.2376761484e+01    0.2025271    0.1804573 -22.21 0.0004103996    1.320    0.242
       108  -9.6985     57.4838     89.4605   7.5937159576e+01   5.0972652237e+01    0.2156651    0.1841727 -57.18 0.0007691069    1.072    0.067
       109  -9.6902     53.9348     89.0405   7.6893996481e+01   5.1492839874e+01     0.245679     0.195465  -2.76 0.0008492325    1.612    0.380
       110  -9.2405     45.8385     92.7584   8.0175637883e+01   5.1563084748e+01    0.3114573    0.2286888 -13.56  0.001783706    1.834    0.455
       111  -9.5874     49.4767     90.4771   7.8571785955e+01   5.1681007712e+01    0.3712704    0.2403566 -57.48  0.002054169    1.256    0.204
       112  -8.8967    113.1525     91.7823   6.0737833989e+01   4.1607965612e+01    0.2054317    0.1723316  -8.67 0.0004118138    1.346    0.257
       113  -8.6151     21.4553     92.4056   8.7245492403e+01   5.3895202988e+01    0.1224578   0.09447527 -66.59  5.33401e-05    1.057    0.054
       114  -9.8188      9.5262     89.7995   9.0232193271e+01   5.5334935142e+01    0.3639443    0.1178392 -57.72  0.001220845    2.064    0.516
       115 -10.0315     12.9980     88.1264   8.8927192746e+01   5.5475833054e+01    0.1925662    0.1291387 -63.82 0.0003138309    1.094    0.086
       116  -8.6304    126.3003     91.2995   5.7182801974e+01   3.9055908179e+01    0.1531006    0.1192953  -4.10 0.0002021502    1.581    0.367
       117  -9.2830     65.6503     90.6649   7.3820587336e+01   4.9659967914e+01    0.2995711    0.2003585 -89.74  0.001244505    2.457    0.593
       118  -9.7980    110.0572     88.2081   6.0505805042e+01   4.2959487541e+01    0.3073485    0.2033053 -34.76 0.0005361819    1.454    0.312
       119 -10.4531    112.0069     82.9400   5.8375228285e+01   4.3673515686e+01    0.3371974    0.2482272  27.60 0.0002974007    1.571    0.364
       120  -9.8731    109.3354     80.2907   5.8271239524e+01   4.4735012665e+01    0.2843705    0.2339538 -26.38 0.0003733256    1.166    0.143
       121 -12.1638    105.6914     80.2124   5.9247001772e+01   4.5449896701e+01     1.074282    0.6673366 -28.56   0.00332721    1.716    0.417
       122  -9.8431    124.5002     85.6325   5.5924785425e+01   4.0589880533e+01    0.3644613    0.2530802 -47.04  0.001548895    1.399    0.285
       123 -10.0926    120.2249     87.8295   5.7699975721e+01   4.1025050609e+01    0.3826755    0.2879835 -33.92  0.001013101    1.254    0.203
       124 -10.3680    120.8840     82.4333   5.5865939981e+01   4.1986766588e+01    0.2781723    0.2750009 -46.82 0.0003186789    1.110    0.099
       125  -9.6967    157.0133     85.7143   4.8164064045e+01   3.3289686766e+01    0.2195233    0.2094508  28.72 0.0004526683    1.088    0.080
       126  -9.4830    131.3076     86.1396   5.4359651285e+01   3.9039619425e+01    0.2394777    0.2075311  26.33  0.000311972    1.240    0.193
       127  -8.8252     29.0936     84.9216   8.3466139446e+01   5.4947533131e+01     0.174752     0.136495 -68.95            0    1.170    0.145
       128  -9.8507    138.9575     87.4735   5.2890772508e+01   3.7096579393e+01    0.4288181    0.2363158 -48.44  0.001047263    1.887    0.470
       129  -8.8793     59.6210     84.1747   7.3931398617e+01   5.1884444561e+01    0.2071273    0.1021558 -46.07 0.0006283317    1.693    0.409
       130  -9.8849    188.3173     82.6974   4.0828746031e+01   2.6250078986e+01    0.3795284    0.2614866  20.45 0.0008567474    1.899    0.473
       131  -9.7276      1.8151     83.0895   9.1345884821e+01   5.7289537142e+01    0.1775513    0.1262312 -63.05  0.000704321    1.022    0.021
       132  -9.9168    147.0984     81.4464   4.9099343209e+01   3.6414295764e+01     0.270872    0.2375488 -52.27 0.0003755929    1.199    0.166
       133 -11.0336     54.1321     80.9101   7.4752751046e+01   5.3275638971e+01    0.2575111    0.2012747 -43.44 0.0002874207    1.091    0.083
       134 -10.5142    166.3660     80.4477   4.4529315954e+01   3.2022028454e+01    0.4568974    0.2894178 -79.49  0.001566611    3.171    0.685
       135  -8.9808    142.9486     80.9486   4.9915040565e+01   3.7463030801e+01    0.2438619    0.2193948 -25.78 0.0006761105    1.049    0.046
       136  -8.6076     36.4433     77.9420   7.9559825340e+01   5.5825978581e+01    0.1977203    0.1011056 -57.14  0.001007428    1.536    0.349
       137 -10.0683    128.8148     71.7337   5.0386615923e+01   4.2367220267e+01    0.4058666    0.2481021  -4.14 0.0007361076    2.791    0.642
       138 -10.7612    124.9641     76.0458   5.2775648662e+01   4.2385043762e+01    0.4689046    0.3577735 -48.60  0.000891722    1.341    0.254
       139  -9.9622    121.6990     76.2985   5.3699852544e+01   4.3028111888e+01    0.2966576    0.1793031 -39.28 0.0009668836    1.529    0.346
       140 -10.1660     60.3088     76.1385   7.1497045490e+01   5.3548280120e+01    0.3160438    0.2040732  26.42 0.0004898972    1.906    0.475
       141 -10.0557     56.8037     72.5269   7.1563790271e+01   5.4762880191e+01    0.4703945     0.208556 -37.91 0.0002610744    2.245    0.554
       142 -11.2831     46.4900     73.4212   7.5149351943e+01   5.5778473759e+01    0.4819025    0.3900809  77.71  0.001529419    1.733    0.423
       143 -10.8586     51.2070     70.0926   7.2666803296e+01   5.5954542489e+01    0.3410461    0.2237516 -59.64 0.0004895537    1.494    0.331
       144  -9.3905     63.2206     70.5044   6.8898278314e+01   5.4360037702e+01     0.423231    0.3673744  54.74  0.002129143    1.494    0.331
       145  -9.4804     58.5304     66.0163   6.9026089518e+01   5.5906706139e+01    0.5599741    0.3224959  13.34  0.002251494    2.642    0.622
       146 -10.1612     60.8247     60.6211   6.6520282626e+01   5.6698490167e+01     0.316608    0.2533351  59.00 0.0006018526    1.808    0.447
       147 -10.8741     61.8891     57.1700   6.4993990584e+01   5.7234062826e+01    0.4219587    0.2337289  30.88 0.0002688753    2.134    0.531
       148  -8.7846    187.5278     76.4350   3.9124492817e+01   2.7517056191e+01    0.1561839    0.1476939 -39.45 0.0002048985    1.048    0.046
       149 -11.0409    165.4270     69.6982   4.1373516087e+01   3.4136863242e+01    0.4729649    0.4135945  19.11   0.00147438    1.208    0.172
       150 -11.7661    161.1653     55.9738   3.7800572592e+01   3.7429946929e+01    0.7320129    0.4634942 -37.00  0.001853247    1.527    0.345
       151 -11.4078    158.9581     73.8474   4.4050260087e+01   3.4995620392e+01    0.6051115    0.2737655 -42.04  0.001468393    2.171    0.539
       152 -11.2915    151.9955     73.5266   4.5476075312e+01   3.6723011666e+01    0.6741716    0.3935289 -16.69  0.002557113    2.235    0.553
       153 -10.4981    152.9862     65.0333   4.2500239390e+01   3.7964863499e+01     0.463333    0.3604752 -36.25 0.0003066058    1.237    0.192
       154 -11.1748    147.0310     61.9648   4.2794379966e+01   3.9911194212e+01    0.5972994    0.4686675  -5.74 0.0007073156    1.384    0.278
       155 -12.6409    150.7018     57.4731   4.0477697932e+01   3.9763714675e+01    0.4177291    0.3289374 -48.01 0.0004999911    1.355    0.262
       156 -10.3721     72.5122     68.2476   6.5234583876e+01   5.3514431289e+01    0.4397947    0.2803271 -31.15  0.002213107    1.514    0.340
       157 -10.8557     77.1998     75.3468   6.6018448333e+01   5.1342679647e+01    0.4895592    0.4085553  20.84  0.001542388    1.373    0.272
       158  -9.8479     83.3346     73.1920   6.3483164181e+01   5.0824467527e+01    0.4249186    0.2823296 -61.79  0.002010039    1.876    0.467
       159 -11.5490      7.6909     74.0051   8.7856124935e+01   5.8933197693e+01    0.3296562     0.294117 -45.95 0.0008598978    1.258    0.205
       160 -10.9727    161.1982     64.5770   4.0606751692e+01   3.6038508927e+01    0.7904079    0.4798757  16.19  0.002644425    2.630    0.620
       161  -9.6376    142.9571     71.2719   4.6810489774e+01   3.9253852327e+01    0.3159706    0.2809481 -18.96 0.0009871511    1.077    0.071
       162  -9.8075    139.6202     69.2556   4.6931551482e+01   4.0387740255e+01    0.2263397    0.1900915 -25.59  0.001133308    1.129    0.114
       163 -10.8257    136.8614     73.6565   4.9036795860e+01   4.0216611097e+01    0.4811729    0.3353508  10.65  0.001404747    1.944    0.486
       164 -10.6082    136.4828     69.4877   4.7757278136e+01   4.1064421313e+01    0.3076302    0.2619742  -0.85 0.0008149913    1.231    0.187
       165 -10.2738     88.6939     74.7038   6.2364624752e+01   4.9627488738e+01    0.2394249    0.2315121 -44.46 0.0002898111    1.156    0.135
       166  -8.9015     24.0452     72.4131   8.2218288744e+01   5.8125040220e+01    0.2132954    0.1241527 -50.17 0.0006277221    1.300    0.231
       167 -10.2847    119.4087     70.6495   5.2439456857e+01   4.4589710687e+01    0.5746818    0.2248742 -38.50  0.002009906    2.356    0.576
       168  -8.8061     26.7022     65.2853   7.9535744299e+01   5.9436690091e+01    0.2549849    0.1498178 -66.50 0.0007416029    1.699    0.412
       169 -11.0124     30.5729     71.0779   7.9741298272e+01   5.7862317450e+01    0.2425858    0.2197803 -80.27 0.0001049992    1.316    0.240
       170 -11.2568     34.5390     67.4759   7.7466934494e+01   5.8271007534e+01    0.2823896    0.2448417 -82.83 0.0006002193    1.428    0.299
       171 -10.0053     34.0173     63.0061   7.6395681511e+01   5.9263134421e+01    0.4655945    0.1802598 -39.19   0.00203303    2.466    0.594
       172 -10.7861     17.4411     70.6661   8.3976182740e+01   5.9007600035e+01    0.2584385    0.2014097 -57.47 0.0006342672    1.066    0.062
       173  -9.9742     12.8320     67.3740   8.4748285688e+01   6.0037091211e+01     0.358429    0.2309537  14.06  0.001691314    2.080    0.519
       174  -9.1660     97.3044     70.1292   5.8358371632e+01   4.9033434481e+01    0.4281904    0.1651812 -39.79  0.001578062    2.340    0.573
       175  -9.9493    106.4856     57.5393   5.1381588969e+01   4.9631001413e+01    0.5130399    0.2776342  42.52  0.002240471    1.972    0.493
       176 -12.0074    110.9911     65.8849   5.3076407659e+01   4.7214489744e+01      0.37683    0.3106261  16.17  0.000328552    1.306    0.234
       177  -9.1892    108.8983     61.1239   5.1992322795e+01   4.8508199476e+01    0.2579075    0.1931689 -32.82 0.0003606233    1.217    0.178
       178 -10.9044    180.9490     63.9484   3.6548254193e+01   3.1214682126e+01    0.5530791    0.3258773 -23.41 0.0006324825    1.777    0.437
       179 -10.1612    177.0134     63.9892   3.7293356579e+01   3.2197430127e+01    0.2555321    0.2226906  42.85  0.001296845    1.182    0.154
       180  -8.7900     85.9933     67.7262   6.0899156661e+01   5.1488956042e+01     0.189341    0.1718685 -12.70 0.0003101451    1.099    0.090
       181  -9.1488     88.4921     65.0263   5.9234550580e+01   5.1593404362e+01    0.4051663    0.1748919 -42.58   0.00125804    2.053    0.513
       182  -9.3955     79.7554     66.0393   6.2244785107e+01   5.2844229993e+01    0.5003028    0.2322897  27.61  0.001497629    3.138    0.681
       183  -9.9420     80.3795     60.7091   6.0230924755e+01   5.3783917630e+01     0.576234     0.353249 -27.53  0.001620581    1.628    0.386
       184  -9.6887     78.0058     55.6190   5.9172248713e+01   5.5128908099e+01    0.2663371    0.1939513 -19.51 0.0007373713    1.345    0.257
       185 -10.8217     78.9663     44.4512   5.4659351968e+01   5.6952711962e+01    0.7754319    0.3059981  47.80  0.003049686    3.178    0.685
       186 -10.2084     82.2042     52.0378   5.6533197192e+01   5.5089138100e+01     0.443121    0.2149457 -33.46  0.001309791    1.882    0.469
       187 -10.2943     85.2052     49.2047   5.4533268963e+01   5.5072602467e+01    0.4921907    0.2197724 -37.29  0.001603697    1.984    0.496
       188 -11.2345     43.2466     61.3782   7.2728856066e+01   5.8667378109e+01    0.6118037    0.2584604 -44.36  0.002858309    1.870    0.465
       189  -8.1857    231.4559     66.5223   2.9225953578e+01   1.8358671992e+01    0.1470268    0.1347258 -27.95 0.0001482689    1.045    0.043
       190  -9.1689    194.5407     65.5430   3.4623809822e+01   2.7544041247e+01    0.3062356    0.1450393 -31.52 0.0006938947    1.991    0.498
       191  -9.2969    189.3427     62.2666   3.4532952353e+01   2.9364434886e+01    0.2691332    0.2077233  40.70 0.0005720466    1.374    0.272
       192  -9.4329    192.5102     61.4180   3.3733165838e+01   2.8697102082e+01     0.283438    0.2339616 -79.93 0.0007825878    1.416    0.294
       193  -8.2896    122.6346     65.7022   4.9928813374e+01   4.4818225161e+01    0.1583051     0.114426   9.79 0.0003424356    1.723    0.420
       194  -9.7293      2.3331     63.9742   8.7520332892e+01   6.1400133392e+01    0.2350371    0.1495739 -57.43 0.0006479314    1.104    0.094
       195  -9.0581      9.2737     61.2567   8.4524986975e+01   6.1568194506e+01    0.1793089    0.1507895  60.27  0.001285065    1.648    0.393
       196 -10.1187      7.6768     57.7001   8.4220050479e+01   6.2412787076e+01    0.4888823    0.2229913 -23.91  0.002106058    3.071    0.674
       197  -8.7518    172.4919     63.0442   3.7857591042e+01   3.3483201820e+01    0.2348097    0.1491599 -29.73 0.0005766189    1.522    0.343
       198  -8.3283    208.6367     62.2404   3.1366004524e+01   2.4532955003e+01    0.1507301    0.1131529 -71.23 0.0003187477    1.600    0.375
       199 -10.0257    167.6792     61.4250   3.8279489319e+01   3.4946385490e+01    0.3742167    0.2539907  -9.37 0.0008788917    1.760    0.432
       200  -9.0526    100.1772     62.2943   5.4853642056e+01   4.9997549626e+01    0.2168433    0.1629994 -30.43 0.0006582226    1.198    0.165
       201 -11.0838     21.8904     61.0288   8.0064606212e+01   6.0726008106e+01     0.248887    0.1728889 -30.73  0.001587217    1.417    0.294
       202 -10.3448    219.0691     59.8449   2.9136388403e+01   2.2321215533e+01    0.3809874    0.2827938 -47.72  0.001181865    1.312    0.238
       203  -9.9173    222.5259     55.5572   2.7462132550e+01   2.2101124889e+01    0.3077543    0.2366841 -36.01 0.0008328224    1.196    0.164
       204  -8.3751    200.6389     61.2901   3.2351168722e+01   2.6672291137e+01    0.1591017    0.1140834 -66.01 0.0007026652    1.694    0.410
       205  -9.9179    131.7525     60.5660   4.5878606343e+01   4.3706165554e+01     0.312488    0.2441467 -52.37  0.001022135    1.447    0.309
       206  -9.0315    115.3339     60.9673   5.0196762008e+01   4.7216444189e+01    0.2193552    0.1714804 -29.03 0.0005472031    1.177    0.150
       207  -9.9484    201.5602     49.8300   2.8827439299e+01   2.8121208468e+01    0.3267778    0.2929056  72.56  0.001130594    1.167    0.143
       208  -9.5211    196.7687     57.9972   3.2001036623e+01   2.8142779597e+01    0.2720286    0.2298265  -4.17 0.0006487584    1.276    0.216
       209 -10.7274    200.1606     55.0194   3.0575757016e+01   2.7728431200e+01    0.3675084    0.3365775 -75.27  0.001983039    1.154    0.134
       210 -10.5683    184.9133     55.7032   3.3288192440e+01   3.1488009667e+01    0.7683523    0.2611927 -31.82   0.00213021    2.718    0.632
       211 -10.1159    174.3936     53.4037   3.4431899860e+01   3.4499899318e+01    0.4007355    0.3034034 -26.01  0.001226098    1.293    0.227
       212 -10.2690    179.0865     52.7688   3.3388092856e+01   3.3404067832e+01    0.5626909    0.3861257 -53.38   0.00254091    1.633    0.388
       213 -10.5912     93.9514     56.7223   5.4679710258e+01   5.2178047760e+01    0.4462982    0.3759681  29.71   0.00251113    1.273    0.214
       214  -9.4386    213.8505     56.8884   2.9055907475e+01   2.4035884232e+01    0.2247923     0.206882   7.88 0.0005889107    1.172    0.147
       215  -9.8452     27.1035     56.4687   7.6932146769e+01   6.1241551657e+01    0.2598786    0.2012457  31.16  0.001307312    1.675    0.403
       216 -11.1952     30.6055     53.7070   7.4830305897e+01   6.1490389452e+01    0.4221348    0.2647208 -72.12  0.001427927    2.324    0.570
       217  -8.5917    239.0311     56.0423   2.5446537333e+01   1.8101481738e+01    0.1790779    0.1527487 -36.32 0.0009906545    1.059    0.055
       218 -10.3410     17.9166     41.2566   7.5633223982e+01   6.5017302186e+01    0.4139845    0.2490798 -73.59   0.00198378    2.875    0.652
       219 -10.1621     10.5305     51.7454   8.1636075795e+01   6.3461486884e+01    0.3255237    0.2429668  38.25  0.001490231    1.869    0.465
       220 -10.1867     20.0860     54.9997   7.9041336889e+01   6.2116259520e+01    0.4714475    0.1653243 -41.97   0.00123559    2.351    0.575
       221 -10.0457     26.3262     48.1101   7.4638356728e+01   6.2988768811e+01    0.3694341    0.2137737 -18.62  0.002024237    2.083    0.520
       222 -10.7890     18.1758     48.3946   7.7804625530e+01   6.3598466479e+01    0.3643402    0.2235262 -42.04 0.0009519345    1.234    0.189
       223  -8.9711     21.5484     47.4762   7.6241943814e+01   6.3516191244e+01    0.2014343    0.1328381 -42.99 6.718157e-05    1.123    0.110
       224  -9.1490    106.8899    246.5401   8.9492944561e+01   1.1422687739e+01    0.1787099    0.1440355 -86.33 0.0008664311    1.298    0.230
       225 -10.9314    127.9993     53.2197   4.4208230549e+01   4.5776342947e+01     0.574688     0.470152  -7.96  0.001282876    1.219    0.180
       226 -10.0868    117.6697     51.6230   4.6227020730e+01   4.8313507081e+01    0.3693838    0.2861018  -5.69 0.0008816085    1.336    0.252
       227 -11.9050    122.3807     49.8894   4.4392811766e+01   4.7564534560e+01    0.4187228    0.3369743 -39.06  0.001831032    1.264    0.209
       228  -8.6370    218.2222     52.9085   2.7315570084e+01   2.3530303667e+01    0.1961538    0.1125467 -32.25 0.0003960988    1.607    0.378
       229  -9.5903    205.8826     52.8733   2.9073058038e+01   2.6600499028e+01    0.2269771     0.200008  22.01 0.0004638232    1.249    0.200
       230  -9.1124     44.6709     51.9829   6.9184410102e+01   6.0392746101e+01    0.4885372    0.1188425 -41.27  0.001660624    3.603    0.722
       231  -8.7927     40.5636     52.5160   7.0839448917e+01   6.0739274405e+01    0.1730091    0.1349506 -40.25 5.901188e-05    1.041    0.040
       232  -9.5631     62.6890     48.8330   6.1733685930e+01   5.8698558335e+01     0.258682    0.1717085 -44.29 0.0006613057    1.383    0.277
       233  -9.5662      2.1712     50.9755   8.4525428714e+01   6.4120102742e+01    0.2656385    0.1195528 -44.49  0.001084382    1.671    0.401
       234  -9.4602     35.0362     51.1223   7.2386187587e+01   6.1582664613e+01    0.1859948    0.1392175 -36.57 0.0002929156    1.061    0.057
       235 -11.7415    233.2644     48.3323   2.4115494660e+01   2.0527136917e+01    0.3146012    0.2649167 -84.50 0.0002473441    1.272    0.214
       236 -10.8493    211.5038     49.4351   2.7267938089e+01   2.5681509690e+01     0.321458    0.2665902  83.68  0.000521427    1.308    0.236
       237 -10.0795     69.1640    217.2397   9.2975178418e+01   2.1641373135e+01    0.2771549    0.1903062 -87.43 0.0009805755    1.306    0.234
       238  -9.1050    194.0071     48.9857   2.9734329452e+01   3.0154230754e+01    0.2307863    0.2265659 -12.31  0.001011226    1.030    0.029
       239  -9.2716    110.5168     49.2582   4.7238475332e+01   5.0211951135e+01    0.2647451      0.19288  41.26 0.0008886168    1.427    0.299
       240  -9.2374    104.2765     48.9774   4.8840817607e+01   5.1531863682e+01    0.2112098     0.172012 -27.18  0.001115683    1.123    0.110
       241  -9.5593    246.3789     47.7053   2.2421558059e+01   1.7552918206e+01    0.2446441    0.2238955  -7.91 0.0007129446    1.207    0.171
       242  -9.4942      7.0389     46.3338   8.1439616748e+01   6.4776048757e+01    0.2318572    0.1049452 -46.34 0.0006521181    1.563    0.360
       243 -12.1016    163.4431     42.6195   3.2918888082e+01   3.8817647439e+01    0.4563031    0.3807187  85.61  0.002331616    1.390    0.281
       244 -10.2837     73.7996    213.9493   9.1855248795e+01   2.1631795936e+01    0.3715402    0.2850035  84.18  0.001796647    1.102    0.093
       245 -10.5871    154.2220     35.5666   3.2244599418e+01   4.2070342765e+01    0.5652543    0.3734388  26.09  0.002561879    1.746    0.427
       246  -9.7976     33.2354     44.9246   7.0957010811e+01   6.2963807100e+01    0.4664548    0.1563334 -38.60  0.001569026    2.634    0.620
       247 -10.1367     33.0490     37.5444   6.8343256958e+01   6.4357446135e+01    0.2778244    0.1554484 -49.23  0.001542274    1.601    0.375
       248  -9.7017    180.2187     44.1489   3.0467809929e+01   3.4344528405e+01    0.5854421    0.2378995  53.57  0.002159514    2.364    0.577
       249 -10.3829    108.7408     44.2362   4.5815379782e+01   5.1377393769e+01    0.5080745    0.2912284  57.20  0.002238217    2.141    0.533
       250  -9.1884     90.0956     33.8760   4.6949894783e+01   5.6630086153e+01    0.3450665    0.1609522 -37.51  0.000597931    2.063    0.515
       251 -11.7924     90.8311     43.8774   5.0762509632e+01   5.4954871200e+01    0.3616071    0.2834761 -11.72 0.0002715716    1.184    0.155
       252 -10.8284     89.1860     38.1930   4.8989587586e+01   5.6155644578e+01     0.262393    0.2484755  84.68 0.0009236897    1.469    0.319
       253 -10.2806     67.8698     44.4280   5.8295125427e+01   5.8727548746e+01    0.4291966    0.2621096  35.58  0.001594481    1.840    0.456
       254  -9.1362    210.1111     43.2752   2.5696894340e+01   2.6871757470e+01    0.3461435    0.1620014 -26.96  0.001371582    2.096    0.523
       255  -8.8261    191.7681     44.3601   2.8678773838e+01   3.1366480424e+01    0.2011664    0.1344325  53.55 0.0003097548    1.509    0.337
       256  -8.8502     55.6577     44.0259   6.2371599698e+01   6.0535102364e+01    0.1816498    0.1275876 -33.67 0.0001239174    1.155    0.134
       257  -9.2878    218.3930     41.3321   2.4058678758e+01   2.5071245100e+01    0.2450975    0.2194971  60.52 0.0003993773    1.174    0.148
       258 -10.6816    201.8528     38.3630   2.5404273662e+01   2.9598741820e+01    0.4981856    0.2879488 -36.52  0.001716624    1.630    0.386
       259  -8.7705     97.3713     41.8752   4.8057409753e+01   5.4032202120e+01    0.2000864     0.163562 -15.45 0.0008727445    1.089    0.082
       260 -11.3454     77.1645    219.3642   9.1800988158e+01   2.0183541934e+01    0.5230024    0.3492478  22.59    0.0026341    2.748    0.636
       261  -9.0680     60.5043     40.5655   5.9308804734e+01   6.0476700191e+01    0.1922191    0.1778515 -46.08 0.0005186546    1.388    0.279
       262 -10.6770     62.2991     36.7514   5.7136935737e+01   6.0859592016e+01    0.4736961    0.4043257  -6.12  0.002264268    1.112    0.101
       263  -9.2777     28.1779     41.9688   7.1858887457e+01   6.4008812877e+01      0.17868    0.1702551  84.25  0.001290958    1.552    0.356
       264  -9.3840    250.6177     37.3315   1.9356618680e+01   1.7946055798e+01    0.2564248    0.1064835 -35.09 0.0006542796    2.018    0.505
       265  -9.3395    239.6550     40.6512   2.1355232954e+01   2.0042320042e+01     0.427052    0.2714825  25.98  0.001582511    2.346    0.574
       266 -11.3009    246.0662     32.2109   1.8531710402e+01   1.9626720883e+01    0.4888023     0.417953 -13.10    0.0009555    1.304    0.233
       267 -10.7602    229.9832     39.2010   2.2068928791e+01   2.2525306929e+01    0.4521243      0.28997 -89.08 0.0008719881    1.876    0.467
       268 -10.3492    149.6002     33.3542   3.2355045569e+01   4.3499860842e+01    0.7302463    0.3275402  42.82  0.002210282    2.325    0.570
       269 -10.2138    115.3624     35.5529   4.0733616955e+01   5.1236056894e+01    0.2920219    0.2713367 -13.41 0.0009323675    1.101    0.092
       270  -9.5474    112.8058     30.5117   3.9385208169e+01   5.2468837137e+01    0.4804409     0.355574  79.59  0.002364001    2.019    0.505
       271 -10.1992    194.7871     37.1591   2.6044549881e+01   3.1549689940e+01    0.2731229    0.2225301 -57.66 0.0003688831    1.275    0.216
       272  -8.8906     38.5729     36.9793   6.5978098097e+01   6.3873596752e+01    0.4227081    0.1508025 -31.36  0.001596495    3.402    0.706
       273 -10.1803     46.0820     29.2881   5.9931225700e+01   6.4294464845e+01     0.554828    0.3338357  -1.07  0.001842831    2.066    0.516
       274  -9.4853      2.3090     38.0969   8.0875539310e+01   6.6679755334e+01    0.1728228    0.1191205 -32.37 0.0002169591    1.278    0.218
       275  -8.2409     48.3266     37.2887   6.2401795551e+01   6.2670427277e+01    0.1298018   0.08366401 -14.86 0.0007012908    1.613    0.380
       276  -9.1117    186.0744     35.5131   2.6827188668e+01   3.3986098810e+01    0.2304631     0.199903 -25.84  0.001235756    1.146    0.127
       277  -9.5045     85.2507     34.8184   4.8799423619e+01   5.7387850055e+01    0.4473919    0.2512349  19.69  0.001262912    2.363    0.577
       278 -10.4546     73.8155     34.5304   5.2306990092e+01   5.9415630128e+01    0.4933378    0.1716907 -39.40  0.001932848    2.666    0.625
       279  -9.1968     91.4548    214.5233   8.8793037999e+01   1.9055629728e+01     0.229588    0.1017403  43.88 0.0007220582    2.051    0.512
       280  -8.6930     24.7734     31.0809   6.9172656017e+01   6.6318360191e+01    0.4127103    0.2299642 -49.91  0.002371838    1.638    0.390
       281 -10.1269      2.5936     28.8230   7.7729676845e+01   6.8418744095e+01    0.2080726    0.1935001  18.75  0.001040987    1.536    0.349
       282  -9.4510     76.7058    222.6917   9.2198801215e+01   1.9647427821e+01    0.1616234    0.1307687  64.08  0.000227884    1.127    0.112
       283  -8.8022     90.4289    206.1784   8.8036188118e+01   2.0756286339e+01    0.1671813    0.1028649 -82.28 0.0006954788    1.737    0.424
       284 -11.0472      3.2504    194.4660   1.0239240371e+02   3.3261801427e+01    0.3572274     0.124505 -88.98   0.00181345    2.632    0.620
       285  -9.6390      1.3795    185.1103   1.0212631758e+02   3.5260569572e+01     0.297468   0.07329523 -75.07  0.001379744    3.010    0.668
       286  -8.7083     25.0353    174.0202   9.6993386121e+01   3.5366631955e+01    0.1371962    0.1030202  88.27  0.000341183    1.020    0.020
       287  -9.2263      6.5097    168.4819   1.0003651865e+02   3.8214685132e+01    0.1729459    0.1025862  38.52 0.0006869326    1.993    0.498
       288 -11.1458      3.1438    141.2225   9.8382001309e+01   4.4307131827e+01    0.4861948    0.2791966 -86.14  0.003097848    1.351    0.260
       289 -11.4745      2.8614    153.7318   9.9553581844e+01   4.1624782213e+01     0.426529    0.3148126 -81.29  0.002729439    1.095    0.087
       290 -10.7638      6.5565    148.2166   9.8318048466e+01   4.2526069367e+01    0.2702101    0.1700474  60.14   0.00110373    1.606    0.378
       291 -12.0479     10.4693    142.9340   9.6985152944e+01   4.3371301280e+01    0.7656956    0.2838349 -86.74   0.00309796    2.970    0.663
       292 -10.7348      4.7835    163.0130   9.9935569138e+01   3.9502948509e+01    0.4052796    0.1296282  39.75  0.001791256    3.102    0.678
       293 -11.3499      5.9687    159.5196   9.9423051115e+01   4.0145540970e+01    0.5275384    0.1981125  52.81  0.002489444    2.695    0.629
       294  -9.3163     79.7457     33.9536   5.0152843734e+01   5.8496706776e+01    0.2618446    0.1724865 -14.35  0.001363081    1.475    0.322
       295 -10.6963    170.4724     31.8654   2.8122728251e+01   3.8431448071e+01    0.5475999    0.4486547 -27.69  0.002892888    1.215    0.177
       296 -11.0297     22.1136    141.9718   9.4345656051e+01   4.2602603920e+01    0.2803925    0.1872813  80.09 0.0003293524    1.399    0.285
       297 -11.5765    236.5526     29.6485   1.8839590784e+01   2.2158214665e+01    0.4940027    0.3935698  -1.48  0.002728452    1.521    0.343
       298 -11.1855     16.5432    140.7568   9.5437406460e+01   4.3355475968e+01    0.3208102    0.2294874 -62.78 0.0003638443    1.300    0.231
       299 -10.1296     17.5175    133.5558   9.4398806848e+01   4.4882611328e+01    0.2263856    0.1641867 -85.39 0.0005777634    1.115    0.103
       300 -11.0435     12.7936    134.9476   9.5629290177e+01   4.4954739232e+01    0.2791893    0.2175511  89.76 0.0002723478    1.124    0.110
       301 -11.4189     12.9405    129.2687   9.4946410732e+01   4.6212495210e+01    0.4156954    0.3215893  51.90  0.001721381    1.515    0.340
       302  -9.6038    182.6995     24.7044   2.3952952835e+01   3.6148273615e+01    0.2472885    0.1959682  37.28 0.0006349187    1.326    0.246
       303 -11.4393     16.4401    155.1769   9.6940749078e+01   4.0195279280e+01    0.3362589    0.1709624 -89.28  0.001897832    1.739    0.425
       304  -8.7695    106.3162     35.3094   4.2973888656e+01   5.3202122462e+01    0.2840463    0.1484867   3.55 0.0007673835    3.641    0.725
       305  -8.4929     96.9765     33.4364   4.4778418290e+01   5.5363717573e+01    0.1901802    0.1307512  41.14 0.0003571359    1.485    0.327
       306  -9.4015    208.3863     31.0366   2.2416527276e+01   2.8870766488e+01    0.4073756    0.2063147 -43.93  0.001106416    1.923    0.480
       307  -9.0528    206.9325     25.7442   2.1082719108e+01   2.9866683741e+01    0.2302845     0.187828  -9.24 0.0006054485    1.355    0.262
       308 -11.6958    132.0144     29.5532   3.4556474641e+01   4.8227083268e+01    0.3720506    0.2860035 -20.72  0.001952792    1.267    0.211
       309  -9.1750    223.7062     30.8174   2.0533087515e+01   2.5101778035e+01     0.225729    0.1857107  58.18  0.000592851    1.282    0.220
       310  -9.6766    216.3935     29.4293   2.0993796500e+01   2.7068431260e+01    0.3148789    0.2427604 -74.06 0.0009498963    1.366    0.268
       311  -8.6423    201.4575     29.9503   2.2987146775e+01   3.0750236644e+01    0.2119111     0.133978 -31.45 0.0003882972    1.523    0.344
       312  -9.9383     72.7265     25.7848   4.8894504188e+01   6.0885306873e+01    0.6460115    0.2418425  33.32  0.002473859    3.351    0.702
       313 -11.6252     29.6483    149.5749   9.3572372511e+01   4.0205850270e+01    0.6286498    0.2290259 -66.07  0.002491391    2.105    0.525
       314  -8.6756     76.9899     30.2145   4.9444757806e+01   5.9527429660e+01    0.1922599    0.1740903 -15.04 0.0007725147    1.193    0.162
       315 -10.3218     82.3300     27.3456   4.6529167297e+01   5.8988693863e+01    0.5015535    0.4000276  20.56  0.002984654    1.203    0.169
       316  -8.8664     51.0041    149.2757   8.8834675007e+01   3.7992106868e+01    0.1368784    0.1088062  48.07 0.0003604033    1.421    0.296
       317  -9.0195     60.8585    148.3138   8.6474098426e+01   3.7014941229e+01    0.1637583    0.1472435 -87.19 0.0003291357    1.124    0.111
       318  -9.7549     36.3405    141.9575   9.1156133727e+01   4.1248807234e+01    0.2632918    0.1450405 -53.63  0.001446993    1.754    0.430
       319  -9.5262     44.4760    141.7910   8.9275373538e+01   4.0427179265e+01     0.194713    0.1741171  72.76 0.0006983888    1.224    0.183
       320  -9.0389    147.0056     29.0894   3.1339731166e+01   4.4665454799e+01    0.2090494    0.1940194  19.22  0.001178388    1.023    0.022
       321  -8.7548    189.0922     26.4521   2.3597517168e+01   3.4312540673e+01    0.2167665    0.1374515  65.04 0.0008991319    1.556    0.357
       322 -12.6921    137.9302     47.1439   3.9705485003e+01   4.4426258761e+01     0.724286    0.5697935  50.05 0.0008046578    1.303    0.233
       323 -10.3388     23.6579    124.8815   9.1849371669e+01   4.6323778094e+01    0.3431231    0.1943176  89.82  0.001384875    1.807    0.447
       324 -10.8336    110.3255     22.6978   3.6841380619e+01   5.3973536136e+01    0.2845888    0.2263594 -19.16 0.0003178702    1.204    0.170
       325 -10.4040     20.6078    118.8284   9.1759800853e+01   4.7958701041e+01    0.2748118    0.2390593  44.04  0.001235302    1.463    0.317
       326 -10.1195     24.8025    116.0272   9.0295469616e+01   4.8245497846e+01    0.2003479    0.1667981 -78.87 0.0003177068    1.112    0.101
       327 -10.3368    212.0014     22.7802   1.9650443957e+01   2.8939580126e+01    0.3435521     0.278473 -25.76 0.0009179406    1.251    0.200
       328  -8.3219    129.3132     24.2939   3.3139483905e+01   4.9489456066e+01    0.1495267   0.09909587  25.65 0.0002116399    1.595    0.373
       329  -8.7974    103.9943     23.7862   3.8883395407e+01   5.5197647428e+01    0.1816076    0.1625933  19.52            0    1.085    0.078
       330  -9.9896     99.1944     23.6523   4.0090906803e+01   5.6209349166e+01    0.3088613    0.2290359  57.80  0.001604869    1.600    0.375
       331 -10.6025      1.7591    111.9310   9.5539880838e+01   5.0883110779e+01    0.5770601    0.1979747 -76.41  0.002655048    2.422    0.587
       332  -9.5322     69.3553     21.2914   4.7986423010e+01   6.2062767521e+01    0.3664008    0.1704938 -22.81  0.001223959    2.051    0.512
       333  -9.7914    248.6304     22.4399   1.5869780183e+01   2.0215717109e+01    0.2380981    0.2050966 -57.83 0.0005899069    1.030    0.029
       334  -9.9753    164.5682     22.2875   2.5903995064e+01   4.1044994474e+01    0.3257882    0.2431167  18.43  0.001012679    1.488    0.328
       335  -9.6782     51.0212     22.7894   5.5172370795e+01   6.4647602833e+01    0.3099528    0.1835071 -36.32 0.0009757366    1.517    0.341
       336 -11.1019     30.6553    125.5081   9.0234040448e+01   4.5551683646e+01    0.4047697    0.3359075  85.33  0.001413406    1.190    0.160
       337 -11.6374     29.2820    136.7014   9.2087705217e+01   4.3130845162e+01    0.6607041    0.2581674 -61.72  0.001271024    1.969    0.492
       338 -10.7776     26.8020    130.4690   9.1850195752e+01   4.4774290764e+01    0.3581433    0.2664931  15.48  0.001233963    1.992    0.498
       339  -9.0385    143.3123     22.0383   2.9498321118e+01   4.6382441397e+01     0.196968    0.1765528 -22.58 0.0005195756    1.138    0.122
       340 -10.3538    188.4588     20.5768   2.1889907858e+01   3.5134971601e+01    0.2401627    0.2312062 -23.99 7.466949e-05    1.065    0.061
       341 -10.8666      8.8738    121.8794   9.5021965797e+01   4.8174890185e+01    0.4173416    0.2191831  28.60   0.00248058    2.500    0.600
       342 -11.1358     14.6348    116.2456   9.2891760967e+01   4.9017326188e+01    0.4562075    0.2749418 -37.34  0.001337582    2.136    0.532
       343 -11.7454      9.7973    111.6665   9.3487442926e+01   5.0405366488e+01    0.4755069    0.2764684  72.79  0.001749465    2.028    0.507
       344 -10.7535     10.3111    104.0838   9.2282716616e+01   5.2078120077e+01    0.4324174    0.2954727 -76.70  0.002843991    1.170    0.145
       345  -8.9576     53.0513    133.2778   8.5972531760e+01   4.1407775394e+01    0.2022928    0.1254802  69.58 0.0007146823    1.945    0.486
       346 -10.2642      4.1263    131.3484   9.7186874846e+01   4.6405969978e+01    0.2724641    0.1659534  55.01  0.001276222    1.809    0.447
       347  -8.8241     39.6349    129.2968   8.8605171266e+01   4.3801146345e+01    0.1811781   0.09270319 -60.77 0.0006560273    1.558    0.358
       348  -9.3125     63.3360    127.3472   8.2422172274e+01   4.1521189281e+01    0.2469262    0.1958568 -49.67 0.0007323943    1.263    0.208
       349  -9.8502     67.4810    123.8354   8.0716990821e+01   4.1796671766e+01    0.3076641    0.2485981 -75.07  0.001361918    1.129    0.115
       350  -9.0307    129.6667     19.4336   3.1203562699e+01   4.9945722429e+01    0.2501656    0.1396491  66.19  0.001104568    2.016    0.504
       351  -9.0037    117.8671     19.3429   3.3708086159e+01   5.2680533379e+01    0.1933286    0.1650903  37.53  0.001109439    1.118    0.106
       352 -10.5900     48.6100    126.7515   8.5996279164e+01   4.3424577121e+01    0.2878473    0.2175083 -79.90            0    1.176    0.150
       353 -10.6619     98.7385    125.9642   7.3252714594e+01   3.6609070351e+01    0.2631618    0.2259101 -67.94  0.000302963    1.095    0.087
       354 -11.7920     18.5097    159.8736   9.6969174064e+01   3.8995014234e+01    0.3997097    0.2498694  48.75  0.002638023    1.699    0.412
       355  -8.5729     15.0811     19.2049   6.8438917248e+01   6.9207826845e+01    0.1536368    0.1107914 -24.13 0.0006002694    1.095    0.087
       356  -9.2420    201.3094     17.9436   1.9511509463e+01   3.2156965294e+01    0.3231182    0.1946183 -68.84  0.001457124    1.989    0.497
       357  -9.0763     58.7726    125.2389   8.3187982095e+01   4.2582776100e+01    0.2288486    0.1873207 -62.74  0.001403121    1.068    0.064
       358 -10.6526    221.2752     15.5455   1.6687144786e+01   2.7455519044e+01    0.2504492    0.2231439 -59.15 0.0001980124    1.042    0.040
       359  -9.5671     56.4395    122.4819   8.3281418835e+01   4.3506417035e+01     0.231963    0.1667172 -69.84 0.0007062805    1.189    0.159
       360 -10.3831     58.2134    118.1776   8.2020574511e+01   4.4291507816e+01    0.3144676    0.2794227  89.28  0.000916946    1.164    0.141
       361  -9.8668     54.1320    116.8978   8.2844581755e+01   4.5077236701e+01    0.4044511    0.2352742 -31.25   0.00186532    2.605    0.616
       362  -8.5350      1.2070    126.0127   9.7285914042e+01   4.7788396408e+01    0.1482964   0.06762341 -73.44 0.0008245209    1.573    0.364
       363  -9.5792    230.5415    124.5887   4.4554300284e+01   9.2528201940e+00    0.2993848    0.2581426 -49.40   0.00161427    1.306    0.234
       364  -9.2144     37.5305    124.0043   8.8311954040e+01   4.5232555544e+01    0.2035943    0.1006989 -66.38  0.001034428    1.600    0.375
       365  -9.5739     82.5307    120.7146   7.6221986995e+01   4.0392881966e+01    0.3111271    0.2358942 -39.63 0.0009691696    1.395    0.283
       366  -9.8156     40.2169    120.1069   8.7010390125e+01   4.5859859244e+01    0.2426964    0.1993575  24.89  0.001262337    1.611    0.379
       367 -10.7003     46.6825    116.5264   8.4725252725e+01   4.6005971350e+01    0.3657699    0.2161006 -50.42  0.001970048    1.530    0.347
       368  -9.6144     50.0058    112.2521   8.3054336419e+01   4.6628764162e+01    0.2047317    0.1599957 -67.35 0.0002505475    1.062    0.059
       369 -10.3220     46.8071    109.1940   8.3328070849e+01   4.7689859494e+01    0.3063565    0.2172447 -77.40  0.001320721    1.356    0.262
       370 -11.7533     45.9941    103.2587   8.2377407470e+01   4.9146569436e+01    0.3756192    0.2260891 -66.98 0.0006318463    1.447    0.309
       371  -8.8418    102.4124    117.5356   7.0393362172e+01   3.7901033241e+01    0.2197891     0.146579  41.99 8.367002e-05    1.654    0.395
       372  -9.9185     98.7898    117.4756   7.1306916334e+01   3.8536461206e+01    0.2520233      0.21882 -65.60 0.0003840865    1.097    0.088
       373  -9.0572     98.5665    113.5438   7.0425846779e+01   3.9468145683e+01     0.220082    0.1893544 -49.62  9.26502e-05    1.058    0.054
       374 -10.0112     67.8304    117.6407   7.9399399203e+01   4.3188924035e+01    0.3053938    0.1702151  33.39  0.001440208    2.181    0.542
       375  -9.5214     31.0254    117.2370   8.8893661621e+01   4.7414667843e+01    0.2924522    0.1421418 -74.14  0.001451053    1.837    0.456
       376  -9.3529     79.7808    115.1694   7.5730339512e+01   4.2083236454e+01    0.2035998    0.1692142 -69.91 0.0003663086    1.137    0.120
       377  -8.7019     37.6204    115.7008   8.6943155069e+01   4.7138296793e+01    0.1281921   0.08279169 -40.45 0.0007023599    1.764    0.433
       378  -8.3311    116.9768    112.9803   6.5567640536e+01   3.6266034921e+01    0.1802973    0.1668467 -49.28 0.0004045209    1.004    0.004
       379  -8.4190    103.2725    113.6936   6.9243072130e+01   3.8620056962e+01    0.1431451    0.1115152 -81.64 0.0002130176    1.542    0.352
       380  -9.7732     84.1551    113.0228   7.4088936876e+01   4.1919530973e+01     0.206305    0.1974212 -77.97 0.0003396659    1.112    0.101
       381  -9.8238     72.6318    112.5400   7.7050284614e+01   4.3716760013e+01    0.3072468    0.2183627  11.84  0.001556586    2.089    0.521
       382 -10.6638     62.2424    111.9727   7.9716182308e+01   4.5230511846e+01    0.2767059    0.2472713  11.44 0.0008510513    1.426    0.299
       383  -9.3360     16.5781    104.7294   9.0710704247e+01   5.1480469226e+01    0.3482192     0.144903 -75.44  0.001373412    2.226    0.551
       384 -10.9525     21.3852    104.8476   8.9438254216e+01   5.1080291705e+01    0.3137915    0.2245155 -71.96 0.0005589881    1.106    0.096
       385 -11.2447     22.4742    110.0619   8.9982099838e+01   4.9803514556e+01    0.5266042    0.2979035  21.87  0.002172007    2.476    0.596
       386 -10.2158     28.7738    109.5541   8.8237175398e+01   4.9381761667e+01    0.3270665    0.1470639 -61.42 0.0006388178    1.660    0.398
       387  -9.6384     34.5319    111.4539   8.7030971149e+01   4.8416645762e+01    0.2058636    0.1474204 -75.88 0.0004927713    1.208    0.172
       388 -10.9047     34.8496    105.7559   8.5938412765e+01   4.9696965228e+01    0.6801525    0.3108985 -80.51  0.001415477    3.103    0.678
       389 -10.8229    120.0485    107.8360   6.3446378895e+01   3.6802660310e+01    0.2676766    0.2507697  52.32  0.001459487    1.158    0.137
       390  -8.1035    152.2689    106.3331   5.5254984059e+01   3.0321604293e+01     0.157269    0.1221604  -5.63  0.000248314    1.588    0.370
       391  -9.9169    131.6278    104.4423   5.9632599972e+01   3.5189358820e+01    0.2893531    0.2620347  33.35 0.0009181606    1.184    0.156
       392 -12.1081     80.6733    103.3107   7.2719420167e+01   4.4670691566e+01    0.3171273    0.2723912 -23.78 0.0004361624    1.309    0.236
       393  -9.8290     55.3427    102.0128   7.9492403010e+01   4.8376991354e+01    0.3977784    0.2191591  64.45  0.001661254    3.206    0.688
       394  -8.9248      1.6404    104.8734   9.4666562561e+01   5.2465095884e+01     0.167794    0.1116792 -72.82 0.0006738651    1.084    0.078
       395 -10.6611    107.7281    103.1473   6.5368143223e+01   4.0174579265e+01    0.3229881    0.2392338  36.62 0.0006343224    1.515    0.340
       396  -8.8587     94.3193    102.3139   6.8731436720e+01   4.2721463547e+01    0.1465402    0.1095896 -21.02 0.0004344203    1.651    0.394
