#   1 NUMBER                 Running object number                                     
#   2 MAG_AUTO               Kron-like elliptical aperture magnitude                    [mag]
#   3 X_IMAGE                Object position along x                                    [pixel]
#   4 Y_IMAGE                Object position along y                                    [pixel]
#   5 X_WORLD                Barycenter position along world x axis                     [deg]
#   6 Y_WORLD                Barycenter position along world y axis                     [deg]
#   7 A_WORLD                Profile RMS along major axis (world units)                 [deg]
#   8 B_WORLD                Profile RMS along minor axis (world units)                 [deg]
#   9 THETA_WORLD            Position angle (CCW/world-x)                               [deg]
#  10 FWHM_WORLD             FWHM assuming a gaussian core                              [deg]
#  11 ELONGATION             A_IMAGE/B_IMAGE                                           
#  12 ELLIPTICITY            1 - B_IMAGE/A_IMAGE                                       
         1 -12.8796    187.9511     37.0157   5.5380492692e+01   3.3541235472e+01     1.514049     1.075113  19.64  0.004954983    1.778    0.438
         2 -11.6996    208.7822      4.5049   4.3070841938e+01   3.1822791030e+01    0.7812412    0.5555272 -39.31  0.003651907    1.333    0.250
         3 -10.3390    213.0072      7.5100   4.3532775165e+01   3.0457898835e+01     0.417953    0.2567253  89.94  0.001695494    1.705    0.413
         4 -10.7501    215.5108      3.5146   4.2193471214e+01   3.0222530713e+01    0.5001853    0.3694048 -45.04  0.001836668    1.259    0.206
         5 -10.1793    178.9494    217.1405   9.9562375362e+01   6.0387943071e+00    0.2621178    0.1667647  33.75  0.001582687    1.318    0.241
         6 -10.8997    140.0953    247.2715   1.1012913506e+02   7.9607370221e+00    0.4925023    0.2473208 -48.85   0.00300885    2.654    0.623
         7  -9.5493     81.9788    195.5219   1.1549796093e+02   2.4764823438e+01    0.3104137    0.2778238 -41.91  0.002166731    1.568    0.362
         8  -9.9631    113.6740    195.2929   1.0907718889e+02   2.0124744530e+01    0.3200454    0.2254998  -9.77   0.00156678    3.010    0.668
         9 -10.2248    185.5015    214.8633   9.8050882947e+01   5.2845272504e+00    0.3799411    0.1803267  30.38   0.00186392    2.127    0.530
        10  -9.1847     99.3853    180.9306   1.1020230237e+02   2.5061497080e+01    0.2249686    0.1708595  42.14 0.0005722382    1.276    0.216
        11  -9.8945    104.9845    209.8074   1.1249454403e+02   1.8871469132e+01    0.3001359    0.1474029 -75.53  0.001455423    2.908    0.656
        12  -8.2304    204.4926    176.9576   8.8198707046e+01   7.3529137388e+00    0.1876354    0.1264337 -33.51  0.001028904    1.583    0.368
        13  -9.3193    126.9519    174.4921   1.0336759760e+02   2.1832085658e+01    0.2105345    0.1198593  42.18  0.001035936    1.600    0.375
        14  -8.9400    118.4975    173.4905   1.0503881606e+02   2.3461691891e+01    0.1320681    0.1177936  59.99 0.0002259712    1.007    0.007
        15  -9.9861    103.7811    172.2301   1.0807071429e+02   2.6113708950e+01    0.3126631     0.182748  58.48  0.001322642    1.746    0.427
        16  -8.4575    163.5221    169.0089   9.4710091000e+01   1.6230644936e+01    0.1953197    0.1360999 -44.57  0.001026738    1.576    0.365
        17 -10.5369     70.1746    159.5402   1.1396388650e+02   3.3714754181e+01    0.2928416    0.1762517  70.58  0.001528163    1.765    0.433
        18 -10.9767     97.9897    152.9557   1.0649220727e+02   3.1068750221e+01    0.5556964    0.4038708 -28.86  0.002837484    2.057    0.514
        19  -9.6391    114.3863    209.2608   1.1062575244e+02   1.7555663654e+01    0.1981124    0.1503094 -86.18   0.00128428    1.491    0.329
        20  -8.8578    113.3337    151.5274   1.0262825575e+02   2.8823454841e+01    0.2693806    0.1945907  85.18 0.0007078722    1.671    0.401
        21  -9.3462    134.2527    148.2631   9.7158410989e+01   2.5717583853e+01    0.3580239    0.1597893 -55.34  0.001398963    2.538    0.606
        22  -9.9234    134.0000    144.0027   9.6378478545e+01   2.6638198429e+01    0.4284431    0.2045624 -56.18  0.001713084    2.383    0.580
        23  -8.5297    115.8662    144.8252   1.0081934203e+02   2.9807153079e+01    0.2019873    0.1561656  68.42 0.0008091229    1.373    0.272
        24 -10.5311    108.8034    138.9082   1.0142774495e+02   3.2330115272e+01    0.5274042    0.2617544 -43.06  0.002175109    2.380    0.580
        25  -9.4676     80.8190    140.6263   1.0871676466e+02   3.6427601788e+01    0.2958371    0.1645748  42.04  0.001443987    1.790    0.441
        26 -10.7541     97.1202    138.6169   1.0428113056e+02   3.4361689640e+01    0.2646453    0.2526306 -64.26  0.000511582    1.137    0.121
        27  -9.6544    105.9225    130.8942   1.0059744844e+02   3.4604861403e+01    0.3501696    0.2898914 -82.17  0.001221335    1.244    0.196
        28  -9.6039    115.3686    129.7597   9.7974929450e+01   3.3168036361e+01    0.2993676    0.2499148 -34.23 0.0006696706    1.367    0.269
        29  -8.9513    160.5049    128.0651   8.6855854530e+01   2.4484603268e+01    0.2280554    0.1466462 -42.27  0.000896931    1.584    0.369
        30 -10.9866    107.3103    203.5367   1.1134110869e+02   1.9623300066e+01    0.3878856    0.2492424  79.46  0.001528862    1.885    0.470
        31  -9.5522    103.2683    125.6033   1.0021264455e+02   3.6252743185e+01    0.2716834     0.244518 -10.71 0.0005314673    1.379    0.275
        32  -8.7872    135.3454    124.1221   9.1791819600e+01   3.0526058454e+01    0.3048998     0.133181 -40.31  0.001104617    2.538    0.606
        33  -9.3349    120.0455    124.2159   9.5605504223e+01   3.3510738798e+01     0.296496    0.1787786 -27.87  0.001165836    2.590    0.614
        34  -8.8348    110.7760    118.9273   9.6818073637e+01   3.6413241995e+01    0.2137381    0.1965912 -31.54 0.0005124744    1.202    0.168
        35  -9.2504     66.2868    114.9583   1.0822474911e+02   4.4402844107e+01    0.1962663    0.1624833 -70.81 0.0006457508    1.072    0.067
        36  -8.5677    167.9145    112.7681   8.1476920031e+01   2.5822944768e+01    0.2976479    0.2008731 -67.03  0.001227567    2.163    0.538
        37  -9.9634    193.6447    196.0428   9.3595468900e+01   6.5149398839e+00    0.8301746     0.436762 -61.64  0.002631727    7.087    0.859
        38  -9.7611    120.3821    111.7364   9.2626173486e+01   3.6181267431e+01    0.2799674    0.1838171  56.48  0.001068399    1.685    0.407
        39  -8.6200    205.7090    110.1407   7.3233460926e+01   1.7770843196e+01    0.2488719    0.2072873  62.96 0.0006338775    1.381    0.276
        40 -10.1223     95.7541    200.6728   1.1329818426e+02   2.1851030920e+01    0.2855516    0.2199781  47.75  0.001281269    1.163    0.140
        41  -8.4317    134.5060    105.0298   8.7308241287e+01   3.4734663457e+01    0.2417378    0.1481972 -44.51   0.00103917    1.609    0.378
        42  -8.3694    159.6264    196.7879   1.0015345688e+02   1.2262443672e+01    0.1503024    0.1218768 -63.37 0.0002499992    1.546    0.353
        43 -10.5897    165.4686     65.9790   6.8612061191e+01   3.4998346188e+01    0.5184177    0.3576809 -76.95 0.0007775936    2.133    0.531
        44 -11.5575    173.2272     51.3592   6.2419189237e+01   3.5358927472e+01    0.6083102     0.486081 -24.71  0.001009947    1.260    0.207
        45 -19.5716     22.5787    148.3802   1.2385456611e+02   4.1472830950e+01     18.04587     2.771225 -75.78   0.05283842    6.240    0.840
        46 -11.7653    192.2238     31.0049   5.2887945738e+01   3.3191706830e+01    0.6778743    0.5471531  59.67  0.001338227    1.242    0.195
        47  -8.0509    168.6830    234.7426   1.0375698841e+02   5.3264547516e+00    0.1246686    0.1071872 -58.05 0.0003949125    1.580    0.367
        48  -9.4902    168.6788    224.3181   1.0240458258e+02   6.7064798104e+00    0.2146432    0.1383819 -13.86  0.001130504    2.515    0.602
