#   1 NUMBER                 Running object number                                     
#   2 MAG_AUTO               Kron-like elliptical aperture magnitude                    [mag]
#   3 X_IMAGE                Object position along x                                    [pixel]
#   4 Y_IMAGE                Object position along y                                    [pixel]
#   5 X_WORLD                Barycenter position along world x axis                     [deg]
#   6 Y_WORLD                Barycenter position along world y axis                     [deg]
#   7 A_WORLD                Profile RMS along major axis (world units)                 [deg]
#   8 B_WORLD                Profile RMS along minor axis (world units)                 [deg]
#   9 THETA_WORLD            Position angle (CCW/world-x)                               [deg]
#  10 FWHM_WORLD             FWHM assuming a gaussian core                              [deg]
#  11 ELONGATION             A_IMAGE/B_IMAGE                                           
#  12 ELLIPTICITY            1 - B_IMAGE/A_IMAGE                                       
         1  99.0000    229.4366     30.6079   3.4767456616e+01   2.5645065675e+01     2.921861     1.795815  89.69   0.01693678    1.579    0.367
         2 -14.7913    178.7091     76.9549   5.2442641931e+01   3.0171078695e+01     7.298913      3.11383 -54.20   0.00142929    3.013    0.668
         3 -12.8056    249.9208     27.8346   3.2531120850e+01   2.1882431404e+01     1.477177    0.3479721 -33.87  0.005398017    4.443    0.775
         4 -14.5183    218.3920     72.8614   4.5311619844e+01   2.1966976503e+01     8.451645     3.542138 -49.96   0.03519244    2.271    0.560
         5 -10.8102      1.5189     24.1430   9.4129253944e+01   7.1233825045e+01    0.4849625    0.1587381 -54.39    0.0022262    2.938    0.660
         6 -10.4694      1.3069     18.4776   9.1974758559e+01   7.2201317928e+01    0.4253314    0.1296601 -51.70  0.001686225    3.067    0.674
         7 -11.4078    134.5187     17.8063   4.3244446926e+01   4.8946146935e+01      0.85127    0.2807353 -19.45  0.002899671    4.664    0.786
         8 -12.3382    237.2168     15.9443   3.1140485030e+01   2.5814169813e+01    0.4540061    0.2692855 -25.73  0.001819117    2.230    0.552
         9 -10.6385    144.0547     19.1509   4.2070159528e+01   4.6538739739e+01    0.4129403    0.2447852 -11.91  0.001855565    2.329    0.571
        10 -13.9656    226.2702    104.6660   5.1393306181e+01   1.5014901053e+01     6.954009     2.308666 -53.49   0.01182216    4.903    0.796
        11 -14.7763    238.1873     51.9831   3.8431705948e+01   2.0999319926e+01      5.91684    0.8642381  57.15   0.01793122    6.351    0.843
        12  -7.9198    233.1078     11.2638   3.0504256425e+01   2.7176520047e+01    0.3935016    0.2462735  -0.98  0.001788198    4.393    0.772
        13  -9.0968    197.7530     12.5305   3.3676946140e+01   3.4635399472e+01     0.365319    0.1693174 -82.38  0.001438258    2.545    0.607
        14  -9.7791    125.1473     24.1374   4.7045315534e+01   5.0495133500e+01    0.1835099    0.1541078 -79.06   0.00055222    1.337    0.252
        15  -9.1391    239.8477      7.3252   2.9271596119e+01   2.6253522066e+01    0.1507929    0.1299273 -56.66  0.000558873    1.274    0.215
        16 -11.1773    216.8383      4.9931   3.0406065686e+01   3.1243684441e+01    0.2612222    0.1826838 -32.70 0.0006672615    1.634    0.388
        17  -8.0479    233.7292      5.2482   2.9268764854e+01   2.7705761700e+01    0.1566281   0.09982677 -18.05 0.0008947523    2.474    0.596
        18  -9.3543    182.5150      3.1160   3.2888636637e+01   3.9041692704e+01    0.4072443      0.19776 -70.21  0.001943317    2.301    0.565
        19  -9.8219    118.7160      3.5932   4.1360928912e+01   5.3928624459e+01    0.2820167    0.1999264   6.72  0.001647126    1.756    0.431
        20  -9.5666    113.8712      3.3330   4.2147659604e+01   5.5063187233e+01     0.200372    0.1724257 -42.22 0.0008233477    1.356    0.262
        21  -9.2717    124.0030      2.4777   4.0087083851e+01   5.2791835649e+01    0.2000699    0.1065037  66.02 0.0006095666    1.582    0.368
        22  -8.1231    207.4353      1.4382   3.0359404786e+01   3.3627889663e+01    0.1174221   0.09570914 -83.09 0.0001925999    1.057    0.054
        23  -9.9691    235.7009    179.6686   6.5671469679e+01   6.6712744991e-02    0.2414993    0.2204278 -39.81  0.000625345    1.287    0.223
        24  -8.1226    194.5938    250.7590   8.5994256854e+01  -5.4458934231e+00    0.1275903    0.0790895   8.81 0.0006920944    1.691    0.409
        25  -8.5975     36.9657    180.4916   1.1208013865e+02   3.2159664043e+01    0.1897334    0.1562048 -82.86 0.0003353988    1.070    0.065
        26 -11.5351      2.3492    170.1911   1.1969791791e+02   3.7843783128e+01    0.7607039    0.2438147 -77.59  0.003125325    2.580    0.612
        27  -8.4609    172.9563    174.8901   7.7045368000e+01   1.1649017579e+01    0.2221815    0.1836641  84.06 0.0007561759    1.687    0.407
        28 -13.0024    178.2343     90.6841   5.6108282031e+01   2.7836310926e+01     2.548775     1.151372  42.28  0.009334092    2.726    0.633
        29  -9.6636    249.5147    248.8259   7.5649970540e+01  -1.2046727300e+01    0.2363431    0.1413384  -0.99   0.00148672    1.530    0.346
        30 -13.5174    230.3797    101.2958   5.0050044976e+01   1.4795488571e+01     2.937651     1.649729  82.18  0.004376987    3.388    0.705
        31  -9.1366    193.6195    234.2661   8.3578627516e+01  -2.7723164580e+00    0.2497041    0.2154603  76.99 0.0009438146    1.951    0.488
        32 -10.2413    249.3160    157.4657   5.9028622420e+01   1.7529291052e+00    0.3455203    0.2092527 -44.87  0.001849529    1.517    0.341
        33 -10.7372    190.3452    152.8625   6.8635123274e+01   1.2900620343e+01    0.5761929    0.4228261 -63.51  0.002742434    1.707    0.414
        34  -8.7066    177.3174    155.3323   7.1930109172e+01   1.4923630704e+01    0.1561823    0.1167111  -7.02 0.0002881385    1.690    0.408
        35  -9.9267    134.0356    145.6579   8.0039622637e+01   2.5740290188e+01     1.091823    0.3181324 -55.88  0.002615378    5.216    0.808
        36  -9.7379    174.2154    149.3952   7.1285606708e+01   1.6794956255e+01    0.3558211    0.1925509  28.87  0.001275769    2.450    0.592
        37 -10.6853    180.0518    145.8937   6.9229911230e+01   1.6363600488e+01    0.4109788    0.2876213 -54.91  0.000478429    1.532    0.347
        38  -9.2998    222.7960    145.0181   6.0801200386e+01   8.3625925064e+00    0.2048136    0.1996076   9.91 0.0003547744    1.153    0.133
        39  -9.9391    192.1888    143.8775   6.6259225798e+01   1.4360270042e+01    0.3611808    0.2324475 -35.06 0.0008524767    1.508    0.337
        40  -9.5305    185.3262    143.0806   6.7480212123e+01   1.5888852254e+01    0.2802275    0.2127541  23.60 0.0007582715    1.536    0.349
        41 -10.6701    190.7829    139.1231   6.5462717775e+01   1.5601549057e+01    0.5116676    0.3137822  25.64  0.002122039    2.260    0.557
        42  -9.0726    158.4800    143.1896   7.3441737472e+01   2.1342175757e+01    0.2930783    0.2251579  43.90  0.001183397    1.344    0.256
        43  -7.5715    123.4871    142.9549   8.2202913149e+01   2.8461274757e+01    0.2068136    0.1530152 -52.00 6.962554e-05    1.329    0.248
        44 -10.7253    155.8824    137.2286   7.2657102927e+01   2.3204663608e+01    0.6016194    0.4149019  41.71    0.0027115    1.499    0.333
        45 -13.6942    232.7919     67.1706   4.2256930233e+01   1.9862697870e+01     1.450506     0.931744  77.39  0.004741304    1.722    0.419
        46 -10.6443    202.9716    132.7389   6.1646261473e+01   1.4435132163e+01    0.4088176    0.3158947 -50.79  0.002118024    1.263    0.208
        47 -10.3759    198.1000    127.7959   6.1425785551e+01   1.6380133878e+01    0.4085534    0.2485418 -54.02  0.001597352    1.759    0.432
        48 -10.4699    190.5140    131.8570   6.3840022620e+01   1.7123395309e+01     0.336814    0.2963785  84.65  0.001786219    1.342    0.255
        49 -10.8135    225.2440    129.3171   5.6993163261e+01   1.0797400908e+01     0.398974    0.2908911 -53.80  0.002127441    1.379    0.275
        50  -9.1116    135.2438    120.7563   7.3726595489e+01   3.1271367784e+01    0.5311707    0.1803048 -49.73  0.001409986    3.064    0.674
        51 -10.8200    160.9123    128.4538   6.9367288307e+01   2.4068148951e+01    0.4940517    0.3191369 -45.48  0.002068509    1.494    0.331
        52  -7.6851     92.6414    128.7168   8.7724071713e+01   3.7672319805e+01    0.1572931     0.120331 -14.49 0.0007018297    1.672    0.402
        53  -9.4869    136.2092    128.6313   7.5450432709e+01   2.9270415111e+01    0.5852569    0.1479873 -45.95  0.001568803    3.851    0.740
        54  -9.8164    208.7769    126.7375   5.9225326777e+01   1.4439423302e+01    0.2699766    0.2468449  37.09  0.001546718    1.215    0.177
        55 -10.2167    214.4279    121.1910   5.6987234051e+01   1.4365645075e+01    0.3455811    0.1969096 -50.89  0.001515579    1.736    0.424
        56  -8.9810    177.9798    121.9340   6.4028193222e+01   2.1775693871e+01    0.2285634    0.2198227 -51.89 0.0004033198    1.025    0.024
        57 -11.7539    204.8484    110.4032   5.6140633759e+01   1.8321195997e+01    0.8353562    0.5946751  -2.20  0.003755748    2.241    0.554
        58 -10.2926    213.7408    228.2753   7.8666951306e+01  -4.6865276593e+00    0.2141546    0.1811593   0.68 0.0003279529    1.074    0.069
        59 -10.9231    167.6729    114.0513   6.4266773431e+01   2.5645612116e+01    0.5247068    0.4305692 -34.43  0.002615469    1.223    0.182
        60  -9.6239    135.6969     99.0459   6.7816549068e+01   3.5911601832e+01     0.387975    0.3138155  76.07  0.001529868    1.479    0.324
        61  -9.5982    135.0000    111.0482   7.1261237212e+01   3.3490738743e+01    0.5797434    0.1948574 -42.80  0.001790611    2.969    0.663
        62  -9.8693    134.3281    105.8443   7.0037274062e+01   3.4770292119e+01    0.6751055    0.2063449 -45.45  0.002010327    3.230    0.690
        63  -8.3929     72.1887    112.0055   9.0251338310e+01   4.5134667278e+01    0.1955084    0.1795938 -49.18  0.001067216    1.019    0.019
        64  -8.0768    108.9679    110.9878   7.8444224094e+01   3.8918521315e+01    0.1809934    0.1787727   3.40 0.0004391427    1.030    0.030
        65 -10.6715    125.6945    103.9397   7.1804627846e+01   3.7053453888e+01    0.5749236    0.4138525 -87.77  0.002377695    2.140    0.533
        66  -8.3640    143.1518    106.2794   6.7923135419e+01   3.2730932633e+01     0.251843    0.1955967  26.08  0.001083573    1.507    0.337
        67  -9.5711    150.0313    103.0552   6.5395857063e+01   3.1864704851e+01    0.3243262    0.2806481   9.63 0.0006706484    1.365    0.268
        68  -8.8329      3.2690    104.6535   1.1257257145e+02   5.3932395514e+01    0.1244675   0.08730157  77.47 0.0002365574    1.616    0.381
        69  -9.1012    181.7738    228.2487   8.4980834481e+01  -1.9836395571e-02    0.2426394    0.1569504  40.48  0.001033298    1.556    0.357
        70 -10.2961    144.1612     93.4956   6.4172895626e+01   3.5137765868e+01    0.3593976    0.2964972 -56.78 0.0005895627    1.255    0.203
        71 -10.3631     90.0870     93.7797   7.9518122081e+01   4.6420603701e+01    0.2504777    0.2313456 -24.05 0.0002246516    1.048    0.046
        72  -7.7035    101.6600     93.7073   7.5843827169e+01   4.4241984885e+01    0.1556474    0.1193989  -1.90 0.0007027341    1.651    0.394
        73 -11.4717    159.9669     89.1627   5.9391448326e+01   3.2337630911e+01    0.3646634    0.2993425 -24.69 0.0004386166    1.354    0.262
        74  -9.4986      2.3752     90.8128   1.1076811854e+02   5.7290316689e+01    0.1985188   0.08387171 -58.42 0.0009574703    1.750    0.428
        75 -11.3152    130.6376     82.8397   6.4455893832e+01   4.0303099791e+01    0.6547065    0.2423016  39.72  0.002036467    3.346    0.701
        76 -10.3455    149.2646     79.6990   5.9087668350e+01   3.6594996956e+01    0.4279733    0.2499203 -41.50  0.001848972    1.704    0.413
        77 -11.0558    142.6589     79.2215   6.0455743287e+01   3.8224318028e+01    0.4222728     0.314343  26.89  0.001977778    1.644    0.392
        78 -12.8143    248.3022     58.6680   3.8808500364e+01   1.8058277286e+01    0.9512131    0.2603803 -42.63 0.0004525821    2.784    0.641
        79 -10.6475    138.1469     72.0181   5.9385411876e+01   4.0572409951e+01    0.2924922    0.2574124 -57.03  0.000933121    1.182    0.154
        80  -9.0373    250.4506    171.2423   6.1570211864e+01  -7.1578216230e-01    0.1792952    0.1050954 -45.01 0.0009397037    1.649    0.394
        81 -11.6090     67.1680    144.0371   9.8568722487e+01   3.7749619777e+01     1.724984    0.8161609  38.55  0.006155373    2.172    0.540
        82 -13.3065     33.3579    155.1098   1.1008761505e+02   3.8925996995e+01      1.73543     1.108964  11.30  0.001941451    2.102    0.524
        83 -12.9412     44.9632    150.1732   1.0611563939e+02   3.8958707264e+01     0.972611    0.9385254 -29.44  0.003059106    1.193    0.162
        84  -8.4524    124.7713     58.9407   5.8560430102e+01   4.5881017941e+01    0.1853039    0.1210674 -33.79 0.0004264562    1.608    0.378
        85 -10.7523      5.5644     55.3638   1.0201557341e+02   6.5037920401e+01    0.3354671    0.1705551 -23.88  0.001770957    1.985    0.496
        86  -9.9036    176.1385     52.7135   4.6457086729e+01   3.4632768628e+01    0.4527838    0.2108313 -51.13  0.001857745    2.317    0.568
        87  -9.4298    176.1666     48.1773   4.5244097733e+01   3.5277209938e+01    0.3906411    0.2188023 -58.57  0.001757449    2.018    0.504
        88  -7.8689     71.0000     54.0459   7.3262550692e+01   5.7732081046e+01    0.2118585   0.07493463 -41.10 0.0004308872    2.808    0.644
        89 -11.3710      2.5085     39.9724   9.9098127543e+01   6.8288197189e+01     0.420194    0.2820877 -54.45  0.002708824    1.384    0.278
        90 -12.1069    203.9981     37.0782   3.8768715798e+01   3.0328088396e+01    0.4423018    0.2059006 -39.55  0.001327627    2.001    0.500
        91  -8.3305    201.3724     30.7925   3.7581753088e+01   3.1717497024e+01    0.1773752    0.1172275 -41.35 0.0003220227    1.477    0.323
        92 -10.0479    191.2450     40.7936   4.1213449744e+01   3.2749631220e+01    0.2817763    0.2404356 -75.63 0.0006146441    1.045    0.043
        93 -11.5432    121.6970     36.9941   5.2079999404e+01   4.9774810660e+01    0.5283427    0.3820169 -23.58 0.0003402027    1.544    0.352
        94  -8.5483    190.0504     35.6902   4.0095088461e+01   3.3692324947e+01    0.1758598    0.1556322 -78.47 0.0007384169    1.031    0.030
        95 -12.4389    200.8466     79.8327   4.9478729325e+01   2.4639080239e+01     1.472433    0.8716237  27.13  0.005078706    3.546    0.718
        96  -9.1225    182.9710    223.7043   8.3978526721e+01   5.7799463928e-01    0.2145849    0.1857109 -38.76 0.0002496777    1.295    0.228
        97  -8.1698    245.6813    220.3425   7.1502205353e+01  -7.7257900672e+00    0.1034328   0.09608217 -49.11 0.0007049414    1.718    0.418
        98  -9.1746    158.7236     23.9244   4.1215289122e+01   4.2515414960e+01    0.2626459     0.235688  47.49 0.0009610176    1.220    0.180
        99  -8.8263    183.8579    219.1824   8.3026902370e+01   1.2302072895e+00     0.183655    0.1680996  17.24 0.0003194188    1.128    0.114
       100  -8.2077    115.7291     22.3234   4.8391665420e+01   5.2879490858e+01    0.1262174   0.09910452 -69.31 0.0003015703    1.572    0.364
       101  -9.9822    150.5816    213.0129   8.9135434967e+01   7.7664485041e+00    0.2389837    0.2282953 -17.08 0.0004257231    1.093    0.085
       102  -9.4701    188.8490     20.3398   3.6445097564e+01   3.5811666999e+01    0.2127278    0.1743327 -32.26 0.0007717948    1.409    0.290
       103  -8.7921    231.7998     19.7291   3.2313238483e+01   2.6477297277e+01     0.187355    0.1197372 -41.63 0.0006834428    1.479    0.324
       104  -9.5876     37.7324    213.2267   1.1500339728e+02   2.4310408809e+01    0.3140996    0.1268764  54.56  0.001313817    2.392    0.582
       105  -9.1353     20.9822    211.4837   1.1849700719e+02   2.6498659816e+01     0.178542    0.1118069  36.62  0.001043082    1.622    0.383
       106  -8.2055    167.3620     16.4860   3.7988448934e+01   4.1258021249e+01    0.1247113    0.1111431  88.35 0.0001173758    1.046    0.044
       107  -9.9949    246.9520    209.5070   6.9354547253e+01  -6.2889765013e+00    0.3400582    0.2286168  49.54  0.001464438    2.388    0.581
       108  -8.1799    102.5265    208.5174   9.9530177053e+01   1.6559706205e+01    0.1386749    0.1287187  55.12  0.000113632    1.013    0.013
       109  -8.1305    221.8219    205.8173   7.3154345583e+01  -2.2496911806e+00    0.1569571    0.1454985 -22.75  0.000336965    1.279    0.218
       110  -9.7807    179.6877     24.0044   3.8426225504e+01   3.7528178505e+01    0.5356498    0.3250923  74.12  0.002852261    1.505    0.336
       111  -9.8026    246.4751    202.5195   6.8162559302e+01  -5.1636294548e+00    0.2072266    0.1778821 -21.49   0.00063842    1.205    0.170
       112 -10.0660    239.4506    198.8436   6.8687707763e+01  -3.6330483441e+00    0.4999485    0.2232318  46.76  0.002177807    3.293    0.696
       113  -9.0748    194.4284    198.2284   7.7073673294e+01   3.3170303785e+00    0.2412693    0.1897547 -68.78  0.001053699    1.918    0.479
       114  -9.8090    190.8784    191.3096   7.6481060586e+01   5.2007320805e+00    0.6257487    0.3729935 -67.37  0.002272573    3.834    0.739
       115  -8.6691    173.1880    198.7955   8.1650537463e+01   6.7654259000e+00    0.1910938    0.1846113   6.24  0.000327116    1.107    0.097
       116  -9.3427     34.7877    196.0830   1.1415711586e+02   2.8616257172e+01    0.1961877    0.1790967  50.49            0    1.219    0.180
       117  -7.6930    159.3355    195.6858   8.4141287578e+01   9.7828749898e+00     0.142666    0.1145217  72.11 0.0007046575    1.690    0.408
       118  -7.8267    200.7191    182.3087   7.2710595080e+01   5.2331226985e+00    0.1279147     0.112855 -76.17 0.0002233311    1.562    0.360
