#   1 NUMBER                 Running object number                                     
#   2 MAG_AUTO               Kron-like elliptical aperture magnitude                    [mag]
#   3 X_IMAGE                Object position along x                                    [pixel]
#   4 Y_IMAGE                Object position along y                                    [pixel]
#   5 X_WORLD                Barycenter position along world x axis                     [deg]
#   6 Y_WORLD                Barycenter position along world y axis                     [deg]
#   7 A_WORLD                Profile RMS along major axis (world units)                 [deg]
#   8 B_WORLD                Profile RMS along minor axis (world units)                 [deg]
#   9 THETA_WORLD            Position angle (CCW/world-x)                               [deg]
#  10 FWHM_WORLD             FWHM assuming a gaussian core                              [deg]
#  11 ELONGATION             A_IMAGE/B_IMAGE                                           
#  12 ELLIPTICITY            1 - B_IMAGE/A_IMAGE                                       
         1  -7.8712    112.5910     16.5413   4.6562748257e+01   5.4014206126e+01    0.1272396    0.1143386  59.19 -1.674294e-05    1.076    0.071
         2  -8.5582     55.5793     10.0300   6.0465355195e+01   6.6363748392e+01    0.1977932    0.1622853  52.13 0.0006995153    1.505    0.335
         3  -8.1884     91.0116      9.0246   4.8834768115e+01   5.9492307821e+01    0.1836205    0.1491389 -70.14 0.0006923985    1.700    0.412
         4  -7.5499    101.6232      8.2747   4.6002096935e+01   5.7237145410e+01    0.1230787   0.09429398 -84.12 0.0007002348    1.696    0.410
         5  -8.4869     33.6443      5.3242   6.7637710582e+01   7.0375238582e+01    0.2107961     0.165537 -47.01  0.001358438    2.130    0.531
         6  -8.3714     79.1550      3.9456   4.9938738326e+01   6.2413468819e+01    0.1688631    0.1625811 -55.80 0.0008457255    1.359    0.264
         7  -7.6605     44.6599      3.2908   6.1601180385e+01   6.8892297462e+01   0.09976554   0.09465935  60.33 0.0004028067    1.647    0.393
         8  -7.6152     15.7014      3.3069   7.6111173972e+01   7.2914670176e+01   0.09372856   0.08570056   6.87 0.0003411822    1.592    0.372
         9  -8.3805     62.3236      1.4915   5.4030905523e+01   6.5936674177e+01    0.2027029    0.1072425  55.52 0.0003976903    1.870    0.465
        10  -9.3517    210.9652    246.5407   8.1344748734e+01  -6.5267748217e+00    0.2510821    0.1716035 -50.48 0.0009210638    2.186    0.543
        11  -8.7276    249.0127    248.9420   7.4821157403e+01  -1.1451606584e+01    0.3483745    0.1414954 -23.78  0.001716781    2.571    0.611
        12  -9.5371    248.5323    242.2690   7.3811535581e+01  -1.0535370182e+01    0.3897626    0.1899666 -37.63  0.001460163    2.046    0.511
        13  -9.1168    247.9849    234.8075   7.2659422136e+01  -9.4763695618e+00     0.246058    0.2071178 -23.46  0.001304869    1.419    0.295
        14  -9.1669    232.7769    248.1720   7.7559974934e+01  -9.4798021039e+00    0.2869411    0.1709583 -37.44  0.001602732    1.805    0.446
        15  -8.2585    156.1852    248.1538   9.2585568498e+01   8.7870380453e-01    0.1639455    0.1405257  48.50 0.0004813865    1.338    0.253
        16  -8.9128    224.3357    246.3223   7.8800796155e+01  -8.1994640996e+00    0.2316214    0.1500655  -8.16 0.0009178167    1.409    0.290
        17  -9.7438    223.5167    242.9822   7.8408521795e+01  -7.6313454314e+00     0.348051    0.2002743 -43.98  0.001630405    2.146    0.534
        18  -9.1970    120.1870    245.6110   9.9875761660e+01   6.6263774098e+00     0.369581    0.2268136  65.09  0.001804253    2.331    0.571
        19  -9.0216    146.8803    245.8115   9.4211703594e+01   2.6460918679e+00    0.2411936    0.2004043  68.85  0.000920871    1.599    0.375
        20  -8.1467     67.4965    244.9731   1.1098401633e+02   1.4067769440e+01    0.1702642    0.1166508 -73.65  0.001023896    1.564    0.361
        21  -8.1807     10.0000    244.9070   1.2231652038e+02   2.0565851678e+01    0.1707691   0.05483478 -78.77 0.0007983231    2.914    0.657
        22  -8.6871    202.0005    243.3037   8.2556098232e+01  -4.8595396728e+00     0.238169    0.1637621 -45.20 0.0008108595    1.817    0.450
        23  -8.6490    169.0566    243.5423   8.9234054661e+01  -2.3890710736e-01    0.1840123    0.1758249  15.70 0.0005378831    1.240    0.193
        24  -8.2359    139.3781    244.1880   9.5582563652e+01   4.0445703745e+00    0.1646222    0.1257276 -71.07 0.0007243317    1.783    0.439
        25  -9.2952     77.9183    243.2688   1.0864174765e+02   1.3039904697e+01    0.3139165     0.167639  70.35  0.001471717    2.483    0.597
        26  -8.0171     34.4792    244.4655   1.1762195462e+02   1.8119692319e+01    0.1203005   0.09105872  63.53  0.000126416    1.056    0.053
        27  -8.5524     93.9949    249.4802   1.0588470888e+02   9.6475914721e+00    0.2786836    0.1535572  63.64  0.001352871    2.286    0.563
        28  -8.1563    214.0111    241.4818   7.9947229803e+01  -6.1935870214e+00    0.1905699    0.1418548 -20.23 0.0009876292    1.243    0.195
        29  -9.3654    159.8995    240.0768   9.0631474205e+01   1.6972393798e+00    0.3369118    0.2593893 -84.45  0.001503104    2.230    0.552
        30  -8.0149    153.5444    241.8204   9.2233252194e+01   2.3458439374e+00    0.1579841    0.1289473 -68.83  0.000936741    1.691    0.409
        31  -8.1231     88.1934    242.1986   1.0634691833e+02   1.1854166741e+01     0.172752    0.1303239  69.70 0.0006427768    1.372    0.271
        32  -9.1313    182.9395    240.0373   8.5839846103e+01  -1.6839144942e+00    0.3243026    0.2316986  56.03  0.001235408    2.155    0.536
        33  -8.2544    146.4071    240.0113   9.3494934201e+01   3.7342073512e+00    0.2693443    0.1683254  73.24  0.001073288    3.844    0.740
        34  -7.9308    240.5110    240.4852   7.4917756785e+01  -9.3663294171e+00     0.154493    0.1025558 -37.70 0.0009688724    1.692    0.409
        35  -8.7411    242.1737    236.8481   7.4016881186e+01  -9.0689966432e+00    0.2629762    0.1496854  -6.20  0.001479634    1.803    0.445
        36  -8.9897    194.0577    239.6115   8.3530592287e+01  -3.1987828032e+00    0.1892604    0.1664657 -23.30 0.0004282381    1.278    0.217
        37  -9.3862    135.6335    238.9379   9.5667686798e+01   5.5537265465e+00    0.2975747    0.1788037  50.51  0.001497982    1.812    0.448
        38  -8.4204    129.3492    238.6856   9.6998745556e+01   6.5478578998e+00    0.1991302    0.1425627  61.63  0.001044828    1.710    0.415
        39  -9.3952    230.9494    236.5581   7.5977821841e+01  -7.6583034602e+00    0.3325914    0.2051502 -37.51  0.001420154    1.693    0.409
        40  -8.3108    208.9783    238.0246   8.0343911800e+01  -5.0123012826e+00    0.1611814    0.1579768  74.98 0.0006556924    1.654    0.396
        41  -8.1351     25.2228    236.4500   1.1892969117e+02   2.0739640627e+01    0.2433514   0.07919533  89.88 0.0008825053    4.403    0.773
        42 -10.1459    213.8236    232.2556   7.8450229685e+01  -4.7964033012e+00    0.4916992    0.3893285  89.91  0.002472337    3.424    0.708
        43  -8.8242    203.0869    234.7030   8.0941692226e+01  -3.6976635123e+00    0.2489213    0.1758246 -52.58   0.00111097    2.043    0.510
        44  -9.8023    175.6978    233.3025   8.6263873460e+01   4.9075498983e-01     0.478708    0.2715321 -57.75  0.002228237    2.723    0.633
        45  -7.6387     57.9849    237.0000   1.1226848657e+02   1.6878638768e+01    0.1984909   0.06289695  32.77 0.0007960997    2.899    0.655
        46  -8.5078    123.0415    234.2296   9.7781851880e+01   8.3448392839e+00    0.2380583    0.1653015  75.21  0.000818027    2.088    0.521
        47  -9.4674    108.6307    234.0884   1.0095276337e+02   1.0530520162e+01    0.3991303    0.2744455  74.28  0.001383603    1.903    0.475
        48  -8.4354     99.8199    234.5192   1.0295433299e+02   1.1734173633e+01    0.2479006    0.1665203  85.71  0.001082996    1.969    0.492
        49  -8.7577     78.6415    234.5617   1.0760852348e+02   1.4697742658e+01    0.2487016    0.1740292  80.22  0.001040609    1.573    0.364
        50  -8.3352      8.0000    235.0216   1.2219636175e+02   2.2739259364e+01    0.1761446    0.0554098 -78.73 0.0007973405    2.907    0.656
        51  -8.6828     92.4336    232.3931   1.0433887947e+02   1.3225216224e+01    0.3852661    0.2105122  88.21  0.001611464    3.110    0.678
        52  -9.2064     68.4476    232.6231   1.0962912455e+02   1.6454435161e+01    0.4402087    0.1984137  62.65  0.001829028    2.890    0.654
        53  -8.2234    194.3604    232.7546   8.2351927544e+01  -2.1562528313e+00    0.1696421    0.1432219  16.51 0.0005429266    1.118    0.106
        54  -7.9689    144.9989    233.4804   9.2851916177e+01   5.1302578605e+00     0.200183    0.1099241  42.50 0.0007943457    1.718    0.418
        55  -8.7436    140.2104    230.3137   9.3435726750e+01   6.4594127283e+00    0.3283011    0.1926675  56.07  0.001148433    2.286    0.563
        56  -8.6463    132.7865    232.6977   9.5418222733e+01   7.1526497241e+00     0.234736    0.1711786  78.80  0.001067147    2.049    0.512
        57  -9.2845    186.5489    230.7444   8.3604309393e+01  -6.9131913558e-01    0.3134788    0.2523517 -72.76  0.001457163    2.135    0.532
        58  -8.2063    157.9711    232.2948   8.9862971923e+01   3.3530459328e+00     0.190102    0.1543147  28.64 0.0005148562    1.095    0.086
        59  -8.7957    236.1077    230.7392   7.4059583039e+01  -7.4751472119e+00     0.237492    0.1687152 -30.35  0.000962786    1.366    0.268
        60  -8.4679      1.7362    230.8913   1.2318490260e+02   2.4158648028e+01    0.1931492   0.08850103  68.75  0.001056695    1.914    0.478
        61  -9.2067    246.5194    228.9732   7.1919863090e+01  -8.4998805657e+00    0.3029575    0.1695942 -36.28  0.001114746    1.707    0.414
        62  -9.9517    149.5802    226.1092   9.0733084542e+01   5.7893206847e+00    0.6115111    0.3880798 -84.50  0.002369511    3.949    0.747
        63  -9.0504      8.9022    229.2998   1.2172242986e+02   2.3834688441e+01    0.2825357   0.08441763  64.03  0.001084872    3.878    0.742
        64  -8.2316    229.6111    228.8651   7.4915498974e+01  -6.3790998921e+00    0.1570437    0.1064989 -40.02 0.0005997425    1.655    0.396
        65  -8.7962    206.0637    226.2311   7.8927662716e+01  -2.7832186592e+00    0.2759833    0.1776765 -49.80  0.001243407    2.048    0.512
        66  -8.6206    162.5242    228.0328   8.8215213102e+01   3.4161844789e+00     0.299823    0.1667529  46.61  0.001083877    2.006    0.502
        67  -8.8572    127.4643    227.0712   9.5803904573e+01   9.0625765203e+00    0.2722824    0.2077971  59.67  0.000757837    1.489    0.328
        68  -8.6222    119.9167    227.4438   9.7554810355e+01   1.0152671675e+01    0.2485975    0.1769956  79.67  0.001261084    1.978    0.494
        69  -7.8734    223.3861    227.2117   7.5781137532e+01  -5.3175364783e+00    0.1617899    0.1094424 -41.57 0.0007314683    1.686    0.407
        70  -9.5115    180.7513    224.8624   8.3825980510e+01   1.1741391285e+00    0.3275583    0.2713049 -49.76  0.001013193    1.493    0.330
        71  -7.7479     49.7418    227.1373   1.1316897498e+02   1.9954351542e+01     0.237248   0.09902071  62.78 0.0009684718    2.939    0.660
        72  -7.9757    200.1085    226.1801   8.0096305957e+01  -1.9222474285e+00    0.1585275     0.151946   8.25 0.0004951061    1.344    0.256
        73  -9.0961     94.5571    224.5885   1.0293212511e+02   1.4538616104e+01    0.4728765    0.2222735  59.02  0.001845779    2.981    0.665
        74  -8.9344    104.6891    223.6633   1.0050371245e+02   1.3236354388e+01    0.3503852    0.2337527  84.66  0.001487285    2.083    0.520
        75  -7.7935     72.3247    225.3376   1.0803707075e+02   1.7483192853e+01     0.124504    0.1003185 -24.69 0.0007051267    1.721    0.419
        76  -8.5106     38.3654    225.1123   1.1543574126e+02   2.1705432317e+01    0.1789925   0.09944023  86.66 0.0009385506    1.837    0.456
        77  -8.7316    216.3696    223.6591   7.6488688567e+01  -3.8212456888e+00    0.2165529    0.2089873  69.70 0.0008266121    1.666    0.400
        78  -8.5288    173.0197    223.2587   8.5188988449e+01   2.6442138311e+00    0.2100333    0.1913748  89.72 0.0006197946    1.569    0.363
        79  -7.8528    113.8037    223.8111   9.8441716208e+01   1.1824794821e+01    0.1849114    0.1479919  61.60 0.0004580235    1.331    0.249
        80  -9.1193    160.3895    221.2760   8.7587907846e+01   4.9875261291e+00    0.5914102    0.2700314  52.87  0.002045973    3.912    0.744
        81  -7.8191     59.6768    223.3781   1.1065500324e+02   1.9546847969e+01    0.1426837    0.0816869  64.70 0.0005431396    1.829    0.453
        82  -8.9245    239.2595    221.7643   7.1942162062e+01  -6.5722253772e+00     0.225966    0.2109703  54.99  0.001265974    1.842    0.457
        83  -9.3999    225.4985    221.7200   7.4431564829e+01  -4.7665017302e+00    0.2262195    0.2104922  16.57   0.00105291    1.420    0.296
        84  -9.1459      7.5133    222.1762   1.2160821006e+02   2.5463644129e+01    0.2961642   0.07660871  44.87  0.001315351    2.882    0.653
        85  -9.2094    120.3813    219.1851   9.6281004981e+01   1.1758332200e+01    0.4924652    0.2677263  61.21  0.001808138    2.871    0.652
        86  -8.7437     82.7826    220.5436   1.0513626248e+02   1.7085203470e+01    0.3293056    0.1804051  63.09  0.001369097    2.228    0.551
        87  -8.1148     73.2371    220.8346   1.0734844275e+02   1.8333913974e+01    0.2287552    0.1135273  66.04 0.0009343496    2.754    0.637
        88  -8.3242     27.6766    220.2286   1.1733486193e+02   2.3919315493e+01    0.2989363   0.06336942 -63.88  0.001107149    3.919    0.745
        89  -7.9759    202.6052    219.8532   7.8504127917e+01  -1.2489987389e+00    0.1654084    0.1201328 -46.45 0.0006401902    1.651    0.394
        90  -9.3801    192.3132    221.2311   8.0818220432e+01   4.7726627461e-02    0.2923825    0.2467186 -60.55  0.001233864    1.707    0.414
        91  -8.5350    209.9412    219.1022   7.6928312187e+01  -2.1906385699e+00    0.1962638     0.164417  -2.48 0.0005194661    1.034    0.033
        92  -8.5419    249.0219    218.2336   6.9619007004e+01  -7.2785805143e+00     0.161114    0.1416348  53.57 0.0009409808    2.015    0.504
        93  -9.3381    132.7011    215.8421   9.2940438669e+01   1.0487603711e+01    0.4550921    0.3023608  82.76  0.001962176    2.736    0.635
        94  -8.3917     62.2159    217.4292   1.0949300915e+02   2.0529958436e+01     0.305515    0.1602052  60.38  0.001195203    2.051    0.512
        95  -8.9198     51.5033    217.2301   1.1189146097e+02   2.1904875100e+01    0.3011602    0.1698615  76.25  0.001064759    1.981    0.495
        96  -8.7112    169.3002    216.0545   8.4772840921e+01   4.5395126705e+00    0.2925358    0.2290647 -82.85 0.0008755192    2.140    0.533
        97  -8.8728    142.9039    216.4310   9.0701109360e+01   8.7233972649e+00    0.3145705    0.2257384 -85.81   0.00148448    2.279    0.561
        98  -8.3035    111.8219    217.2261   9.7983186557e+01   1.3501049737e+01    0.2350865     0.133928  66.08 0.0009441575    2.776    0.640
        99  -8.2206     18.5046    216.0958   1.1898364130e+02   2.5746772749e+01    0.1823422     0.103213 -80.55  0.001032223    1.588    0.370
       100  -8.5754    232.2652    214.7598   7.1953972515e+01  -4.6074508829e+00    0.2083152    0.1808755 -41.04 0.0009166854    1.526    0.345
       101  -8.5539    185.2990    214.3971   8.1075104892e+01   2.3100427780e+00    0.2354413    0.1735962 -35.90 0.0008045369    1.372    0.271
       102  -8.1228    154.2401    215.2314   8.7951158738e+01   7.1224060647e+00     0.180992    0.1612198  63.77  0.000594255    1.375    0.273
       103  -8.7537    149.2831    214.9637   8.9019926565e+01   7.9794516309e+00    0.1979452    0.1853651  64.35 0.0007890078    1.255    0.203
       104  -8.8613    148.0106    210.5852   8.8582682750e+01   9.0570037634e+00    0.3353663    0.2437503  89.91  0.001230568    2.330    0.571
       105  -9.3615    214.1126    212.3478   7.4912931325e+01  -1.6909465290e+00    0.3619661    0.2710147  54.60  0.001534599    2.108    0.526
       106  -9.0869     93.1282    213.9285   1.0191374302e+02   1.7041598138e+01    0.3785535    0.1732598  53.52   0.00129543    2.555    0.609
       107  -9.5162     73.3384    212.1561   1.0634880005e+02   2.0242126761e+01    0.6951446    0.2514744  55.51  0.002273132    4.046    0.753
       108  -8.1010    225.0422    212.5254   7.2877286339e+01  -3.2721856280e+00    0.2009369    0.1247315 -43.10 0.0004621022    1.753    0.430
       109  -8.8257    161.7636    212.3949   8.5798216721e+01   6.4463516795e+00    0.2477756    0.2144921  69.29 0.0009004367    1.535    0.349
       110  -8.9082    204.2011    211.0176   7.6611600864e+01  -4.5577177616e-03    0.2343034    0.2005489 -41.52 0.0006569033    1.384    0.278
       111  -9.4519    175.6402    210.0940   8.2364531157e+01   4.6282632337e+00    0.3881643    0.2982944  73.75  0.001464237    2.235    0.553
       112  -9.3292      5.6744    208.3273   1.2119015195e+02   2.8638717384e+01    0.2628331    0.1236059  83.87  0.001349254    1.980    0.495
       113  -8.8560    116.3478    210.2961   9.5911870372e+01   1.4269307635e+01    0.3669472    0.2363236  68.50  0.001216552    2.214    0.548
       114  -9.1800    236.6437    208.6691   7.0066227546e+01  -4.2548818743e+00    0.2890425    0.2388156 -60.54   0.00128951    2.026    0.506
       115  -8.1850    192.2018    210.2167   7.8895716044e+01   1.9738819769e+00    0.1679327    0.1589869 -46.66  0.000453828    1.355    0.262
       116  -8.6611     85.6262    209.4318   1.0310980544e+02   1.9135571646e+01    0.3649298    0.2077105  69.00  0.001564646    2.405    0.584
       117  -9.3498     99.4105    206.2258   9.9367993806e+01   1.7808766006e+01     0.454755    0.2800539 -88.54  0.001912578    2.392    0.582
       118  -8.0658     46.2218    209.2108   1.1233344041e+02   2.4336737669e+01    0.2016554    0.0950783 -86.65 0.0005882112    2.475    0.596
       119  -9.2821    250.1136    202.0208   6.6517379309e+01  -5.0128558223e+00    0.3842738    0.1587458 -39.36  0.001321609    2.162    0.537
       120  -9.6756    245.9641    193.8390   6.5702663737e+01  -3.1961262876e+00    0.4307719    0.2788013 -59.61  0.002053366    3.054    0.673
       121  -7.7828    156.4949    207.9859   8.6216406973e+01   8.1721811270e+00    0.1775876     0.128721 -81.68 0.0008074649    2.354    0.575
       122  -8.3997    139.0289    208.0367   9.0226022671e+01   1.1059119724e+01    0.2192253    0.1700794  69.21 0.0006887978    1.692    0.409
       123  -8.2791    126.4095    208.2811   9.3222023420e+01   1.3080664975e+01    0.1851008    0.1382949 -70.97 0.0007972321    1.632    0.387
       124  -8.4820     56.2875    205.4042   1.0961100457e+02   2.4001331541e+01    0.2935232     0.153381  69.90 0.0008987202    2.374    0.579
       125  -8.9609    183.8202    204.0056   7.9516815963e+01   4.4340011344e+00    0.3070467    0.2516843  69.34  0.001133192    1.868    0.465
       126  -8.2052    108.9432    205.1810   9.6914744037e+01   1.6560490596e+01    0.2227104    0.1807695  67.33 0.0007674758    1.345    0.257
       127  -8.1914     24.6882    205.3058   1.1686806052e+02   2.7555033364e+01    0.1324491   0.07671632  64.16 0.0003782391    1.617    0.382
       128  -9.4753    194.7316    203.4503   7.7137304257e+01   2.7822184282e+00    0.4098636    0.2790221 -25.73  0.001118529    1.446    0.308
       129  -9.2628    192.3862    197.3742   7.6482256864e+01   4.2655984724e+00    0.3456897    0.2404468 -51.05   0.00101393    1.695    0.410
       130  -9.5858    163.8042    202.9606   8.3688187686e+01   7.9457642117e+00    0.4401641    0.2969034  57.84  0.001157657    2.070    0.517
       131  -8.6769    131.1607    203.7484   9.1365094188e+01   1.3265369885e+01    0.2909626      0.22021  78.44  0.001427731    1.828    0.453
       132  -8.3261    211.1070    202.2128   7.3631099843e+01   4.5480761541e-01    0.2188252     0.172429 -63.09 0.0006487144    1.987    0.497
       133  -9.4363    246.4783    207.2605   6.8090881807e+01  -5.3363452302e+00    0.2770704    0.1827174 -28.95 0.0006467139    1.282    0.220
       134  -9.0853    243.0164    200.8252   6.7507922741e+01  -3.8923763676e+00    0.3027741    0.1567782 -41.76  0.001030442    1.892    0.471
       135  -8.9508    140.2793    200.9076   8.8730044816e+01   1.2340494067e+01    0.3379005    0.2418353 -88.71  0.001134116    2.263    0.558
       136  -8.5614     79.9395    201.2804   1.0342885573e+02   2.1813239474e+01    0.3418428    0.1979252  76.82  0.001442744    2.450    0.592
       137  -8.1345     48.4050    202.2746   1.1114744052e+02   2.5681006494e+01    0.1855227    0.1137937 -89.07 0.0009418775    1.672    0.402
       138  -7.6675    221.7222    201.3540   7.1442413587e+01  -9.8426528633e-01    0.1169909    0.1041555 -59.95 0.0006803514    1.650    0.394
       139  -9.1557    237.0680    198.8213   6.8175019539e+01  -2.7634155429e+00    0.2844152    0.1611029 -45.76 0.0009696931    1.974    0.493
       140  -9.5641    149.3206    198.3085   8.6157546921e+01   1.1346978610e+01    0.4693189    0.3296973 -81.35  0.001328372    2.395    0.582
       141  -8.9521    123.9966    199.2810   9.2344100711e+01   1.5424658248e+01    0.3373845     0.256278  80.09  0.001268431    1.754    0.430
       142  -9.2267    112.8912    198.5361   9.4929530406e+01   1.7414117737e+01    0.4771624    0.2883537  68.67   0.00177515    2.606    0.616
       143  -9.2291     88.7660    198.4677   1.0087445838e+02   2.1185872402e+01    0.4300714    0.2633262  82.36   0.00164542    2.340    0.573
       144  -8.6112    176.9087    198.9122   8.0057554112e+01   6.5363705487e+00    0.2336369    0.1931501 -48.05 0.0006187052    1.353    0.261
       145  -8.2154    202.3592    197.9991   7.4566422645e+01   2.5485560528e+00    0.2159566     0.190946  60.43 0.0007610724    1.597    0.374
       146  -9.1638     61.4987    197.0930   1.0742858579e+02   2.5290072313e+01    0.4363577    0.2222039  68.46  0.001520163    2.670    0.625
       147  -8.7398     12.7868    197.4816   1.1894412955e+02   3.0469685035e+01    0.3099328    0.1333399  79.89  0.001377666    2.530    0.605
       148  -7.6211     29.3387    197.6452   1.1518246953e+02   2.8857432029e+01    0.1423325   0.07870956  64.78 0.0007041762    1.806    0.446
       149  -8.3061    132.9914    196.0095   8.9618547432e+01   1.4628573916e+01      0.22368    0.1735102  70.03 0.0006110605    1.652    0.395
       150  -7.9925     53.3253    196.6358   1.0937237315e+02   2.6418995706e+01    0.1480282   0.08881316  66.47 4.595706e-05    1.794    0.443
       151  -8.8456    224.5676    193.8787   6.9500412189e+01  -1.5404521684e-01    0.3334012    0.1691309 -47.69  0.001315104    2.278    0.561
       152  -8.9021    185.2408    194.6942   7.7472367938e+01   5.9478877886e+00    0.2795338    0.2139944 -54.95  0.001071395    1.598    0.374
       153  -9.0261    160.9647    194.3812   8.2759528746e+01   1.0152080744e+01    0.3355438    0.2569945  72.65  0.001115868    1.978    0.494
       154  -8.0552    230.8192    194.3077   6.8440803010e+01  -1.1440685576e+00    0.1792482    0.1403495 -30.21 0.0005549903    1.181    0.153
       155  -8.8313     77.1072    193.8143   1.0314028204e+02   2.3968714254e+01    0.2821398    0.2144291  69.32 0.0007156638    1.368    0.269
       156  -8.8222     43.5662    193.2881   1.1138730599e+02   2.8360735879e+01    0.3829465    0.2033283  73.62  0.001722607    2.231    0.552
       157  -7.8323    205.2458    191.9492   7.2831971328e+01   3.1722660376e+00    0.1728481    0.1082675 -39.02 0.0003250354    1.523    0.343
       158  -8.4123    198.8337    191.5991   7.4051939104e+01   4.2750269660e+00    0.2523941    0.1732524 -53.91 0.0006709257    1.832    0.454
       159  -8.1816    172.1479    191.8286   7.9765438843e+01   8.7329207795e+00    0.2025015    0.1965281  53.55 0.0007109207    1.226    0.184
       160  -9.2203    139.4581    190.5908   8.7099908041e+01   1.4696942651e+01    0.3817224    0.2828894 -87.97  0.001097478    2.027    0.507
       161 -10.3899     92.1144    188.8264   9.8619142881e+01   2.2950434221e+01    0.9540219    0.2764953  45.01   0.00296869    3.630    0.725
       162  -8.5960    215.9389    195.7645   7.1481621731e+01   8.2645931293e-01    0.2761554    0.1732076 -54.25 0.0009021785    2.242    0.554
       163  -8.5259    148.2996    189.5924   8.4806861598e+01   1.3364448504e+01    0.2416717    0.2230954  85.20 0.0006860055    1.294    0.227
       164  -8.3893    237.1337    188.3488   6.6183348695e+01  -1.0764933000e+00    0.2203607    0.1470558 -25.50 0.0005237312    1.301    0.232
       165  -8.9324    216.6327    187.9677   6.9846891944e+01   2.0735215650e+00    0.2885955     0.204733 -48.46  0.000854381    1.614    0.380
       166  -9.2980    155.9900    187.6342   8.2633563324e+01   1.2422735145e+01    0.3709575    0.2384956 -59.81 0.0009580666    1.934    0.483
       167  -8.8617    129.2679    188.5963   8.9221092511e+01   1.6907081483e+01    0.3081602     0.231977  75.67  0.001007434    1.806    0.446
       168  -9.6651    120.7794    186.5561   9.0968692006e+01   1.8827230912e+01    0.5750681    0.3231074 -74.34  0.002117055    2.957    0.662
       169  -9.0578     34.2619    188.1764   1.1313876757e+02   3.0597427488e+01    0.3466316    0.1617061  69.08  0.001298334    2.687    0.628
       170  -9.3208    248.9619    185.8086   6.3685560427e+01  -2.3343691340e+00    0.3520875    0.2084717 -23.94  0.001200995    1.540    0.351
       171  -9.1945    191.7504    187.3555   7.4681290295e+01   6.2464715576e+00    0.3746003    0.1900726 -47.93  0.001574132    2.115    0.527
       172  -9.0447     54.5981    186.6968   1.0791425170e+02   2.8653126108e+01    0.4361187    0.2297012  71.58  0.001737182    2.521    0.603
       173  -8.0918    230.4134    187.2579   6.7163996238e+01   8.9513388414e-02    0.1803569    0.1132291 -43.79 0.0009454333    1.622    0.383
       174  -8.5599    164.7534    186.8470   8.0466537645e+01   1.1035050356e+01    0.2516222    0.2023536 -68.43 0.0007261166    1.624    0.384
       175  -9.2408    109.5948    186.1453   9.3724332805e+01   2.0800312581e+01     0.392175    0.2648582  68.13  0.001087114    1.960    0.490
       176  -8.9267    183.0100    184.9700   7.6060258763e+01   8.2060439006e+00    0.2730581    0.1909027 -42.63  0.000536183    1.427    0.299
       177  -8.7775    210.2363    184.2719   7.0350122877e+01   3.7505535720e+00    0.2735836    0.1961527 -42.53 0.0006916716    1.404    0.288
       178  -8.6135    202.7630    184.7108   7.1910449076e+01   4.8962898001e+00    0.2633119    0.1816611 -48.86 0.0007109172    1.610    0.379
       179  -9.0515     66.4608    184.5308   1.0460383778e+02   2.7668041618e+01    0.3742521    0.2260868  70.86  0.001062891    2.038    0.509
       180  -7.8034     12.3463    185.6473   1.1816962413e+02   3.3272768754e+01     0.139294   0.07495215  64.66  0.000703826    1.823    0.451
       181  -8.4806    224.0524    183.3378   6.7555598490e+01   1.7243466007e+00    0.2635542     0.149649 -38.24 0.0008970114    1.591    0.371
       182  -8.5661    196.6120    183.4705   7.2908838689e+01   6.1587274008e+00    0.2589576    0.1971458  68.93  0.001257591    2.165    0.538
       183  -8.9331    174.3323    183.5837   7.7678132744e+01   1.0004782988e+01    0.2753934    0.2398374 -74.08 0.0008477698    1.509    0.337
       184  -8.0936      1.9727    183.7055   1.2043994129e+02   3.4563751205e+01    0.1687181    0.1358505  64.16  0.001129313    1.167    0.143
       185  -8.8791     44.4729    182.4908   1.0999485012e+02   3.0870960484e+01    0.3518885    0.2104012  62.92  0.001091648    1.781    0.438
       186  -8.1687     19.6815    183.3295   1.1623377446e+02   3.3182465735e+01    0.1371757   0.08035932  66.01  0.000704732    1.686    0.407
       187  -9.1642    147.4788    180.6527   8.3301259809e+01   1.5446215687e+01    0.3610898     0.278279 -82.11  0.001000347    1.844    0.458
       188  -7.7010    235.2975    181.6511   6.5211192329e+01   3.0407307030e-01    0.1213489    0.1013151 -59.33 0.0003307617    1.682    0.406
       189  -9.4090     25.5726    178.9839   1.1439321158e+02   3.3688109471e+01    0.6357948    0.2572442  77.49  0.002208241    3.903    0.744
       190  -7.5122    240.3175    180.2943   6.4080618569e+01  -2.1048779482e-01    0.1316815   0.08871919  -7.73 0.0004246887    1.605    0.377
       191  -8.6405    137.6928    179.3601   8.5432706519e+01   1.7497618657e+01    0.3115995    0.2378216  75.02  0.001206831    1.808    0.447
       192  -9.5882    248.4429    176.3992   6.1968674836e+01  -7.4614823007e-01    0.5028417    0.2518374 -45.95  0.001989571    2.059    0.514
       193  -8.5468    250.5149    172.8538   6.0946424808e+01  -4.6567811564e-01    0.2175407     0.105074 -35.16 0.0005568044    1.735    0.424
       194  -8.8918    204.9811    177.7793   7.0082645821e+01   5.8097443229e+00    0.3041047    0.1868721 -44.04 0.0008790652    1.605    0.377
       195  -9.4044    191.4784    178.3512   7.2940996183e+01   8.0208743797e+00    0.2976671    0.2692935  82.42 0.0005521969    1.513    0.339
       196  -8.0743    169.2330    178.4641   7.7795076987e+01   1.1965549779e+01    0.2358725     0.185632 -72.17 0.0007250633    1.759    0.432
       197  -8.9899     35.9801    177.0069   1.1155707876e+02   3.3139753018e+01    0.4943731    0.2150504  78.60  0.001710491    3.766    0.734
       198  -8.6631    129.1010    177.5327   8.7225478880e+01   1.9450611216e+01    0.3095179    0.2337701  88.33 0.0009447864    1.849    0.459
       199  -8.5400    231.1505    176.7605   6.4980221226e+01   1.7616572031e+00    0.2317596    0.1573313 -41.61 0.0006245773    1.411    0.291
       200  -8.4217    217.4518    177.1371   6.7550748767e+01   3.8625035939e+00    0.1963228    0.1893246 -50.56  0.000645535    1.317    0.241
       201  -9.1284    183.2566    176.2728   7.4259001237e+01   9.8835075585e+00    0.3045608    0.2385294 -59.60 0.0005991565    1.575    0.365
       202  -9.3262    159.0051    175.1059   7.9465848698e+01   1.4543738967e+01    0.4435505    0.3115993  76.55  0.001535691    2.523    0.604
       203  -8.7109     89.0296    176.9259   9.7547034858e+01   2.6299807168e+01       0.3037    0.2211701  77.53  0.001197119    1.652    0.395
       204  -9.0877     59.0373    176.2661   1.0543906691e+02   3.0670381167e+01     0.439027    0.2125246  59.12  0.001713884    2.669    0.625
       205  -9.5470     56.1594    171.3379   1.0554220871e+02   3.2261405145e+01    0.5068509    0.2644143  78.57  0.001909967    2.962    0.662
       206  -8.6343     12.8884    176.7361   1.1732504511e+02   3.5357018422e+01    0.2463112    0.1279463  71.52 0.0007418236    2.002    0.501
       207  -7.8993    211.5660    176.4913   6.8538631469e+01   4.9450613952e+00    0.1380833    0.1222283 -20.61 0.0002055082    1.055    0.052
       208  -9.4688    104.2516    174.7952   9.3145347540e+01   2.4385998786e+01    0.5616378    0.3117549  60.17  0.001714864    2.576    0.612
       209  -8.2138     79.0768    158.4836   9.7167092645e+01   3.2405057165e+01    0.2848128    0.1523799  25.77  0.001156856    2.148    0.534
       210 -10.6328     76.0199    171.1675   1.0012616096e+02   2.9657287536e+01     1.132513    0.4908257 -79.65  0.003220914    4.796    0.792
       211  -8.6930     74.3574    160.3065   9.8820024552e+01   3.2629684253e+01    0.2791564    0.1952716 -13.60  0.001204397    2.064    0.516
       212  -8.1957    224.2359    174.2404   6.5717152123e+01   3.2846803588e+00    0.1753921    0.1546949 -50.68 0.0007108841    1.369    0.270
       213  -9.4490    175.7057    172.2247   7.5072973356e+01   1.2072290432e+01    0.3750092    0.2309845 -45.83  0.001186779    1.622    0.383
       214  -8.4081    142.9793    172.7404   8.2831695350e+01   1.8022609355e+01    0.2626176    0.2002341 -68.10 0.0006775174    1.604    0.377
       215  -8.1010    194.4531    172.4684   7.1121075136e+01   8.6387719031e+00    0.1460027    0.1281563 -11.98 0.0001306573    1.055    0.052
       216  -8.5378    134.7822    171.5306   8.4628207745e+01   1.9803772532e+01    0.2870226    0.2025611 -70.54 0.0009242052    1.830    0.454
       217  -9.5093    121.4301    170.5161   8.7843682406e+01   2.2452650954e+01    0.4271955    0.3064866 -82.01  0.001034159    1.914    0.478
       218  -9.1221     45.0394    170.9201   1.0847520761e+02   3.3674935184e+01    0.4092757    0.2304771  86.73  0.001213043    2.096    0.523
       219  -8.3570    205.6975    170.4051   6.8435903948e+01   7.0663078491e+00    0.2462911    0.1571335 -48.19 0.0006399255    1.650    0.394
       220  -8.6067    198.4352    170.3885   6.9878449837e+01   8.3370457939e+00    0.2717402    0.2355291 -81.46 0.0008302893    1.629    0.386
       221  -7.6753     68.5041    170.9744   1.0214242591e+02   3.0753282608e+01    0.1998423    0.1181997  83.52 0.0008066647    2.351    0.575
       222  -8.7089    230.3209    170.0506   6.3788917064e+01   3.0508936289e+00     0.198613     0.147858 -33.09 0.0007121452    1.169    0.144
       223  -8.6185    149.7171    169.5152   8.0532810097e+01   1.7490001461e+01    0.2829863    0.2255817 -81.33 0.0006813394    1.697    0.411
       224  -8.1770    244.2434    169.2394   6.1260228153e+01   1.0476723148e+00    0.1682141    0.1396228 -46.21 0.0004963148    1.353    0.261
       225  -8.4491    237.0158    169.1060   6.2442617662e+01   2.1675764713e+00    0.2048365    0.1708493 -28.85 0.0008293182    1.073    0.068
       226  -8.5201    218.9093    168.4960   6.5528995708e+01   5.1781515154e+00     0.241492     0.175295 -47.64 0.0005519454    1.456    0.313
       227  -9.1943    166.8559    168.5574   7.6299043025e+01   1.4480484917e+01    0.3302475    0.2607158  63.20 0.0008649297    1.627    0.385
       228  -8.6749    111.9514    167.7137   8.9797758026e+01   2.4789327246e+01    0.3875671    0.2541246  74.17  0.001540134    2.387    0.581
       229  -8.4761     88.7980    168.7039   9.6233705797e+01   2.8364904229e+01    0.2786935    0.1870826  85.66 0.0008448483    2.013    0.503
       230  -9.0145    191.9503    166.5528   7.0404252897e+01   1.0244446233e+01    0.3043884    0.1959273 -44.83 0.0006524384    1.525    0.344
       231  -8.7479    185.1465    166.7182   7.1869422276e+01   1.1455719341e+01    0.2485354    0.1898946 -50.27 0.0007382254    1.395    0.283
       232  -8.9664     20.3569    166.1103   1.1446690913e+02   3.7322742988e+01    0.3827268    0.1749039  73.24   0.00149993    2.833    0.647
       233  -8.1327    233.8966    165.2536   6.2202691143e+01   3.3178587479e+00     0.230857    0.1537774 -41.77  0.000613255    1.385    0.278
       234  -9.8762    136.8898    164.6130   8.2693552307e+01   2.1003284443e+01    0.6507952     0.334691  55.58  0.002287054    2.791    0.642
       235  -9.9645     94.8133    162.7630   9.3521183529e+01   2.8886525976e+01     0.788958    0.4420804  74.74  0.002490353    3.934    0.746
       236  -8.6244    159.6096    164.2983   7.7080049702e+01   1.6765246815e+01    0.2948441    0.2427099  85.32 0.0008603261    1.665    0.400
       237  -9.3406     33.6160    163.5531   1.1065744300e+02   3.6731190753e+01    0.5526049    0.2137623  51.36  0.002115978    3.056    0.673
       238  -8.2134    240.0179    164.3065   6.0979447953e+01   2.5217925430e+00    0.1792651    0.1565753 -15.79 0.0004059126    1.074    0.069
       239  -8.5625    212.9273    163.5640   6.5626346966e+01   7.0946824061e+00    0.2673481     0.184544 -43.15 0.0006961052    1.385    0.278
       240 -10.1809    246.1251    162.8959   5.9699938376e+01   1.8250880394e+00    0.6117822    0.3449999 -52.69  0.002936672    2.235    0.553
       241  -9.2718    243.0406    149.8329   5.7568421388e+01   4.5160360117e+00    0.2709737    0.2321275  62.61  0.001673752    1.566    0.361
       242 -10.3145    239.9852    152.7687   5.8654996432e+01   4.5030831294e+00    0.5305781    0.3397672 -63.73  0.002468477    2.586    0.613
       243  -9.8485    250.1729    157.8381   5.8055726721e+01   2.0567966479e+00    0.3749417    0.1661715 -40.63  0.000796477    1.899    0.473
       244  -9.5942    246.5618    155.5536   5.8166531214e+01   2.9911466231e+00    0.2360812    0.1805353 -14.12 0.0005136792    1.305    0.234
       245  -8.4600    204.9253    163.0357   6.7050924240e+01   8.5947693580e+00    0.2101794    0.1883334 -57.06 0.0005850028    1.312    0.238
       246  -9.2580      3.4608    162.4291   1.1848894238e+02   3.9542275585e+01    0.3921564    0.1781724  56.27  0.001654753    2.355    0.575
       247  -8.8010    151.5780    160.8437   7.8259141907e+01   1.9064387873e+01    0.3447631     0.250742 -82.04 0.0009117627    2.147    0.534
       248  -9.1214    177.5146    160.5411   7.2200607700e+01   1.4146074219e+01    0.2889491    0.2535608 -72.84 0.0009442019    1.410    0.291
       249  -8.6687     60.7091    160.3012   1.0268531068e+02   3.4480616666e+01    0.3843426    0.2269122  72.52  0.001601469    2.320    0.569
       250  -8.4462    227.2412    158.9361   6.2065919619e+01   5.5084597605e+00    0.2695426    0.1649091 -49.04  0.001058428    1.720    0.419
       251  -8.6056    237.2831    159.0053   6.0366552481e+01   3.8605214965e+00    0.1944574    0.1491571 -34.63 0.0005777115    1.122    0.109
       252  -9.3481    167.6899    157.5321   7.3745981213e+01   1.6667933915e+01    0.3955043    0.3023173 -82.70  0.001256252    1.977    0.494
       253  -8.3173    128.1274    158.9179   8.3758877084e+01   2.3970440302e+01    0.2378625    0.2099411  85.39 0.0007192378    1.318    0.241
       254  -9.6506    105.8334    157.7531   8.9514390311e+01   2.8276903142e+01    0.5293139    0.3780327  83.18  0.001179621    1.970    0.492
       255  -8.4466    196.6223    158.0257   6.7632118364e+01   1.1065165860e+01     0.222707    0.2050391  61.84 0.0007105884    1.314    0.239
       256  -8.3323    188.1313    157.9249   6.9356009281e+01   1.2669073023e+01    0.2159879    0.1965532 -63.37 0.0004905901    1.280    0.219
       257  -8.3318    217.8992    156.5744   6.3240939953e+01   7.5235899200e+00    0.2752165     0.161904 -51.80 0.0007888007    1.928    0.481
       258  -8.7995    157.4338    155.7526   7.5745941739e+01   1.9053944075e+01    0.3777358    0.2276154 -54.55  0.001035114    1.836    0.455
       259  -9.4570    119.6355    155.3426   8.5259194690e+01   2.6396257364e+01    0.4627692    0.3203051 -83.54  0.001563802    2.162    0.537
       260  -9.3937     81.9304    155.0357   9.5733883245e+01   3.2849889386e+01    0.4917227    0.2967319  66.47  0.001383695    2.392    0.582
       261  -9.3093     49.5828    155.2038   1.0509118249e+02   3.7137043716e+01    0.3841377    0.2331935  65.88  0.001158042    2.018    0.504
       262  -7.8201    204.7761    155.5600   6.5490180743e+01   1.0047848209e+01    0.1747827    0.1399875  54.58 0.0004919115    1.514    0.340
       263  -8.4919    144.8613    155.0106   7.8644437412e+01   2.1677090916e+01    0.3179693    0.2029848  57.30  0.001036508    1.984    0.496
       264 -10.1229    133.1560    151.6217   8.0880061888e+01   2.4728374244e+01     0.823529    0.3909073 -49.61   0.00192121    2.097    0.523
       265  -9.6743     67.9799    153.8569   9.9557338900e+01   3.5161590434e+01    0.4573192    0.2816516  75.30  0.001283127    2.312    0.568
       266  -8.1510    233.0008    154.0076   6.0061615229e+01   5.4259008213e+00    0.2038056    0.1595463 -64.25 0.0005984252    1.708    0.415
       267  -8.9477    151.8119    152.3493   7.6344455673e+01   2.0913239271e+01    0.3355726    0.1748097 -46.81  0.001319174    1.896    0.473
       268  -8.7872     20.1863    152.5017   1.1307558050e+02   4.0729881256e+01    0.2180673    0.1379357 -80.97 0.0005869112    1.416    0.294
       269  -9.7119     29.4331    150.7852   1.1026484858e+02   4.0355224201e+01    0.4820368    0.2344888  67.70  0.001915596    2.902    0.655
       270  -8.5086      8.9907    153.0000   1.1619757553e+02   4.1466618392e+01    0.1820845    0.0742045  20.18 0.0008010153    2.933    0.659
       271  -8.4949      2.8983    150.6109   1.1761546225e+02   4.2469898420e+01    0.3190447    0.1246631 -84.50  0.001346423    2.463    0.594
       272  -9.5429    248.7449    149.4126   5.6594556316e+01   3.6846181482e+00    0.3020897    0.1747756 -38.86 0.0008030765    1.438    0.305
       273  -9.0112    189.2500    150.1164   6.7410432635e+01   1.4025637749e+01    0.3843264    0.2357411 -56.02  0.001105799    1.964    0.491
       274  -7.8758    182.3996    151.2433   6.9101929741e+01   1.5122965398e+01     0.212316    0.1362684 -52.71 0.0007815867    1.696    0.411
       275  -8.2531    162.7671    150.7132   7.3368935419e+01   1.9102145837e+01    0.2773148    0.2017666 -73.00  0.001053765    1.968    0.492
       276  -8.8864     98.1881    150.5639   9.0213678711e+01   3.1364107748e+01    0.3428418    0.2388412 -76.32 0.0009269276    1.763    0.433
       277  -8.0554    212.9656    149.9645   6.2739752931e+01   9.6224738169e+00    0.2076567    0.1696797 -70.16 0.0005012007    1.618    0.382
       278  -9.6611     39.8948    147.8745   1.0684194668e+02   4.0071971909e+01    0.5762462    0.2846809  63.13   0.00223231    2.939    0.660
       279 -10.0706     89.1941    146.2635   9.1942073868e+01   3.3927292884e+01    0.7187529    0.4261874  88.09  0.002445262    3.328    0.700
       280  -8.8057    233.5020    147.6131   5.8654456789e+01   6.4667003046e+00    0.2789029     0.116914 -39.54 0.0007794821    2.056    0.514
       281  -7.5338    178.6775    148.3221   6.9250256612e+01   1.6454184740e+01     0.157353     0.145404 -16.75 0.0003275038    1.042    0.041
       282  -8.1603    175.5314    146.0507   6.9423616411e+01   1.7551160148e+01    0.2904193    0.2076368 -68.91 0.0008368367    1.956    0.489
       283  -9.1246     78.1429    146.9588   9.5333127378e+01   3.5468079831e+01    0.3422248    0.2241076  88.28 0.0008302889    2.154    0.536
       284 -10.7722     54.9191    143.5831   1.0168956011e+02   3.9479955053e+01     1.074257    0.6086002 -77.47  0.003603091    1.994    0.499
       285  -8.3869    223.2956    146.9448   6.0244317180e+01   8.3398835321e+00    0.1976508    0.1589313 -33.04 0.0004199082    1.089    0.082
       286 -10.3157    148.8837    144.5804   7.5302505696e+01   2.3236743397e+01    0.6626213    0.4270308 -69.28  0.001523222    2.332    0.571
       287  -9.1332    151.4440    135.7502   7.2603524320e+01   2.4682256239e+01    0.4469388    0.2590363  19.44  0.001546048    2.915    0.657
       288  -9.9912    138.8875    144.6207   7.7827504145e+01   2.5229209080e+01       0.6303     0.348536 -64.15  0.001496926    2.669    0.625
       289  -9.0253    140.1988    136.6089   7.5621763066e+01   2.6799056043e+01    0.2662942    0.1887645   6.88 0.0007364401    2.006    0.502
       290 -10.2894    106.5494    143.9119   8.6434729458e+01   3.1553096691e+01    0.8167406     0.534619 -82.10  0.002065143    2.382    0.580
       291  -9.2076     13.6171    146.5383   1.1425830554e+02   4.2737460983e+01    0.3413495    0.1986676  57.15  0.001273666    1.897    0.473
       292  -9.2998    240.1951    145.1834   5.7068410085e+01   5.7764514471e+00    0.2384889    0.1652532 -38.51 0.0005447861    1.227    0.185
       293  -9.7683    242.6966    143.3139   5.6291461678e+01   5.6872039225e+00    0.1984514    0.1911405 -71.69 0.0006508342    1.275    0.216
       294  -9.8178    125.1536    142.7482   8.1014829023e+01   2.8362412052e+01    0.5652157    0.3889164 -87.06  0.001374691    2.415    0.586
       295  -9.2647    247.0605    143.9546   5.5750027196e+01   4.8712889095e+00    0.2011984    0.1615281 -33.20 0.0004590024    1.032    0.031
       296  -7.6475    194.3768    144.1495   6.5036492469e+01   1.4224220228e+01     0.205346    0.1298836 -50.52 0.0005119163    1.643    0.391
       297  -8.7968    165.7005    144.0759   7.1180405587e+01   1.9945953100e+01    0.2458342    0.2169016  64.04 0.0006539224    1.300    0.231
       298 -10.8018     68.9638    138.8927   9.6559502637e+01   3.8847006402e+01      1.08368    0.5783466 -75.83  0.003779703    2.498    0.600
       299  -9.2261      2.6943    141.7644   1.1683961223e+02   4.4661253780e+01    0.4022741    0.1959504  69.23   0.00184458    2.451    0.592
       300  -8.5175    250.4911    141.0268   5.4641580100e+01   4.8163480527e+00    0.1988194    0.1078145 -39.66 0.0004840824    1.524    0.344
       301  -8.3341    198.7686    149.0188   6.5243564137e+01   1.2426641226e+01    0.2159888    0.1861895 -56.04 0.0005694969    1.279    0.218
       302  -8.0617    206.5505    146.5126   6.3189535123e+01   1.1450616640e+01    0.1438996    0.1297166 -31.48 0.0001418943    1.028    0.027
       303  -9.8675     23.3900    138.3098   1.1042794010e+02   4.4042974944e+01    0.5247009    0.2701675  64.90  0.002251664    2.601    0.615
       304  -8.6741    172.3967    138.4062   6.8354656334e+01   1.9786089852e+01    0.3123199    0.2244208 -80.26  0.000769529    2.221    0.550
       305  -8.8066    182.8367    142.9816   6.7149078993e+01   1.6728644270e+01     0.506551    0.2769296 -62.33  0.001766357    3.118    0.679
       306  -7.9044    218.6095    138.2717   5.9197888344e+01   1.0764738190e+01    0.1987116    0.1214601 -33.22 0.0008371832    1.531    0.347
       307  -8.3078    207.4749    138.0072   6.1141274085e+01   1.2895506995e+01    0.2189299    0.1301234 -42.46 0.0004698516    1.538    0.350
       308  -8.6163    197.7636    137.5135   6.2873761096e+01   1.4867604674e+01    0.2817048     0.177052 -55.20 0.0009671422    1.820    0.450
       309  -8.4287    162.6850    136.5603   7.0121738405e+01   2.2178120288e+01    0.2603783    0.1854405 -63.18  0.000883752    1.723    0.420
       310 -10.4189     83.5989    132.9710   9.0848790840e+01   3.8162492085e+01    0.6568506    0.3775301 -69.87  0.001310468    2.167    0.539
       311  -8.5950     84.2091    122.9055   8.8402610504e+01   4.0564319835e+01    0.3308255       0.2121 -20.83  0.001047963    2.205    0.546
       312  -8.8439    250.7252    130.1423   5.2400700827e+01   6.5998693573e+00    0.3879645     0.100195 -36.80  0.001300702    3.571    0.720
       313  -9.0442    248.3726    135.3710   5.3807047770e+01   6.1082020997e+00    0.2881928    0.1788975 -40.94 0.0006595556    1.345    0.257
       314  -8.8407    246.8979    130.3148   5.2988281385e+01   7.2044105214e+00    0.2465838    0.1529403 -48.14 0.0005479249    1.492    0.330
       315  -7.3582    192.3557    136.6867   6.3752191354e+01   1.6098670259e+01    0.1486485    0.1178311 -81.06 0.0007044578    1.738    0.425
       316  -7.7906    188.0000    135.9781   6.4469353451e+01   1.7111985807e+01    0.2419428   0.08075788 -42.11  0.000620144    2.815    0.645
       317  -9.1934     39.0106    136.0430   1.0533254274e+02   4.3184582176e+01    0.2738692    0.1909185  68.67 0.0009762747    1.686    0.407
       318  -8.0036    237.4731    133.5049   5.5069911769e+01   8.2579511806e+00    0.2381084    0.1067387 -48.03 0.0006636985    2.191    0.544
       319  -8.5550    179.6427    134.1072   6.5775375835e+01   1.9191030896e+01    0.2419293    0.2152596  72.53 0.0007946183    1.312    0.238
       320  -9.2802    112.9117    133.3482   8.2233647038e+01   3.2948032083e+01    0.3754285    0.2760933  77.04 0.0009703503    1.941    0.485
       321  -8.0424    231.4646    133.5605   5.6030849606e+01   9.2976503981e+00    0.1363633    0.1178978 -33.29 3.655997e-05    1.016    0.016
       322  -9.6460    143.1020    131.6301   7.3685233519e+01   2.7327801680e+01    0.4424531    0.2650947 -57.48   0.00120751    1.939    0.484
       323 -10.3575    132.3842    131.1254   7.6341288544e+01   2.9643042507e+01    0.7252484    0.4579984 -62.62  0.002111669    1.977    0.494
       324  -8.8833    135.4901    124.5017   7.3887159390e+01   3.0511049008e+01    0.2792948    0.1558753  41.63  0.001086444    1.822    0.451
       325 -10.3698     98.1196    130.2029   8.5819615044e+01   3.6415068881e+01    0.7748824    0.3614803 -55.57  0.001822465    2.178    0.541
       326  -8.9704    100.3426    119.8960   8.2677488364e+01   3.8508576238e+01    0.6542793    0.3753065   7.20  0.002016167    3.933    0.746
       327  -9.4536    168.1483    129.5839   6.7208846938e+01   2.2519966089e+01    0.3589383    0.2731618 -86.67 0.0006330535    1.901    0.474
       328  -9.8782     12.6987    129.2081   1.1250155640e+02   4.7136318223e+01    0.4777462    0.2595615  69.72  0.001938141    2.343    0.573
       329  -7.8884    204.5660    130.4883   5.9992183593e+01   1.4886450029e+01     0.145009    0.1310327 -39.71 0.0001599693    1.032    0.031
       330  -8.0854    192.6889    130.1658   6.2184179511e+01   1.7318201100e+01    0.2304632    0.1729972 -54.97  0.000604229    1.409    0.291
       331  -8.7243    161.8346    130.1562   6.8785466504e+01   2.3728056061e+01     0.217769    0.1847885  -6.21 0.0005277587    1.332    0.249
       332  -9.4932    152.8454    128.9801   7.0626339674e+01   2.5876451598e+01     0.429779     0.292793 -60.12 0.0009275387    1.729    0.422
       333  -9.8171     73.0865    129.0538   9.3288885996e+01   4.0750949032e+01    0.4436608    0.3097015 -85.37  0.001218777    1.877    0.467
       334  -8.2232      1.7398    130.1599   1.1592657875e+02   4.7580095292e+01    0.2147994    0.1009129  62.00 0.0009430705    2.740    0.635
       335  -8.2217    211.4330    129.1567   5.8449803870e+01   1.3801251519e+01     0.201252    0.1226137 -50.19 0.0007106533    1.647    0.393
       336 -10.3507     60.1417    125.0896   9.6621511919e+01   4.3538253387e+01    0.8211833    0.4865862  77.98  0.002524307    3.079    0.675
       337  -8.5928     59.3772    115.2112   9.4787638255e+01   4.6107428668e+01    0.3863002    0.2240389  -7.04  0.001477654    2.890    0.654
       338 -10.7174     44.9880    123.6898   1.0131344492e+02   4.5698214295e+01     1.108709    0.5885993  76.04  0.003780494    3.915    0.745
       339  -9.9493    117.8975    125.3086   7.8880162033e+01   3.3893215565e+01    0.6058373    0.3902215  70.51  0.001598594    2.627    0.619
       340  -7.7145    228.2974    125.6214   5.4835546254e+01   1.1271723346e+01    0.1417039   0.09914905 -63.19 0.0007023624    1.757    0.431
       341  -8.8738    179.2768    124.7895   6.3640145568e+01   2.1162571770e+01    0.2728175    0.2300645 -84.46 0.0007185246    1.459    0.315
       342 -10.2350     28.3142    122.4075   1.0656896870e+02   4.7643864791e+01    0.7189341    0.3671424  76.76  0.002692149    3.415    0.707
       343  -7.8065    188.4790    123.5809   6.1473033217e+01   1.9476766295e+01    0.1469119    0.1394528 -42.35 0.0001430011    1.026    0.025
       344  -9.0887    158.8351    121.6592   6.7392960858e+01   2.6172475636e+01    0.4060293    0.2826221 -71.68 0.0009549719    2.059    0.514
       345  -7.7358    203.2013    121.9338   5.8287246549e+01   1.6777626359e+01    0.1955884    0.1061546 -41.54 0.0004177035    1.684    0.406
       346  -8.1509    194.9879    122.0425   5.9842805579e+01   1.8429529882e+01    0.2279071    0.1723617 -68.38 0.0005597111    1.631    0.387
       347  -8.8967    172.0052    121.6059   6.4417881626e+01   2.3353945045e+01    0.2756652    0.2058711 -58.57 0.0004243989    1.477    0.323
       348 -10.0837    130.5752    118.9253   7.3775239591e+01   3.2786980745e+01    0.5612828    0.4024659  65.95   0.00202209    1.815    0.449
       349  -9.7839     71.0974    119.5601   9.1853593145e+01   4.3412653723e+01     0.533404    0.3234972 -74.09  0.001353767    2.173    0.540
       350  -7.4851    250.7039    120.7152   5.0480293506e+01   8.1723268564e+00    0.1213636   0.09440803 -11.23 0.0002430821    1.545    0.353
       351 -10.1324    141.6303    117.9574   7.0640697279e+01   3.0665729354e+01    0.7026003    0.3492116 -51.21  0.002095751    2.154    0.536
       352  -9.6214      2.8923    117.2208   1.1407719216e+02   5.0698816384e+01    0.5019048    0.2417323  76.59  0.002148691    2.881    0.653
       353  -8.1315    231.3783    117.6784   5.2639579230e+01   1.2098409903e+01    0.2102174    0.1470495 -63.63 0.0009725018    1.700    0.412
       354  -8.0877    185.5423    116.0617   6.0254655670e+01   2.1566930323e+01      0.22352    0.1390164 -43.96 0.0004589224    1.522    0.343
       355  -9.9630    109.2759    114.2440   7.8563126341e+01   3.8152546092e+01     0.505008    0.3666523 -75.70  0.001421727    1.910    0.476
       356  -9.1071    249.7719    114.4562   4.9324282227e+01   9.3656927710e+00    0.4005095    0.1946027 -57.53  0.001687956    2.782    0.641
       357 -10.0692    248.5580    108.3323   4.8225181550e+01   1.0582752627e+01    0.3954997    0.2307013 -47.96  0.002095286    1.494    0.331
       358  -9.9106    249.7058    102.4833   4.6870675024e+01   1.1332144181e+01    0.3540276    0.1874208 -39.10  0.001502704    1.589    0.371
       359  -7.6402    153.2881    115.6451   6.7178353207e+01   2.8642982784e+01    0.1583282    0.1233983 -77.78 0.0007024723    1.675    0.403
       360 -10.1307     92.7714    112.6427   8.3190686749e+01   4.1590925749e+01    0.5351768    0.3515648 -68.34  0.001199917    1.968    0.492
       361  -8.6910     94.4544    104.3028   8.0464255630e+01   4.3228470433e+01    0.5473205    0.2209027  27.84  0.001655223    3.690    0.729
       362 -10.0276     79.0774    112.4791   8.7561831164e+01   4.3928517299e+01    0.6304474    0.4210644 -83.18  0.001797958    2.365    0.577
       363  -8.7813     78.3557    105.2982   8.5990123335e+01   4.5754741450e+01    0.2973104    0.2114448  -7.06 0.0007970155    1.812    0.448
       364  -7.9521    167.2635    114.4408   6.3672744926e+01   2.5839567505e+01    0.2037657    0.1490616  61.38 0.0007567249    1.558    0.358
       365 -10.3740    133.5268    109.6740   7.0566931517e+01   3.4199965322e+01    0.7864912    0.3588671 -44.50  0.002497604    2.168    0.539
       366 -10.3463    121.9100    111.9087   7.4315691081e+01   3.6153002004e+01    0.5975537    0.3855396 -51.09  0.001285822    1.590    0.371
       367  -9.9006    118.1067    104.4641   7.3379286189e+01   3.8581681121e+01    0.5412952     0.361992  68.08  0.002180694    2.224    0.550
       368 -10.3899    108.8259     98.8314   7.4516362490e+01   4.1696824099e+01    0.6579832    0.4457743  75.84   0.00126752    2.603    0.616
       369  -9.0575    108.0837     92.2722   7.2856015671e+01   4.3246568338e+01    0.5546026    0.2869834  25.98  0.001932321    2.852    0.649
       370  -8.4997     26.9973    113.5167   1.0552835075e+02   4.9977579264e+01    0.1823268    0.1357797  14.51 0.0005849206    1.550    0.355
       371  -8.4151    174.8211    112.0010   6.1440008680e+01   2.4677367182e+01    0.2331653    0.1959591 -64.10 0.0005600574    1.286    0.222
       372  -8.4277    159.2151    111.7635   6.4797062933e+01   2.8151778236e+01    0.2681716    0.1979665 -52.86 0.0006450569    1.402    0.287
       373  -9.9471     66.3425    110.5943   9.1368831810e+01   4.6296455886e+01    0.4276259    0.3294093  86.53  0.001415954    1.734    0.423
       374 -10.0496     13.9422    111.0596   1.0957951949e+02   5.1556043855e+01    0.3980959    0.2524671  66.98  0.001511269    2.017    0.504
       375  -7.7021    182.7969    109.0328   5.9080174000e+01   2.3518396943e+01    0.2048624    0.1134329 -41.26 0.0004945426    1.714    0.417
       376  -9.2353     43.3371    109.2359   9.9041428272e+01   4.9485468892e+01    0.3496436    0.1955181   6.15  0.001512319    2.423    0.587
       377  -8.0407    189.3619    108.1710   5.7597779496e+01   2.2262994920e+01     0.213717    0.1266694 -49.72 0.0003682644    1.686    0.407
       378  -9.0566    109.9919    107.1060   7.6456918740e+01   3.9637572134e+01    0.4425082    0.2540626  17.23  0.001515586    3.007    0.667
       379  -9.5847    139.8805    104.3499   6.7494775647e+01   3.3950253482e+01    0.5016446    0.3112371 -50.94  0.001646171    1.698    0.411
       380 -10.5648     45.4211    102.1276   9.6759326345e+01   5.0991436385e+01    0.8120264    0.4796228  70.70  0.003095056    3.339    0.701
       381  -9.4077     45.5810     92.7418   9.4489745779e+01   5.3203601318e+01    0.4682782    0.2645388  -1.07  0.001987695    2.528    0.604
       382 -10.6339     22.9627    102.5674   1.0498907858e+02   5.2991366659e+01    0.8054963    0.4498922  74.84  0.002758136    3.065    0.674
       383  -9.6254    150.5500    103.0655   6.4535333389e+01   3.1848542634e+01    0.4711416    0.2907499 -60.69  0.001054975    2.102    0.524
       384  -8.5302    166.7708    104.1252   6.1147756970e+01   2.8008026020e+01    0.2346281    0.1994047 -65.56 0.0006709485    1.270    0.212
       385  -9.0597      6.6097    102.9041   1.1086696028e+02   5.3983716682e+01    0.2873721    0.1822461  80.54  0.001216873    1.921    0.479
       386  -8.7244    185.0373    103.1986   5.7200642260e+01   2.4137585300e+01    0.2478293    0.1745912  89.63 0.0007261373    2.055    0.513
       387 -10.1193    128.5329    101.3625   6.9636277681e+01   3.7047170524e+01    0.5593724    0.3074501 -38.76  0.001677432    1.861    0.463
       388  -7.9264    175.4505    102.2219   5.8845368406e+01   2.6440219616e+01    0.2124148    0.1354212 -51.86 0.0009341105    1.625    0.385
       389  -8.2848    159.8829    101.0985   6.1866068445e+01   3.0147324113e+01    0.2357887    0.1986257 -71.75 0.0004806505    1.341    0.254
       390  -9.5160     82.1145     99.1459   8.3092806455e+01   4.6565973031e+01    0.6328059    0.2816555 -51.17  0.002245695    2.202    0.546
       391 -10.2015     64.1065     95.9354   8.8486498103e+01   5.0096666833e+01    0.6789802     0.437685 -80.42  0.001885327    2.629    0.620
       392  -9.2078     64.5134     87.9793   8.6171060153e+01   5.1847472968e+01    0.7302566    0.3124937  18.17  0.002302891    4.119    0.757
       393  -9.4095     94.9578     97.0367   7.8294238091e+01   4.4769483348e+01    0.3644182    0.2776516 -69.85 0.0005578227    1.689    0.408
       394  -8.2090    192.8907    115.1188   5.8603207173e+01   2.0193529249e+01    0.2281222     0.187292 -62.99 0.0005278148    1.312    0.238
       395  -8.3342    151.7430     95.0385   6.2087818242e+01   3.3173984266e+01    0.2280541    0.1675894  25.88 0.0008946845    1.663    0.399
       396  -7.9976    164.7552     94.1571   5.8969285628e+01   3.0381549742e+01    0.2411693    0.1779277 -58.24 0.0004893815    1.475    0.322
       397  -9.2133    139.0242     92.3621   6.4398534097e+01   3.6572653416e+01    0.3771261    0.2821625 -80.96 0.0008149246    1.881    0.468
       398 -10.3569    123.9752     90.9156   6.7911193298e+01   4.0187594180e+01    0.6080441    0.4890539 -16.33  0.002108885    1.411    0.291
       399  -7.6258    188.7163     93.3633   5.4074229326e+01   2.5130807803e+01    0.1523127    0.1076123 -67.35 0.0007018523    1.684    0.406
       400  -8.1391    176.4752     93.0921   5.6304834152e+01   2.7919428757e+01    0.2249104    0.1402934 -42.43 0.0006143334    1.545    0.353
       401  -8.0189    157.8537     91.8065   5.9830239322e+01   3.2401087818e+01    0.2093862    0.1757546 -71.55 0.0005351006    1.336    0.251
       402  -9.6901     34.7840     89.7696   9.7893481762e+01   5.5026603521e+01    0.4741908    0.2855996 -84.90   0.00181747    2.668    0.625
       403  -9.0756     22.9628     90.1006   1.0253126077e+02   5.5972495702e+01    0.2868023    0.2334725   6.91  0.001111642    1.361    0.265
       404  -7.8962    151.1312     89.1993   6.0623819098e+01   3.4433474742e+01    0.2074018    0.1745577 -69.27 0.0003807059    1.330    0.248
       405 -10.2039     86.5902     86.0173   7.7827452473e+01   4.8681914642e+01    0.6924529    0.4485706 -51.49  0.001708599    1.628    0.386
       406  -7.5418    188.2837     87.3058   5.2641094369e+01   2.6298175265e+01    0.1374286    0.1146045   7.88  0.000226873    1.561    0.359
       407  -9.9699     48.3665     83.7042   9.1084943754e+01   5.4948927488e+01    0.5781404    0.3945845 -79.83  0.002138423    2.249    0.555
       408  -9.5704      5.2960     92.3333   1.0965935135e+02   5.6577819348e+01    0.3585216    0.2102164  55.45  0.001472882    2.364    0.577
       409  -9.6900    104.7845     83.1714   7.1136955945e+01   4.5782204394e+01    0.4630095     0.338904 -72.99  0.001230682    2.044    0.511
       410  -8.6414    105.8821     77.0488   6.8911544928e+01   4.6756112907e+01    0.4132251    0.2218095  24.42  0.001395601    2.870    0.652
       411  -8.3588    158.0062     84.0219   5.7672432274e+01   3.3807131451e+01    0.2241663    0.2117608 -58.33 0.0003861783    1.055    0.052
       412  -9.1684    140.8773     82.6273   6.1169187224e+01   3.8013969786e+01     0.418808     0.206467 -46.53  0.001071569    2.135    0.532
       413  -9.5603     10.1228     81.3200   1.0577199027e+02   5.8879339792e+01    0.4098659    0.2240977  57.58  0.001436243    3.062    0.673
       414  -8.0618     35.4785     82.4823   9.5844358063e+01   5.6634957543e+01    0.1370421    0.1157853 -35.89 0.0001156934    1.016    0.016
       415  -9.6766     24.5908     80.4673   9.9736745110e+01   5.8070426766e+01     0.475979    0.2899795 -81.77  0.001782469    2.363    0.577
       416  -9.4045     28.5000     70.9275   9.5691994833e+01   5.9854984636e+01     0.530849     0.222986 -24.66   0.00192915    3.623    0.724
       417  -8.6072    150.1918     80.6898   5.8455308372e+01   3.6220176935e+01    0.2650479    0.1983028 -51.66 0.0006555823    1.400    0.286
       418  -8.6923    119.4735     80.1793   6.5962352092e+01   4.3270455859e+01    0.3842792    0.2387655 -49.21  0.001261436    1.752    0.429
       419  -8.8480     74.4445     80.4536   8.0355274450e+01   5.1941742325e+01    0.3177438    0.2406774 -64.45  0.001083751    1.679    0.404
       420  -8.1614    166.8023     79.5889   5.4651408537e+01   3.2552312353e+01     0.227391    0.1669256 -45.62 0.0004876721    1.348    0.258
       421  -9.3364    128.1889     75.5720   6.2239699345e+01   4.2192156616e+01    0.3991514    0.2523512 -53.26 0.0008957422    1.850    0.459
       422  -8.6450    139.7773     75.0802   5.9233208586e+01   3.9632525791e+01     0.323521    0.2275553  84.22  0.001409925    2.043    0.510
       423  -9.7041     82.4478     72.6585   7.5076473749e+01   5.2147559874e+01    0.4780893    0.3172798 -62.13 0.0009888173    2.163    0.538
       424  -8.5400     83.9671     64.9384   7.1994618094e+01   5.3333274285e+01    0.3987955     0.221743  10.06  0.001342278    3.746    0.733
       425  -9.9601     63.1278     73.6270   8.2423001732e+01   5.5134032181e+01    0.4329109    0.2812113 -59.18   0.00102709    1.893    0.472
       426  -8.0720    163.4957     73.0807   5.3534391807e+01   3.4435337379e+01    0.2170878    0.1406328 -40.70  0.001011364    1.541    0.351
       427  -8.6861    115.7039     72.9129   6.4767024536e+01   4.5442514241e+01    0.2653778    0.2016625 -56.15 0.0006600476    1.540    0.351
       428  -9.2098    106.0540     72.0340   6.7272015689e+01   4.7662310931e+01    0.3180793    0.2313454 -54.95  0.000752322    1.635    0.388
       429  -8.3347     42.5210     73.0034   9.0410543535e+01   5.7978034355e+01    0.2036738    0.1219545 -51.06 0.0004544045    1.545    0.353
       430  -7.7880    175.4946     72.5584   5.1132821038e+01   3.1720125009e+01    0.1414704    0.1354555 -84.92 9.662988e-05    1.019    0.018
       431  -9.2848     95.1310     71.0645   7.0332702214e+01   5.0061744779e+01    0.4144871    0.2433002 -53.86  0.001410828    2.154    0.536
       432  -8.1983     95.3296     64.3503   6.8048667857e+01   5.1246759265e+01    0.2835571    0.1635014  -2.94 0.0009362127    3.826    0.739
       433  -9.4032     51.4636     69.5806   8.5732984858e+01   5.7602020931e+01    0.4410096    0.2619743 -65.15  0.001433186    2.502    0.600
       434  -9.4744     16.5714     69.2591   1.0037993016e+02   6.1171561278e+01     0.511178    0.2039451 -64.46  0.001916277    2.556    0.609
       435  -7.5940    157.0000     69.9577   5.3968690673e+01   3.6482105584e+01    0.2236953   0.08268353 -36.55 0.0003585387    2.761    0.638
       436  -8.9084    147.1025     68.2246   5.5559486806e+01   3.9098070701e+01    0.3020704    0.2002223 -44.89 0.0005083027    1.557    0.358
       437  -8.7337    138.6623     66.0879   5.6819338712e+01   4.1427606495e+01    0.2982753    0.2086723 -56.76  0.000807697    1.671    0.402
       438  -8.8496    121.5444     65.9850   6.1002030890e+01   4.5369220698e+01    0.2885002    0.2286517 -62.87 0.0007285624    1.539    0.350
       439  -8.9091    110.3289     63.9610   6.3414304737e+01   4.8186256558e+01    0.2718323    0.2422591 -65.56 0.0009141169    1.333    0.250
       440  -9.3102     37.2312     64.3104   9.0034686224e+01   6.0389695070e+01     0.307474    0.2310892 -76.45  0.001002123    1.989    0.497
       441  -8.8749     64.4029     63.1188   7.8499892635e+01   5.7023335631e+01    0.3349353     0.210064   3.83  0.001488919    2.106    0.525
       442  -8.1393    158.2663     61.9919   5.1470664879e+01   3.7463148645e+01    0.1964081    0.1807531 -53.82 0.0003730184    1.101    0.092
       443  -8.0017     51.3462     62.3250   8.3440987450e+01   5.9076481507e+01    0.1457461   0.09425484 -14.32 0.0007050071    1.744    0.427
       444  -9.2318     97.7170     60.5258   6.6008211246e+01   5.1427972323e+01    0.3133694    0.2740676  65.00 0.0009792133    1.360    0.265
       445  -9.5986     73.2964     59.5270   7.3911862899e+01   5.6226227622e+01    0.3782782    0.2358454 -50.92  0.001068804    1.919    0.479
       446  -8.2125    147.0000     58.9952   5.2874848038e+01   4.0598144706e+01    0.2258196   0.08217391 -34.78 0.0005508128    2.876    0.652
       447  -8.2378     88.9751     59.3141   6.8383016515e+01   5.3381433012e+01    0.1946736    0.1756179  25.35 0.0004492216    1.061    0.058
       448  -9.8657     23.4115     56.4075   9.3768032735e+01   6.3344796677e+01     0.406523    0.2928149  86.25  0.001918177    2.651    0.623
       449  -8.2377    130.7822     57.7738   5.6110952886e+01   4.4594557575e+01    0.1926927    0.1677019 -80.77 0.0005281689    1.325    0.245
       450  -9.5774      7.5007     57.1686   1.0136944363e+02   6.4331439805e+01    0.2685739    0.2006175 -86.50  0.001034362    1.883    0.469
       451  -8.6389    139.9081     55.9458   5.3474995953e+01   4.2739382522e+01    0.2502787    0.1896563 -44.07 0.0006049785    1.389    0.280
       452  -9.1663    118.8856     55.3120   5.8262772873e+01   4.7701526217e+01    0.3933256    0.2026196 -42.38  0.001483762    2.095    0.523
       453  -8.9477     62.8870     54.7830   7.6172235939e+01   5.8798738424e+01    0.2743743    0.1817398 -43.50 0.0007426128    1.566    0.361
       454  -8.8866     44.0029     55.6678   8.4288821018e+01   6.1314678140e+01    0.2422613    0.1844798 -48.53 0.0008578085    1.411    0.291
       455  -8.9461     54.0109     53.7596   7.9378444223e+01   6.0324784642e+01    0.3367372    0.1892593 -55.38  0.001124493    2.427    0.588
       456  -8.6945    105.8579     53.2285   6.1096700589e+01   5.0904178527e+01    0.2959062    0.1923342 -51.73 0.0008957791    1.929    0.482
       457  -9.5123     92.3988     50.7004   6.4244659507e+01   5.4117763524e+01    0.3935232    0.2363652 -46.51  0.001179987    1.969    0.492
       458  -8.5034    144.5815     49.0062   5.0399610799e+01   4.2646117276e+01    0.2041308     0.137235 -34.99 0.0004712098    1.576    0.365
       459  -8.5779    129.7144     49.1580   5.3641593605e+01   4.6130821611e+01    0.2175099    0.1730498 -55.62 0.0005811055    1.430    0.301
       460  -8.4587    120.8542     47.3317   5.5146813038e+01   4.8440059160e+01    0.2214356    0.1878711 -45.13  0.000518467    1.295    0.228
       461  -9.1418     82.2075     46.6938   6.6114531861e+01   5.6751243869e+01    0.2756087    0.2163277 -62.65 0.0009411323    1.873    0.466
       462  -8.4843    112.1562     46.9216   5.7216999850e+01   5.0465470841e+01    0.2042354    0.1874176 -76.52 0.0004840058    1.291    0.225
       463  -8.4785     45.0438     44.5859   7.9819280566e+01   6.3193926400e+01    0.2199342    0.1719143 -49.15  0.000559365    1.555    0.357
       464  -9.0633     16.6478     44.8100   9.3308986533e+01   6.6182776924e+01    0.1985009    0.1797915 -81.67  0.000703757    1.629    0.386
       465  -8.8550     92.8204     42.5239   6.1150613379e+01   5.5256438791e+01    0.3259799    0.1884639  -9.63  0.001384877    2.539    0.606
       466  -8.8396     32.3948     44.4106   8.5533554793e+01   6.4765574270e+01    0.2447819    0.1074677  10.94 0.0009569808    3.392    0.705
       467  -8.2675    132.5371     43.0736   5.1083751378e+01   4.6313713037e+01    0.1986596    0.1381259 -32.63  0.000586748    1.551    0.355
       468  -9.2489     69.6549     41.5602   6.8613820930e+01   5.9851721778e+01    0.3273966    0.2306814 -53.82  0.001081786    2.037    0.509
       469  -8.8300     58.1786     42.5398   7.3456539999e+01   6.1619566743e+01    0.2781203    0.2032129 -56.75  0.001175078    2.043    0.511
       470  -9.6265      5.2463     41.8629   9.8117473662e+01   6.7539591168e+01    0.3220032    0.1999701 -74.55  0.001639137    2.445    0.591
       471  -8.8402    106.0107     41.2894   5.6906877880e+01   5.2615433590e+01    0.2757218     0.185963 -42.32 0.0008167308    1.675    0.403
       472  -7.7619    140.3728     41.1915   4.8873688725e+01   4.4709412339e+01    0.1856673    0.1241931 -44.49  0.000626441    1.613    0.380
       473  -8.5309     36.9477     40.7273   8.2012537567e+01   6.4889373184e+01    0.2252471    0.1735328 -42.81 0.0006218728    1.413    0.292
       474  -8.8502     95.8239     38.2822   5.8691578014e+01   5.5218116219e+01    0.2177876    0.1857587 -42.68 0.0007635928    1.363    0.266
       475  -8.3440     80.8286     36.7414   6.2797044438e+01   5.8474214377e+01    0.2263836    0.1708534 -58.56 0.0009558632    1.976    0.494
       476  -9.3762     26.1685     35.5862   8.5217055366e+01   6.6984812729e+01     0.273026    0.2209645 -56.72  0.001000066    1.712    0.416
       477  -8.0594    133.4159     36.1883   4.8720783902e+01   4.6996247269e+01    0.1861852    0.1235234 -45.09 0.0005509289    1.668    0.401
       478  -8.2311    125.9885     35.6998   5.0134322405e+01   4.8801352712e+01    0.1941916    0.1590909  54.42 0.0003722455    1.103    0.094
       479  -8.6197    111.8811     34.4257   5.2982285707e+01   5.2201888103e+01    0.2928497    0.1663818 -39.08  0.001187782    1.953    0.488
       480  -7.7197     88.5336     34.5384   5.9477769056e+01   5.7231392758e+01    0.1332967    0.1198412  29.08 0.0001065716    1.055    0.052
       481  -8.9217     48.4583     33.2039   7.3772169864e+01   6.4559044420e+01    0.2543992    0.2053528 -40.79 0.0008040978    1.500    0.333
       482  -8.4021    119.1766     33.1908   5.0823871079e+01   5.0689115924e+01    0.1791523    0.1563507 -68.90   0.00049201    1.346    0.257
       483  -8.5883     60.7578     32.6888   6.8452967729e+01   6.2690724099e+01    0.2254776    0.1668339 -40.60 0.0003982203    1.594    0.373
       484  -8.1756    139.3868     32.1311   4.6281708889e+01   4.6073177123e+01    0.1910576    0.1175685 -44.57 0.0009455118    1.784    0.440
       485  -8.6952     72.1938     31.3219   6.3612142314e+01   6.0851212005e+01    0.2172262    0.1965408  80.75 0.0006596222    1.608    0.378
       486  -8.9649     12.8495     30.2857   9.0082095200e+01   6.9131730316e+01    0.2629137    0.1559442 -53.02 0.0009599079    1.848    0.459
       487  -8.5761    101.6733     29.3973   5.3795892550e+01   5.5082524451e+01    0.2185921    0.1577089 -40.92 0.0007002728    1.604    0.377
       488  -7.7897     42.2060     29.9983   7.5209507005e+01   6.5936153738e+01    0.1572199   0.09080179 -34.72 0.0003859345    1.670    0.401
       489  -8.7599     81.5967     27.5635   5.8930332744e+01   5.9515253608e+01    0.2255416    0.2049035 -70.70 0.0007782166    1.523    0.343
       490  -8.9780      3.6902     27.7178   9.4161831218e+01   7.0247882022e+01    0.2027677    0.1661381 -56.75 0.0007565828    1.553    0.356
       491  -8.9930     91.8827     26.2231   5.5296829933e+01   5.7560360544e+01    0.3079726    0.1748262 -41.93   0.00112684    2.141    0.533
       492  -8.4634    104.4806     22.9629   5.0729007887e+01   5.5188733218e+01    0.1788375    0.1299051 -25.59 0.0004590372    1.527    0.345
       493  -7.7669     34.6276     23.2762   7.5837678858e+01   6.7942599116e+01    0.1065283   0.09517298  44.01 0.0007006116    1.689    0.408
       494  -8.9825     63.5474     21.1110   6.2454476272e+01   6.3717449477e+01    0.2689967    0.2081093 -46.77  0.000977597    1.801    0.445
       495  -8.7277     48.2369     21.6053   6.8824592237e+01   6.6225709616e+01    0.1972191    0.1838607 -21.19 0.0006079088    1.415    0.294
       496  -7.9052    120.5475     20.7728   4.6337836752e+01   5.1761138566e+01    0.1737375    0.1181025 -44.28 0.0009338269    1.702    0.413
       497  -9.0019     74.1879     19.7043   5.8117302980e+01   6.1889130461e+01    0.2544296    0.1848338 -47.12 0.0008471055    1.888    0.470
       498  -8.0562     19.4469     21.2681   8.2757320275e+01   7.0004483595e+01    0.1487705    0.1051967 -44.37 0.0009429806    1.642    0.391
       499  -7.8736     11.5447     20.4990   8.6813801868e+01   7.0868961837e+01    0.1175746   0.08907738 -15.63 0.0001044062    1.017    0.017
       500  -8.3374     88.0084     17.6987   5.3070396082e+01   5.9306171608e+01    0.1811098    0.1481981  43.62 0.0004247471    1.078    0.072
       501  -7.9392     38.8007     18.5576   7.1677449597e+01   6.8027750983e+01    0.1491449    0.1060592  37.13 0.0004421047    1.527    0.345
       502  -7.8388    191.7723    249.6042   8.5555011455e+01  -4.4097053872e+00     0.170212    0.1001364  37.75 0.0005619681    1.667    0.400
       503  -7.9310     97.1593     15.1519   4.9646189429e+01   5.7598278273e+01    0.1588863    0.1484552 -83.18 0.0003959656    1.306    0.235
       504  -7.9217     17.3992     14.2541   8.0662683282e+01   7.1258278249e+01    0.1420168   0.09977703 -38.39 0.0003396035    1.552    0.356
       505  -8.2356     30.0662     16.0191   7.4740940235e+01   6.9542685788e+01    0.1533556    0.1515499   5.04 0.0007450941    1.693    0.409
       506  -7.9927    184.9823    250.0000   8.6965564064e+01  -3.5337392143e+00    0.2038751   0.06080694  33.84 0.0006454913    2.903    0.656
       507  -7.7491     47.6953     10.3417   6.3793840483e+01   6.7663562182e+01    0.1022793    0.0985465 -63.93 0.0006824576    1.682    0.405
       508  -8.9796    175.6179    247.9449   8.8546211879e+01  -1.8966884473e+00    0.2817341    0.2234481  66.21  0.001165941    2.072    0.517
       509  -8.8319    132.1983    247.7807   9.7589687735e+01   4.4696157652e+00    0.2645883    0.1925739  70.62 0.0007498742    1.921    0.480
       510  -8.3861    113.2686    248.5534   1.0170814379e+02   7.0912163597e+00    0.2115985    0.1514004 -79.02   0.00121189    1.823    0.452
       511  -9.2425    103.9951    246.9475   1.0349366091e+02   8.7194537771e+00     0.460946     0.259407 -86.91  0.002066589    3.100    0.677
       512  -8.8385    242.6780    246.4323   7.5514948504e+01  -1.0411314978e+01    0.3183915    0.1109527 -33.40  0.001526949    2.661    0.624
       513  -8.7158    218.5399    246.9948   7.9986591586e+01  -7.5653205665e+00     0.326465    0.1058502 -38.24  0.001434922    3.086    0.676
