#   1 NUMBER                 Running object number                                     
#   2 MAG_AUTO               Kron-like elliptical aperture magnitude                    [mag]
#   3 X_IMAGE                Object position along x                                    [pixel]
#   4 Y_IMAGE                Object position along y                                    [pixel]
#   5 X_WORLD                Barycenter position along world x axis                     [deg]
#   6 Y_WORLD                Barycenter position along world y axis                     [deg]
#   7 A_WORLD                Profile RMS along major axis (world units)                 [deg]
#   8 B_WORLD                Profile RMS along minor axis (world units)                 [deg]
#   9 THETA_WORLD            Position angle (CCW/world-x)                               [deg]
#  10 FWHM_WORLD             FWHM assuming a gaussian core                              [deg]
#  11 ELONGATION             A_IMAGE/B_IMAGE                                           
#  12 ELLIPTICITY            1 - B_IMAGE/A_IMAGE                                       
         1 -10.9928    177.0546     15.7501   7.2298681296e+01   3.8421490948e+01    0.4033052    0.1952329  -5.67  0.001483216    2.839    0.648
         2 -10.6352    196.1354     10.3907   6.8396765685e+01   3.3982470618e+01    0.2223687    0.1787822  -9.09  0.001206439    1.333    0.250
         3 -11.8697     49.0184      4.8562   1.0057174276e+02   7.0252986718e+01    0.4313781     0.170344 -36.94  0.001125394    2.338    0.572
         4 -11.0565      2.3927      3.2089   1.2929282910e+02   7.5810563520e+01    0.1645309   0.09891953 -69.26 0.0009580416    1.726    0.421
         5 -10.4919    149.9936      2.4821   7.1269125338e+01   4.6943799485e+01     0.221967    0.1339684  66.21 0.0005020294    1.555    0.357
         6 -10.5513    105.8608      1.7966   7.9038965583e+01   5.8549124763e+01    0.1923358    0.1666587 -54.68 0.0007996421    1.326    0.246
         7 -10.2179     38.6578      2.6678   1.0471448797e+02   7.2206642610e+01     0.134193   0.08828133  -5.40 -4.057928e-05    1.753    0.429
         8 -13.7544     68.1142    144.6767   1.3358432199e+02   3.7556817908e+01     1.059288    0.5306908  51.88  0.003070334    1.945    0.486
         9 -15.4584    177.8998     75.4841   9.0910153543e+01   3.0203554972e+01      3.43049     1.665316 -47.78   0.01293933    2.441    0.590
        10 -14.5760    159.6489     70.0101   9.2957719813e+01   3.5486264222e+01     1.720993    0.7809296  47.63  0.003264459    2.179    0.541
        11 -17.9040    236.9901    121.7703   9.2498239314e+01   1.0929043045e+01     11.44783      4.15967 -30.00   0.04784609    2.527    0.604
        12 -15.5904     70.9579    161.5260   1.3492637723e+02   3.3664373609e+01      1.74355     1.311568 -17.05  0.008396274    2.182    0.542
        13 -10.2873     24.1253    105.1362   1.4111789187e+02   5.1224003662e+01    0.1775806    0.1472414 -61.93 0.0005186149    1.217    0.178
        14  99.0000    162.4824     35.6720   8.1250543073e+01   3.9924478503e+01     10.29437     7.812084  40.75   0.05072549    1.357    0.263
        15  -9.9793     20.9245     99.6956   1.4150558981e+02   5.2746098968e+01    0.1582695    0.1362681  78.26 0.0002518258    1.090    0.083
        16  -9.3586     91.2532     95.6357   1.1823337549e+02   4.5004443038e+01    0.1434228    0.1091447 -89.37 0.0006960874    1.624    0.384
        17 -11.0314    123.5430    134.4847   1.1790171287e+02   3.0998139485e+01    0.3497012     0.240555  77.23  0.001333431    2.135    0.532
        18 -10.0633    102.0730    135.3249   1.2342268745e+02   3.4545441918e+01    0.1891835    0.1613441  47.79 0.0004406814    1.104    0.094
        19 -10.2936     89.0921    170.5304   1.3177958244e+02   2.9415591380e+01    0.1836651    0.1087966  38.87 0.0003521225    1.509    0.337
        20 -10.9553    207.6842     78.4466   8.6553163178e+01   2.2807479428e+01    0.4562218    0.2311808  -8.67  0.001607739    3.183    0.686
        21 -12.2212    153.4838    132.0464   1.1041459487e+02   2.5775144057e+01     0.274378    0.2346455 -12.94 0.0008995764    1.278    0.218
        22 -10.5079    175.4753    163.5083   1.1202357176e+02   1.6394533062e+01    0.1313623    0.1137617  26.46 5.486676e-05    1.014    0.014
        23 -13.2155    186.5681     63.4675   8.5848204313e+01   2.9929561988e+01     0.767388    0.6684712  19.31  0.003105008    1.200    0.166
        24 -11.1802    204.9912     64.6516   8.3216885643e+01   2.5343488639e+01    0.2417448    0.2087356 -43.96 0.0007396152    1.177    0.150
        25 -12.7307    149.6509    130.3418   1.1090822498e+02   2.6839368380e+01    0.5613675    0.2242629  42.36  0.002153235    2.366    0.577
        26 -12.6387    165.3106    152.3256   1.1198378552e+02   2.0014163593e+01    0.3884561    0.2797259  44.26  0.002138841    1.296    0.228
        27 -13.4352    198.0254     52.5205   8.0810971163e+01   2.8647394928e+01    0.5065025     0.415337  52.85  0.002705755    1.250    0.200
        28 -11.2870    203.4615     50.5067   7.9441444419e+01   2.7586367771e+01    0.2422506    0.1678846  56.76 0.0001542064    1.481    0.325
        29 -13.1459    172.3110    149.9252   1.1008245592e+02   1.9102668542e+01    0.7195534    0.2599599  51.50  0.002501216    3.471    0.712
        30 -12.4725    175.4035    154.4694   1.1034381053e+02   1.7807006391e+01    0.4199436    0.2513893  61.61  0.001858761    2.597    0.615
        31 -11.2655    212.5205     47.8263   7.7457234293e+01   2.5748216651e+01    0.3709726    0.2524532  74.77  0.001832656    1.682    0.406
        32 -11.1082     34.2508     46.2530   1.2615918473e+02   6.4117327411e+01    0.2705539    0.1780465 -67.60  0.001472544    1.491    0.329
        33 -12.8819    186.3294     44.0894   8.0054135195e+01   3.2669928401e+01    0.4818284    0.2398663 -41.58  0.001553359    2.000    0.500
        34 -13.3629     62.1505    169.7699   1.3784933270e+02   3.3112100497e+01    0.3456399    0.3146712 -38.34 0.0009190427    1.470    0.320
        35 -10.9543    205.1528     42.6835   7.6955661694e+01   2.8157709421e+01    0.3694018    0.1820164  37.58   0.00105086    2.604    0.616
        36 -11.0507    134.0000    147.0563   1.1781831786e+02   2.6683147613e+01    0.5377558    0.1861963 -50.92  0.001987476    3.285    0.696
        37 -11.0572    132.7196    140.3215   1.1684508053e+02   2.8188030003e+01    0.5106874    0.1405293 -52.80  0.001535082    4.750    0.789
        38 -12.4533     23.0158     37.8002   1.2907607580e+02   6.7031903713e+01    0.4413112    0.1268581 -55.17  0.001800385    2.550    0.608
        39 -11.7212     16.9700     38.5210   1.3234507037e+02   6.7327928072e+01    0.2362597    0.1581564 -63.39 0.0003998535    1.259    0.206
        40 -11.4499    143.8399    145.7524   1.1534476089e+02   2.5130369125e+01    0.3192034    0.1970859 -67.03  0.001408009    2.555    0.609
        41 -10.1659     11.6872     28.7061   1.3240400805e+02   6.9865214816e+01     0.127094    0.0731411 -39.39 0.0002657793    1.595    0.373
        42 -10.3996     93.4563     25.4683   9.3657964227e+01   5.8489856151e+01    0.2795066    0.1358675 -33.54 0.0008487382    2.001    0.500
        43 -12.0261    186.8910     22.7693   7.3306632368e+01   3.5095104276e+01    0.2761264    0.2111871  14.68  0.001321646    1.519    0.342
        44 -12.2836    150.2108    142.3749   1.1326941564e+02   2.4549566797e+01     0.348964    0.2496271  60.16  0.001784311    1.633    0.388
        45 -12.1259    159.7097    138.1592   1.1033982544e+02   2.3475539316e+01    0.2509537    0.1828762  51.98  0.001309353    1.412    0.292
        46 -12.0619    194.1104    236.8949   1.1980831530e+02   4.1029570236e+00    0.4041793    0.2059203  52.01  0.001853824    2.954    0.662
        47 -10.1787    186.4513    234.4590   1.2077836020e+02   5.4159190875e+00    0.1095336   0.07995193  29.69 4.848305e-05    1.030    0.029
        48 -15.9970     27.6113    190.5538   1.4685432029e+02   3.2844567120e+01     2.526578     1.398448  40.52   0.01673666    1.525    0.344
        49 -13.7997     53.0015    180.4808   1.4084396025e+02   3.2093667853e+01      1.81567    0.5656856  60.89  0.006286654    5.053    0.802
        50 -11.6086    192.4481    194.1833   1.1404495064e+02   9.2610459504e+00    0.7067679    0.4000013 -61.61  0.002484247    7.045    0.858
        51 -10.0972    198.1016    192.2932   1.1273465675e+02   8.6052905850e+00    0.1691866    0.1241815  31.83 0.0003612555    1.132    0.116
