#   1 NUMBER                 Running object number                                     
#   2 MAG_AUTO               Kron-like elliptical aperture magnitude                    [mag]
#   3 X_IMAGE                Object position along x                                    [pixel]
#   4 Y_IMAGE                Object position along y                                    [pixel]
#   5 X_WORLD                Barycenter position along world x axis                     [deg]
#   6 Y_WORLD                Barycenter position along world y axis                     [deg]
#   7 A_WORLD                Profile RMS along major axis (world units)                 [deg]
#   8 B_WORLD                Profile RMS along minor axis (world units)                 [deg]
#   9 THETA_WORLD            Position angle (CCW/world-x)                               [deg]
#  10 FWHM_WORLD             FWHM assuming a gaussian core                              [deg]
#  11 ELONGATION             A_IMAGE/B_IMAGE                                           
#  12 ELLIPTICITY            1 - B_IMAGE/A_IMAGE                                       
         1 -13.5747    157.5101     50.6114   8.5196134898e+01   3.9150264977e+01     1.797986     1.298089   7.88  0.005655102    1.691    0.409
         2 -13.4309    168.8208     35.1826   7.8066812230e+01   3.8430919498e+01    0.9780552    0.8447044 -27.13   0.00322192    1.188    0.158
         3 -11.1748    189.5118     14.7635   6.8659991294e+01   3.5486961804e+01    0.2769802    0.2361763 -35.49 0.0009011251    1.215    0.177
         4 -12.9126    184.3153      3.9553   6.6134022376e+01   3.7844730946e+01    0.9828635     0.513662  64.59  0.004177541    1.712    0.416
         5  -9.5243    220.5775    228.8833   1.1428434133e+02  -2.8235104395e+00    0.2403928    0.1041294 -44.30  0.001130625    3.464    0.711
         6 -19.7629     60.5832    162.5238   1.3626333460e+02   3.4264500629e+01     18.31752     4.104645 -66.41   0.06066816    4.551    0.780
         7 -10.9273    151.0385    220.7323   1.2556098312e+02   9.6402715501e+00    0.3448456    0.1578473  33.49  0.001609308    2.281    0.562
         8  -9.1862    170.2383    205.2159   1.1963764816e+02   8.7967707284e+00    0.1594617    0.1403919  63.91 0.0003765916    1.302    0.232
         9 -12.8091    193.8416    193.6804   1.1318097451e+02   6.3795782521e+00    0.9767452    0.7008525 -63.05  0.003898811    2.234    0.552
        10  -9.1142    211.4839    201.5209   1.1130489126e+02   2.1393815055e+00    0.1281654    0.1074516  22.41 0.0002931905    1.031    0.030
        11 -11.1425    136.1919    197.2410   1.2507204620e+02   1.6007763175e+01    0.3277242    0.2410063  80.27  0.001201619    1.737    0.424
        12  -9.7470    178.0304    196.8455   1.1676023911e+02   8.7320409891e+00    0.2508044    0.2103219  85.64  0.001477702    1.681    0.405
        13 -10.8773    180.2929    193.8413   1.1580584232e+02   8.7992681887e+00    0.4446925    0.2643338 -55.30  0.002158869    2.364    0.577
        14 -10.3535    158.2660    193.8254   1.2013001952e+02   1.2759719072e+01    0.2409732    0.1952875 -82.67   0.00139506    1.638    0.390
        15  -9.0863    182.4599    189.4761   1.1461551430e+02   9.0989657599e+00    0.1331988    0.1173509  30.09 9.535444e-05    1.017    0.017
        16 -11.3603    207.5858    183.7609   1.0875607446e+02   5.3738848067e+00    0.3463566    0.3113377   5.25  0.001100792    1.084    0.078
        17 -11.5239    210.6609    181.5213   1.0775215909e+02   5.1444937539e+00    0.4377571    0.2904518 -12.77  0.001804168    1.727    0.421
        18  -9.0078    157.2988    184.6732   1.1878393962e+02   1.4512814261e+01    0.1312051    0.1032979  76.32 0.0003543078    1.635    0.388
        19 -10.4440    197.6807    176.3571   1.0920562820e+02   8.3552567557e+00    0.3679418    0.2356819 -45.99  0.001520665    1.840    0.456
        20  -9.6121    145.2591    178.5688   1.2021709087e+02   1.7802522544e+01    0.1920516    0.1217138  33.48 0.0009479329    1.615    0.381
        21 -12.3419    138.4803    171.9050   1.2049373261e+02   2.0286127623e+01    0.7233179    0.5250098  53.58  0.003897666    1.353    0.261
        22 -10.7237    145.5364    168.5120   1.1836688774e+02   1.9641561926e+01     0.286331    0.2528267 -84.11  0.001077676    1.287    0.223
        23 -10.2486    142.5164    167.5202   1.1883620346e+02   2.0391212847e+01    0.2527096    0.1975021  39.17  0.001085654    1.221    0.181
        24 -11.0382    126.3770    171.8625   1.2309981761e+02   2.2443951402e+01    0.2714121    0.1693031  61.83  0.001298829    1.883    0.469
        25  -9.8367    205.2783    170.6419   1.0661363410e+02   7.8147658484e+00    0.2302276     0.185335  63.22  0.001254385    1.636    0.389
        26  -8.8167    207.5798    168.5002   1.0574148191e+02   7.7112106437e+00    0.1380912    0.1214985  11.77  4.81866e-05    1.019    0.019
        27  -9.1458    169.4814    195.2577   1.1815410019e+02   1.0517837746e+01    0.1638723    0.1282109 -61.70 0.0009363809    1.646    0.392
        28 -10.1650    226.1575    167.5431   1.0211504046e+02   4.3513926198e+00    0.2713861    0.1579808 -59.69 0.0009608167    4.491    0.777
        29  -9.7258    135.9667    219.2375   1.2817225815e+02   1.2325905306e+01    0.1697698    0.1348062  45.66    0.0011143    1.059    0.055
        30  -9.9125     25.2968    165.4468   1.4413795268e+02   3.7442647368e+01    0.2000127    0.1674551  21.17  0.001052055    1.668    0.401
        31  -9.4759    200.7808    164.3732   1.0619473611e+02   9.6850730017e+00    0.2761371    0.1651587 -65.17 0.0009596845    4.235    0.764
        32 -12.0734     13.6639    248.9384   1.5130219495e+02   2.3259134333e+01    0.1792818     0.104437 -87.19  0.001437629    1.493    0.330
        33 -11.8887    134.0503    146.1376   1.1659115378e+02   2.6238319936e+01     1.231505    0.3187417 -54.13  0.003143131    5.809    0.828
        34 -10.0424    174.7783    148.7018   1.0811667757e+02   1.7627069107e+01     0.288469    0.2021826 -50.35 0.0009729756    1.604    0.377
        35 -11.2522    144.2866    145.6688   1.1414741563e+02   2.4360259152e+01    0.4077105    0.3035081 -86.50  0.001922873    1.921    0.480
        36  -9.2870    127.9474    143.4470   1.1746340657e+02   2.7941137775e+01    0.1994878    0.1183611  64.09 0.0008060278    2.385    0.581
        37 -11.7488    115.2812    139.4566   1.1967349297e+02   3.1087350263e+01    0.5477228    0.3046997 -42.75  0.002438274    1.925    0.480
        38 -12.2765    105.6685    139.6622   1.2205066218e+02   3.2702899450e+01    0.4497843    0.3288812  56.76  0.002359513    1.443    0.307
        39 -10.2288      3.7807    225.1257   1.5174556886e+02   2.8096169284e+01     0.117877   0.07130024 -75.60 0.0006730473    1.592    0.372
        40 -11.8093    106.0535    130.9145   1.2020341020e+02   3.4542954940e+01    0.4092467    0.3407156 -76.32  0.001289551    1.270    0.213
        41 -10.9318    108.5949    125.8719   1.1849326900e+02   3.5203935010e+01    0.3149773    0.2579494 -27.70 0.0007586408    1.397    0.284
        42 -11.3617    119.7266    129.8461   1.1656946874e+02   3.2342659882e+01    0.3785773     0.338589 -79.87  0.001332377    1.187    0.157
        43 -11.6346    135.8810    124.5273   1.1141238118e+02   3.0353853100e+01    0.8305028    0.2596355 -46.70  0.002660225    3.215    0.689
        44  -9.7304    143.8887    128.3570   1.1040215185e+02   2.7946602096e+01    0.2286346    0.1970998 -57.12 0.0002783096    1.225    0.184
        45 -11.8275    126.4451    127.6437   1.1442718364e+02   3.1548859768e+01    0.6443021    0.4183366  78.99  0.002542471    2.750    0.636
        46 -10.3863    160.8394    127.7594   1.0636918947e+02   2.4523151036e+01    0.3153728    0.2131004 -52.42  0.001435047    1.645    0.392
        47 -10.3966    113.8176    119.0102   1.1562101587e+02   3.5759592513e+01    0.2361394    0.2090242  44.69 0.0003674664    1.163    0.140
        48 -10.8743    170.5916    116.3633   1.0140474203e+02   2.4586078018e+01    0.5756333    0.3785395 -77.09  0.001543905    3.037    0.671
        49  -9.9257    205.6113    110.1087   9.2723120239e+01   1.7806749823e+01    0.2854373    0.2126562  38.78 0.0006960981    1.360    0.264
        50 -11.6069     10.5100    206.6234   1.4975824631e+02   3.0756131578e+01     0.327792    0.2559664  76.77  0.002744474    1.128    0.114
        51  -9.9391    165.7054    207.3515   1.2084017026e+02   9.2494770291e+00    0.2622885    0.2162276  47.62 0.0008736451    1.134    0.118
        52 -10.1218    134.3984    103.5077   1.0651445208e+02   3.4989925891e+01    0.3726524    0.1420426 -38.78  0.001253343    2.743    0.635
        53  -8.7971    124.6661     94.7032   1.0661055816e+02   3.8788881684e+01    0.1524104    0.1173824   1.93 0.0007029645    1.646    0.392
        54  -9.9302     13.5254     59.8323   1.3248348967e+02   6.1282124817e+01    0.1753911    0.1539555 -34.43 0.0003971783    1.197    0.164
        55  -9.7300    150.3269    240.3057   1.2821639289e+02   6.8709711696e+00    0.1119439   0.08181929  19.50 0.0002450825    1.650    0.394
        56 -11.0524     19.6111    239.5870   1.4999741149e+02   2.4176337189e+01     0.111286   0.08239203  69.53 0.0009472556    1.106    0.096
        57 -12.4487    172.9172     27.2738   7.4870075736e+01   3.8350092244e+01    0.5537067    0.4351178 -10.54  0.001337496    1.386    0.278
        58  -9.4285    138.6172     31.7408   8.2816837096e+01   4.6366281818e+01    0.2330678    0.1795129  86.98  0.000859239    1.703    0.413
        59 -10.1736    164.7064    204.3600   1.2056367235e+02   9.8952079399e+00     0.275179     0.201556 -77.43  0.001066608    2.130    0.530
        60 -10.9169    168.8221    236.6161   1.2448197332e+02   4.4593409661e+00     0.263415    0.1903616  59.39 0.0003537494    1.576    0.365
