#   1 NUMBER                 Running object number                                     
#   2 MAG_AUTO               Kron-like elliptical aperture magnitude                    [mag]
#   3 X_IMAGE                Object position along x                                    [pixel]
#   4 Y_IMAGE                Object position along y                                    [pixel]
#   5 X_WORLD                Barycenter position along world x axis                     [deg]
#   6 Y_WORLD                Barycenter position along world y axis                     [deg]
#   7 A_WORLD                Profile RMS along major axis (world units)                 [deg]
#   8 B_WORLD                Profile RMS along minor axis (world units)                 [deg]
#   9 THETA_WORLD            Position angle (CCW/world-x)                               [deg]
#  10 FWHM_WORLD             FWHM assuming a gaussian core                              [deg]
#  11 ELONGATION             A_IMAGE/B_IMAGE                                           
#  12 ELLIPTICITY            1 - B_IMAGE/A_IMAGE                                       
         1  -8.9359    113.8394     43.7686   8.9320244609e+01   5.1494980224e+01    0.2591353    0.1500517  17.30 0.0009602116    2.897    0.655
         2 -11.4204      5.0725      7.2733   1.1782071246e+02   7.3638741897e+01    0.6488817    0.3179164 -61.04  0.003272635    3.226    0.690
         3 -10.1930      8.9427      2.1564   1.1303474291e+02   7.4146265489e+01    0.3480273    0.1663435   5.20  0.001895058    2.662    0.624
         4  -9.0118     22.5450      2.4695   1.0550018388e+02   7.2818606448e+01    0.1981706   0.09319185  18.38   0.00104187    2.503    0.601
         5 -10.8288     94.5818    244.6552   1.3584809740e+02   1.3627935686e+01    0.5838048    0.1903484  40.38  0.002679966    2.564    0.610
         6 -11.5049    249.0123    246.9978   1.0880060577e+02  -1.0487414401e+01    0.6748266    0.3893125   7.60  0.004202884    1.774    0.436
         7  -9.7471    165.7260    244.5708   1.2289780497e+02   2.5117767458e+00    0.3290648    0.2001263  58.67   0.00184832    1.924    0.480
         8 -10.1929    169.9356    249.9979   1.2283729108e+02   1.0920811742e+00    0.4685722    0.1563833  44.49  0.002124181    2.381    0.580
         9  -8.7483    172.5828    246.7376   1.2194109120e+02   1.1086285038e+00    0.2105931    0.1210185 -52.96 0.0008761054    2.415    0.586
        10  -9.8267    152.9427    249.4009   1.2581290883e+02   3.8827886500e+00    0.3200291    0.1882649  52.63  0.000989987    1.541    0.351
        11  -9.5501    148.9240    244.9054   1.2599958931e+02   5.1774406839e+00      0.28208    0.1873392  66.82  0.001201903    1.841    0.457
        12  -8.8703    144.7930    242.5783   1.2647512768e+02   6.1904574335e+00    0.2235981    0.1284813  45.49  0.001102187    1.367    0.268
        13  -9.6912    140.0532    245.9892   1.2774528618e+02   6.4366566725e+00    0.3551024    0.1426532  48.82  0.001273838    2.078    0.519
        14 -10.0862    145.0847    249.8409   1.2727994935e+02   5.0679809846e+00    0.4190942    0.1684787  43.65  0.001605511    1.904    0.475
        15  -9.3579    139.2179    250.6081   1.2842260348e+02   5.8817910221e+00    0.2810216   0.09361249  40.24 0.0008688088    2.413    0.586
        16 -10.8238    107.5562    247.9206   1.3382871686e+02   1.1175817574e+01     0.627537    0.2337159  56.14   0.00281417    2.797    0.642
        17 -10.4723    133.4865    245.4328   1.2887832792e+02   7.5639260339e+00    0.4483662    0.1652356  49.64  0.002066254    2.326    0.570
        18 -10.7373    126.3661    240.6910   1.2965340984e+02   9.4341255267e+00    0.5456946    0.5008447  -6.89  0.003927397    1.533    0.348
        19 -10.3594    116.3580    248.6781   1.3232523504e+02   9.7240557049e+00    0.3501343    0.2041228  67.98  0.002009518    1.941    0.485
        20 -11.4056    115.3212    243.2620   1.3195919804e+02   1.0746413955e+01    0.6150663    0.2051234  42.60    0.0028151    2.338    0.572
        21 -11.0054    122.5302    248.7998   1.3122831847e+02   8.7577337229e+00    0.8420817    0.2090345  48.33  0.003262284    3.362    0.703
        22  -9.8258     89.9381    250.0610   1.3714383252e+02   1.3404024642e+01    0.3870652    0.1296012  43.17  0.001568398    2.272    0.560
        23  -9.0565     38.2643    247.0934   1.4573226686e+02   2.0615907442e+01    0.3453398    0.1708671 -78.22  0.002248511    1.970    0.492
        24  -8.7643     39.4804    235.3779   1.4484974693e+02   2.2533150068e+01     0.189265   0.07807287  45.67 0.0007429113    1.891    0.471
        25  -9.7725     74.2781    250.1185   1.3986738908e+02   1.5567027309e+01    0.4249194    0.1227728  45.30  0.002042086    2.468    0.595
        26 -10.2881     45.7988    237.6060   1.4390172844e+02   2.1382715990e+01    0.5361592    0.2021513  57.41  0.002559086    2.133    0.531
        27 -10.2332     55.0445    240.8787   1.4252189122e+02   1.9662708876e+01    0.5640684    0.2563342  79.18  0.003022034    2.451    0.592
        28 -10.5497     65.8000    248.5444   1.4120596094e+02   1.6959154728e+01    0.6773617    0.3217317  58.22  0.003652277    1.667    0.400
        29  -9.5166     58.2032    247.4220   1.4242242752e+02   1.8130609185e+01     0.301808     0.126737  49.24  0.001602562    1.751    0.429
        30 -10.4926     51.9104    249.5226   1.4361686657e+02   1.8562937201e+01    0.5336589    0.1760155  42.43   0.00282048    2.348    0.574
        31  -9.8984     45.7653    244.8541   1.4435745308e+02   2.0113228744e+01    0.4058392    0.1607359  54.80  0.001633486    1.883    0.469
        32  -9.5712     34.1601    248.7830   1.4649257708e+02   2.0799966789e+01     0.248323    0.1382755  77.04  0.001284177    1.464    0.317
        33 -10.4343     22.3514    228.3761   1.4738347456e+02   2.5720535020e+01    0.9879121    0.2697122  59.31  0.004577855    3.135    0.681
        34 -10.6353     12.9561    204.3816   1.4775279898e+02   3.1254828281e+01    0.7920343    0.2667526  61.12  0.003967417    2.586    0.613
        35 -10.3576      3.5354    188.9897   1.4867078231e+02   3.5210087239e+01    0.7613207    0.2268871  68.57  0.003176403    3.745    0.733
        36 -10.9225     28.0695    242.4853   1.4715837169e+02   2.2571391442e+01     0.683902    0.3803819  70.60   0.00478708    1.358    0.264
        37 -11.2190      8.0883    207.7684   1.4881077833e+02   3.1054295946e+01     1.723959    0.4043412  62.45  0.006641091    4.582    0.782
        38  -9.6352     25.8885    249.2628   1.4784425920e+02   2.1643929485e+01    0.2830365    0.1228684  59.11  0.001086745    1.657    0.396
        39 -11.1221     21.3020    242.8909   1.4827722495e+02   2.3236383139e+01    0.8766192    0.3177819 -89.14  0.004796535    2.697    0.629
        40 -11.4172     11.3375    229.2937   1.4927808397e+02   2.6686485802e+01    0.9427594    0.3387532  89.05  0.005107309    2.562    0.610
        41 -10.7018     13.2619    216.7210   1.4834952544e+02   2.8833062331e+01    0.6372765    0.2324441  64.17  0.003420213    2.312    0.568
        42 -11.4920      4.4058    225.1481   1.5024449467e+02   2.8118103490e+01     1.194083    0.3295937  87.61  0.005245482    3.917    0.745
        43 -10.8539      3.7375    213.9137   1.4986692715e+02   3.0278098615e+01    0.7016693    0.2480712  67.34  0.003759233    2.398    0.583
        44 -10.6660      6.3045    235.7664   1.5037389665e+02   2.6021565301e+01    0.5309179    0.1464074  54.19  0.002910358    2.438    0.590
        45 -10.5565     15.1410    240.9108   1.4917691183e+02   2.4228722777e+01    0.4302455    0.2045155  68.20  0.002193312    1.575    0.365
        46 -11.1251     10.9114    247.6393   1.5012508040e+02   2.3501394724e+01    0.5509512    0.3051388  64.86  0.004127818    1.232    0.188
        47 -10.5230     19.0006    248.7702   1.4891047275e+02   2.2470160008e+01     0.376415    0.1536697  56.32  0.001990115    1.710    0.415
        48 -11.7182      3.7774    244.8577   1.5112039044e+02   2.4685440381e+01    0.7659348    0.2745772  89.73  0.004516999    2.442    0.591
        49  -8.3619    201.4288    245.7106   1.1666781605e+02  -3.3347665421e+00    0.1459824    0.1053058 -13.21 0.0009521641    1.641    0.391
        50  -8.3617    189.6012    245.8153   1.1877221626e+02  -1.4872459507e+00    0.1330859    0.1148827 -57.63 0.0008072438    1.645    0.392
        51  -9.6745     83.2890    244.8901   1.3788004928e+02   1.5203253377e+01    0.3402033    0.1877996  62.69   0.00206242    1.576    0.366
        52  -8.2645     77.4581    246.4569   1.3903326401e+02   1.5747882250e+01    0.1141886   0.08435759  60.95 0.0008075561    1.014    0.014
        53 -10.0412    181.8297    243.5510   1.1984972862e+02   5.0243070470e-02    0.2914864    0.2563869  52.56  0.001237254    1.286    0.223
        54  -9.7365    153.8601    244.3236   1.2502725806e+02   4.4666241807e+00    0.1779687    0.1586681  79.09 0.0007018794    1.336    0.252
        55  -8.3988    196.4690    243.0334   1.1715998001e+02  -2.2219196118e+00    0.1497329    0.1166839 -31.70 0.0009404364    1.561    0.359
        56  -9.0165     73.0469    241.7688   1.3943901897e+02   1.7151123126e+01    0.2339128    0.2044237  63.36  0.001798412    1.286    0.222
        57  -9.2749     70.5805    239.2202   1.3967599952e+02   1.7928590761e+01    0.2406639    0.1921474  48.01  0.001754723    1.316    0.240
        58  -8.9839     32.1443    229.8088   1.4578269533e+02   2.4387065127e+01    0.2082616    0.1106534  75.40 0.0009360884    1.563    0.360
        59  -8.3282     35.2288    233.4016   1.4546146541e+02   2.3382046946e+01    0.2134907    0.1047538  78.64 0.0006288501    1.830    0.453
        60  -9.6246     38.2426    240.9289   1.4538770652e+02   2.1689842577e+01    0.3338429    0.1326136  62.88  0.001627917    2.119    0.528
        61  -8.2396     34.9751    236.5090   1.4568486731e+02   2.2851400538e+01    0.1549256   0.08271988  47.16 0.0007958988    1.533    0.348
        62  -8.8701    172.9335    239.8241   1.2095387724e+02   2.0038273233e+00    0.1812555    0.1735829  34.59 0.0007994907    1.220    0.180
        63 -10.0846    151.2847    238.1958   1.2473260944e+02   5.7962863743e+00     0.309631    0.2039488  61.48  0.001432841    1.673    0.402
        64  -8.7069    139.4930    240.4725   1.2720024518e+02   7.3681454886e+00     0.246658    0.1267132  58.04   0.00124099    2.131    0.531
        65  -8.7523    135.4774    237.5278   1.2759583396e+02   8.4790249103e+00    0.2338897    0.1375572  66.65   0.00118544    2.154    0.536
        66  -9.4011    128.9817    249.5062   1.3014219066e+02   7.6490603133e+00    0.2700324    0.1550076  61.18  0.001544089    1.810    0.447
        67 -10.0740    103.1609    234.4228   1.3329535595e+02   1.4086449587e+01    0.3728366    0.1491731  55.13  0.001723398    2.388    0.581
        68 -10.0534    108.7309    239.3324   1.3276348429e+02   1.2403891414e+01     0.360914    0.1439765  54.30  0.001039052    2.341    0.573
        69  -8.6233    113.5080    237.8652   1.3172714313e+02   1.1912613782e+01    0.2201229    0.1092316  46.00    0.0011913    1.583    0.368
        70  -9.4641    187.6611    237.5021   1.1794569540e+02  -8.4330316606e-02    0.3060268    0.2282775 -73.62  0.001803888    2.377    0.579
        71 -11.2169    103.9199    240.7041   1.3378435849e+02   1.2904754972e+01    0.4896275    0.2485983  70.48  0.002401707    2.640    0.621
        72  -9.1520     82.5023    237.5157   1.3739297384e+02   1.6581264089e+01    0.2421475    0.1577998  63.55  0.001315051    1.257    0.204
        73  -8.6200     79.6749    235.6772   1.3774772753e+02   1.7302395129e+01     0.180279    0.1390098  56.68 0.0007497236    1.103    0.094
        74  -8.3187    199.2200    236.9623   1.1578388548e+02  -1.8842311444e+00    0.1375381   0.09819551 -34.75 0.0008739792    1.683    0.406
        75  -8.0966    210.7314    236.3295   1.1364339197e+02  -3.6362869012e+00    0.1030757   0.09032916  59.11 0.0003356637    1.580    0.367
        76  -9.9194    164.6632    234.6058   1.2176938784e+02   4.1207708116e+00    0.3153653     0.200671  53.45  0.001376647    1.536    0.349
        77 -10.5651     94.6961    236.2100   1.3504263505e+02   1.5046075319e+01    0.5439951    0.1871414  49.02  0.002534569    2.303    0.566
        78  -9.3133     65.0474    233.4427   1.4021468513e+02   1.9695110418e+01    0.2962216    0.1579189  77.74  0.001391081    1.911    0.477
        79  -9.9318     59.9352    232.4579   1.4105887426e+02   2.0542066909e+01    0.4453629    0.1946419  62.35  0.002364917    2.094    0.522
        80 -11.1253    248.5964    232.3736   1.0654476287e+02  -8.8883630795e+00    0.3116019    0.1768823  -8.33  0.001816612    1.960    0.490
        81  -7.8269    192.3204    234.6977   1.1669155287e+02  -4.6784305979e-01     0.114276   0.08827744  59.50 0.0002716203    1.628    0.386
        82  -8.5444    173.0593    232.6406   1.1993313379e+02   3.0077798824e+00    0.1799544    0.1307718  40.76 0.0006820582    1.116    0.104
        83  -9.3157    155.1432    232.7827   1.2330698088e+02   5.9836100165e+00    0.1939296    0.1414452  52.61 0.0007314078    1.242    0.195
        84  -8.7716    124.7290    233.0146   1.2908505848e+02   1.0947857840e+01    0.2653772    0.1181468  58.95  0.001158085    2.726    0.633
        85  -8.9471    117.1504    232.4207   1.3045106350e+02   1.2257055254e+01    0.3084394    0.1351158  50.26  0.001518577    1.911    0.477
        86  -8.9212    110.0450    233.1283   1.3186947557e+02   1.3250962488e+01    0.2786205     0.117373  52.49  0.001275926    2.081    0.519
        87  -9.6827     48.6386    230.4109   1.4292968147e+02   2.2338930761e+01     0.347067    0.1621819  65.13  0.001614535    1.876    0.467
        88  -8.1078    198.5087    230.9780   1.1501056319e+02  -9.8230868491e-01    0.1442115    0.1093034 -74.30 0.0008090505    2.484    0.597
        89  -9.5114    148.4659    230.2424   1.2423434157e+02   7.4971736188e+00    0.2795734    0.1691226  55.17   0.00154258    1.597    0.374
        90  -9.1218     40.7231    229.7143   1.4428214554e+02   2.3417748089e+01    0.2414235    0.1419091  70.72  0.001011059    1.352    0.260
        91  -8.9328    103.7546    229.2860   1.3265009811e+02   1.4891648967e+01    0.2991363    0.1327496  59.53  0.001368071    2.454    0.592
        92  -8.6898    178.5429    237.3149   1.1958049513e+02   1.4340329208e+00    0.1849554    0.1220987 -50.27  0.001107978    1.988    0.497
        93  -9.3850    141.5229    234.9184   1.2614549553e+02   7.9069964432e+00    0.3563459    0.1835921  59.70  0.001720973    2.328    0.571
        94  -9.8606     96.0057    228.0837   1.3399742043e+02   1.6283717529e+01    0.5316709    0.1712517  53.37  0.002152385    3.044    0.671
        95  -8.7551     81.7254    229.0367   1.3677995401e+02   1.8202350405e+01    0.2613765   0.09865807  57.80   0.00115965    2.682    0.627
        96  -7.9812    118.6351    228.3170   1.2970086739e+02   1.2722568230e+01    0.1329131    0.0795674  64.57 0.0004759162    1.773    0.436
        97  -9.0302    113.9828    227.9649   1.3055267572e+02   1.3525576803e+01     0.205396    0.1237783  64.63   0.00112863    1.709    0.415
        98  -8.3266    177.3858    227.1330   1.1832826667e+02   3.0841582698e+00    0.1491069    0.1202239 -63.21  0.000852207    1.691    0.409
        99  -8.2590    153.8483    227.5783   1.2285148402e+02   7.0135303647e+00    0.1817438   0.09803588  50.18 0.0005377266    1.656    0.396
       100  -8.6028    135.6967    230.6497   1.2671792588e+02   9.5533358648e+00    0.2633204    0.1153009  55.46   0.00116162    2.498    0.600
       101  -8.6970     87.2185    231.3745   1.3597140339e+02   1.6991693400e+01    0.2284335    0.1167185  50.80  0.001279554    1.552    0.356
       102  -9.9227     73.7005    223.3699   1.3777574240e+02   2.0375194808e+01    0.4113877    0.2087188  59.62  0.002199804    1.728    0.421
       103  -8.8734     27.1782    225.1185   1.4637474364e+02   2.5804177638e+01    0.2207007   0.08444866  58.73  0.001207917    2.081    0.519
       104  -8.4988    165.7596    224.5412   1.2014925385e+02   5.4588981943e+00    0.1825744    0.1018621  49.60 0.0004793569    1.638    0.389
       105  -7.8559     33.6852    224.2947   1.4518397460e+02   2.5236269682e+01    0.1177219   0.05919372  65.03 0.0003469659    1.601    0.375
       106  -8.7485     85.2989    222.8247   1.3551609057e+02   1.8829108038e+01    0.2469649    0.1189372  57.55  0.001249354    1.873    0.466
       107  -8.7647     52.0008    222.2111   1.4173342265e+02   2.3452322806e+01    0.1963795    0.1069353  57.35 0.0008163636    1.459    0.314
       108  -8.8536    100.8605    222.1739   1.3244329617e+02   1.6615047163e+01    0.2012316    0.1385122  64.30  0.001129759    1.293    0.227
       109  -8.7583     62.3719    221.0602   1.3971252028e+02   2.2341355271e+01     0.261095    0.1068391  53.49  0.001331123    2.019    0.505
       110 -10.2819      3.7941    197.4075   1.4906463744e+02   3.3488728964e+01    0.4954562    0.2552091  69.42  0.003184268    1.521    0.343
       111  -8.4949    150.9859    220.1672   1.2237690402e+02   8.7023231024e+00    0.2183956    0.1248585  59.01 0.0009285822    1.998    0.500
       112  -9.2086     33.7985    216.8465   1.4469417239e+02   2.6638796196e+01    0.3246096    0.1548795  69.35  0.001861786    1.837    0.456
       113  -8.9198     24.1492    217.3521   1.4646373652e+02   2.7596367350e+01    0.2141924    0.1228116  85.68  0.001319311    1.427    0.299
       114 -10.0501    247.9674    216.5493   1.0398333529e+02  -6.9906957137e+00    0.1836729    0.1405881 -11.72  0.000695491    1.229    0.186
       115  -8.6110     44.6756    212.9825   1.4240926248e+02   2.6127322708e+01    0.2445017     0.102236  54.14  0.001296601    1.964    0.491
       116  -8.8698     56.1631    211.5450   1.4010238632e+02   2.4989287811e+01     0.209179    0.1357364  56.27  0.001204343    1.257    0.204
       117  -8.5642     86.2169    214.9830   1.3454741520e+02   2.0175440944e+01     0.193091    0.1062455  57.75  0.001040614    1.599    0.375
       118  -9.0615     67.3949    210.9944   1.3786478743e+02   2.3619269122e+01    0.2417453    0.1302025  56.29  0.001121705    1.569    0.363
       119  -8.6859     36.1574    208.3337   1.4368086994e+02   2.8037322235e+01    0.2221534     0.104287  71.51    0.0011948    2.000    0.500
       120  -8.6143     81.0330    207.9990   1.3485242113e+02   2.2296340603e+01    0.2115764    0.1214859  67.13  0.001127907    1.717    0.418
       121  -9.1221     22.4852    211.1902   1.4640308490e+02   2.8961388861e+01    0.2272198     0.117154  63.48  0.001093332    1.538    0.350
       122  -8.3100     31.1915    202.4091   1.4421091092e+02   2.9776149219e+01    0.1606267   0.07925463  52.23 0.0008954079    1.679    0.404
       123  -8.1330     22.5316    202.5371   1.4586590079e+02   3.0667824926e+01    0.1149518    0.0822018  74.53  0.000500804    1.028    0.027
       124  -8.3371    176.4906    201.5046   1.1444916287e+02   7.2529501243e+00    0.1348037    0.1171227  34.52  1.81147e-05    1.014    0.014
       125  -9.0957     45.4452    221.1621   1.4286059443e+02   2.4455462763e+01    0.2561529     0.135908  56.81  0.001374561    1.488    0.328
       126  -8.5528     18.8804    201.5095   1.4648870968e+02   3.1244268689e+01    0.1507371    0.0922049  47.10 0.0006942096    1.510    0.338
       127  -8.7218     23.3099    198.3884   1.4545093153e+02   3.1425223634e+01    0.1543814   0.08098452  51.41 0.0009386637    1.609    0.378
       128  -9.2869     13.9700    196.7002   1.4712583727e+02   3.2693441403e+01    0.2478622    0.1227709  74.31  0.001010728    1.691    0.408
       129  -9.2199     19.3201    194.9016   1.4599240518e+02   3.2538611423e+01    0.2967187    0.1313996  68.21 0.0008327971    2.030    0.508
       130  -8.6679     17.2035    191.4234   1.4617968972e+02   3.3460028747e+01    0.1654809     0.116382  66.21 0.0008107983    1.148    0.129
       131  -8.4364     39.0751    193.5406   1.4198994265e+02   3.0717962654e+01    0.1788756   0.06367791  55.44 0.0008082201    2.584    0.613
       132  -8.1729     28.8220    192.6069   1.4397304174e+02   3.2038541287e+01    0.1525933   0.08472867  52.93 0.0004750401    1.545    0.353
       133  -9.1511     11.3781    191.2655   1.4729817555e+02   3.4043707196e+01    0.2223238    0.1428456  88.64 0.0009139341    1.204    0.170
       134  -9.1275      9.6624    187.1771   1.4738628767e+02   3.5041584581e+01     0.259553    0.1138223  56.05  0.001348761    1.922    0.480
       135  -7.9620     33.4593    190.4717   1.4288076658e+02   3.1986048656e+01    0.1208443   0.08878059  75.87  0.000106127    1.054    0.051
       136  -8.4426     23.4874    187.6811   1.4468282593e+02   3.3617333128e+01     0.200011   0.09511673  56.50 0.0009026959    1.812    0.448
       137  -8.6299     15.5153    187.1751   1.4623695948e+02   3.4501372759e+01    0.1882199    0.1124424  66.63 0.0008444704    1.361    0.265
       138  -8.5326     37.0193    186.4991   1.4182911932e+02   3.2432835845e+01    0.1779535   0.06592315  55.70  0.000810054    2.534    0.605
       139  -8.0179     28.5102    185.5359   1.4350502285e+02   3.3554485851e+01    0.1203749   0.08846831  76.85 0.0002995324    1.052    0.050
       140  -9.9051      5.0470    183.0534   1.4804574576e+02   3.6301613946e+01    0.2601809    0.1776359 -70.82  0.001836052    1.455    0.313
       141  -9.9552      1.8781    177.7958   1.4836794397e+02   3.7662654544e+01    0.3714862    0.1439249  89.24  0.001920303    2.218    0.549
       142  -9.6648      5.3075    174.4685   1.4747725046e+02   3.8079692814e+01    0.2561513    0.1374676  64.81  0.001126021    1.581    0.368
       143  -8.7007      9.2659    183.3871   1.4723413317e+02   3.5863836989e+01    0.1469144   0.08200103  51.78 0.0005047738    1.583    0.368
       144  -8.3445     16.8955    180.9351   1.4554116068e+02   3.5681294476e+01    0.1902368    0.1000855  70.09  0.001043815    1.645    0.392
       145  -8.0751     23.0411    179.5392   1.4417509706e+02   3.5386397850e+01    0.1636816   0.06523289  56.82 0.0007590285    2.305    0.566
       146  -8.1792     12.4968    177.4828   1.4620365999e+02   3.6817927918e+01    0.1597481   0.08441693  50.13  0.000212829    1.705    0.414
       147  -9.0330     17.4450    174.9789   1.4500274010e+02   3.6900931614e+01    0.1688561   0.07162865  77.15 0.0007920164    2.405    0.584
       148 -10.8660      5.6156    168.3088   1.4701850891e+02   3.9367788525e+01    0.3963838    0.2506889  76.85  0.002505206    1.257    0.204
       149  -9.6904     11.1361    167.3334   1.4578231437e+02   3.9116080386e+01    0.2386325   0.09681122 -64.46  0.001249327    2.186    0.543
       150  -8.6208     10.2121    155.0204   1.4505837041e+02   4.1892525194e+01    0.2054089   0.09756009  73.95  0.001076076    2.042    0.510
       151  -8.9141      4.1580    154.4566   1.4637505927e+02   4.2492276232e+01    0.2437556    0.1128188  84.02  0.001080074    1.922    0.480
       152  -8.6108    178.3379    147.2970   1.0347704625e+02   1.6733453216e+01    0.1531255    0.1169587  11.26 0.0007031857    1.656    0.396
       153  -9.1349     98.9655    144.0000   1.2162020887e+02   3.3409596317e+01     0.233973   0.08036686  39.50 0.0008035104    2.950    0.661
       154  -9.3168    175.4898    138.0513   1.0198067547e+02   1.9165176979e+01    0.2332899    0.1503644 -41.09  0.001030268    1.583    0.368
       155  -9.4597    165.8057    136.7896   1.0381236138e+02   2.1562243568e+01    0.2599147    0.1719191   5.31 0.0009525943    2.823    0.646
       156  -8.4362      4.5132    137.0525   1.4491874531e+02   4.6336807739e+01    0.1885631   0.09052721 -78.97  0.001042006    1.622    0.384
       157  -8.5999    202.6639    136.6679   9.6092708442e+01   1.3433200754e+01    0.1557823    0.1146013   9.25 0.0006281223    1.736    0.424
       158  -9.0239    183.1856    133.8128   9.9348247241e+01   1.8278292593e+01    0.2160052      0.18238  10.00  0.001075876    1.351    0.260
       159  -9.6976    174.9818    130.5252   1.0030963386e+02   2.0768539661e+01    0.2460374    0.2128294 -41.68  0.001251281    1.169    0.145
       160  -9.0855    164.6545    130.3205   1.0253994869e+02   2.3138230586e+01     0.160023    0.1232382 -89.32 0.0007049549    1.730    0.422
       161 -10.0279    154.4630    127.0043   1.0407789929e+02   2.6108497602e+01     0.283601    0.2097162  26.30  0.001275651    1.628    0.386
       162  -9.3938    184.4932    124.9340   9.6931122575e+01   1.9695415957e+01    0.2379684    0.1500297 -40.74  0.001029528    1.584    0.369
       163  -8.5638    191.2419    124.0288   9.5327800152e+01   1.8322219984e+01    0.2023655    0.1277112 -37.71 0.0008756419    1.580    0.367
       164  -8.9572     99.6907    124.3309   1.1742879883e+02   3.7866105997e+01    0.1523802    0.1120301  82.97 0.0003957775    1.667    0.400
       165  -8.4151    197.5248    121.9526   9.3570497170e+01   1.7273449437e+01    0.2134159    0.1344356 -11.08 0.0008088724    2.475    0.596
       166  -9.8949    167.9872    121.9958   9.9752403095e+01   2.4072960792e+01    0.2542804    0.1983191   5.11 0.0008996119    1.701    0.412
       167  -9.8669    176.8851    120.2220   9.7364585599e+01   2.2368584392e+01    0.2985872    0.2109045  -7.09  0.001237304    2.071    0.517
       168 -10.7032    165.2974    116.4792   9.8957453996e+01   2.5811436983e+01    0.4257434    0.2530476  20.97  0.001431915    3.142    0.682
       169 -10.5074    132.9872    118.1812   1.0714697144e+02   3.2716245102e+01    0.3627755    0.2389152 -35.48  0.001569446    1.703    0.413
       170  -8.3442    225.6663    116.6709   8.7162246179e+01   1.1907242399e+01     0.150771    0.1114997  10.08 0.0007051958    1.722    0.419
       171  -9.4986    188.9888    115.2492   9.3590080691e+01   2.0501473431e+01    0.3824005    0.1978733 -27.11  0.001390554    2.439    0.590
       172 -12.5549    151.3808    104.9723   9.9147689436e+01   3.1410051749e+01     1.003665    0.6074704  17.76  0.003291058    3.404    0.706
       173 -13.1459    139.9862     98.4783   1.0014736742e+02   3.5387307498e+01    0.9256154    0.7125376  18.48  0.004209094    1.663    0.399
       174 -10.9980    143.6038    119.8902   1.0492345361e+02   3.0034291383e+01     0.365508    0.3089862  58.59  0.001820467    1.200    0.167
       175  -9.6923    123.9803    111.4933   1.0779302569e+02   3.6097034496e+01    0.2382859    0.1515378  44.74 0.0009996186    1.595    0.373
       176  -9.5580    185.7303    109.4257   9.2754481570e+01   2.2372275932e+01    0.2764145    0.2010239 -11.84  0.001206237    1.786    0.440
       177  -8.3637    192.6366    109.6862   9.1441819971e+01   2.0684074428e+01    0.1615222    0.1204477  15.72 0.0007040583    1.760    0.432
       178 -10.0155     98.0051    105.8176   1.1355376969e+02   4.2451224674e+01    0.2410029    0.1785156   3.22  0.001090144    2.020    0.505
       179 -10.8240    178.4145    102.5786   9.2453669519e+01   2.5430014949e+01    0.3122439     0.288136   8.08  0.001342498    1.183    0.155
       180 -11.0862    170.6875    100.8452   9.3627876393e+01   2.7634445462e+01    0.3991508    0.3151291 -38.94  0.001695337    1.267    0.210
       181 -12.0800    163.9429    100.1307   9.4917745342e+01   2.9403582898e+01    0.6536487    0.3938924 -27.64  0.002597933    1.987    0.497
       182 -10.9042    168.2532     93.2620   9.2058431751e+01   2.9686352781e+01    0.4236693    0.2613583 -27.93  0.001723879    1.859    0.462
       183  -8.6617    197.1992    114.2099   9.1704813824e+01   1.8776630338e+01    0.2617036    0.1667897  11.31  0.000952257    2.812    0.644
       184 -11.0558    180.7447     93.8188   8.9594446902e+01   2.6507438884e+01    0.4287216    0.3105604 -14.19  0.001878941    1.755    0.430
       185 -10.7238    109.3230     95.0204   1.0741960541e+02   4.2719144922e+01    0.3853238    0.2275322  35.94    0.0015438    1.886    0.470
       186 -11.1433    123.9011     88.6569   1.0152087474e+02   4.1029561983e+01    0.2988877    0.2816809  61.43  0.001309551    1.090    0.083
       187 -10.7719    153.5761     87.7398   9.3774433348e+01   3.4333635272e+01    0.2979946    0.1912141  41.35  0.001212121    1.648    0.393
       188  -8.7281    190.3211     87.3442   8.5941289073e+01   2.5309800385e+01    0.1599144    0.1219962  15.43 0.0007049928    1.728    0.421
       189 -10.4559    182.6853     84.9328   8.6738508036e+01   2.7641696989e+01    0.3909076    0.1804089 -42.36  0.001441786    2.131    0.531
       190  -9.7358    167.3847     84.8179   8.9839359986e+01   3.1487673272e+01    0.2264943    0.1512735 -25.06 0.0004576077    1.725    0.420
       191 -12.2458    140.7714     83.7431   9.5669082504e+01   3.8178710404e+01    0.5821549    0.4232565 -78.33   0.00249636    1.923    0.480
       192 -12.2860    152.4061     77.7832   9.1080028471e+01   3.6503824409e+01    0.7345403    0.4879418 -76.53  0.002860744    2.360    0.576
       193 -10.9621    120.2376     78.4265   9.9419359774e+01   4.3908406263e+01    0.4229691    0.2950647  10.40  0.001770095    2.160    0.537
       194  -9.5201    103.7822     76.7995   1.0364884291e+02   4.7674170678e+01    0.3772886    0.1663661 -39.49  0.001413669    2.288    0.563
       195  -8.6788      6.3284     86.3257   1.3861995827e+02   5.7725705333e+01    0.1248279   0.06762664 -46.80 0.0007050206    1.700    0.412
       196  -9.1915    198.8331     97.1499   8.6990681072e+01   2.1483367438e+01    0.2178798    0.1873447   6.69  0.001089381    1.352    0.260
       197  -9.3491      3.4812     76.5120   1.3804314785e+02   6.0062341954e+01    0.1182829    0.0899298 -63.32 0.0008102222    1.016    0.015
       198 -10.7351    162.7796     79.9445   8.9407147010e+01   3.3532417178e+01    0.3415821    0.2245756 -22.63  0.001426841    1.830    0.454
       199 -10.6561    166.3129     70.0727   8.5703142944e+01   3.4392499173e+01    0.3802786    0.1775693 -41.69  0.001375511    2.132    0.531
       200 -10.8561    130.1296     69.3265   9.3866008441e+01   4.3418004979e+01    0.3100675    0.2886614  70.29  0.001651823    1.133    0.117
       201  -9.7865    117.0175     69.7302   9.7532995006e+01   4.6303833784e+01    0.2169474     0.203467  42.65  0.001176752    1.080    0.074
       202 -11.5334    156.0991     64.0931   8.6017944978e+01   3.8004108921e+01    0.3898134    0.3062076  46.34  0.001893277    1.273    0.215
       203 -10.7673    140.1503     64.8437   8.9902049900e+01   4.1837295666e+01    0.2757127    0.2711998  72.86  0.001503226    1.030    0.029
       204  -8.9096    110.9819     61.1878   9.6377540176e+01   4.9197971196e+01    0.2558934    0.1675007  20.81   0.00108871    2.070    0.517
       205 -11.1003    149.1894     63.7257   8.7429937125e+01   3.9802793911e+01    0.3540831    0.2834779  10.43  0.001500527    1.530    0.346
       206  -8.7874      6.6412     57.3090   1.3321182755e+02   6.4055364264e+01    0.1091886    0.0822951  73.28 0.0007041655    1.735    0.424
       207  -9.8555    141.8687     52.8371   8.5524130569e+01   4.3418701675e+01    0.2450934    0.2105202  23.96  0.001259545    1.252    0.201
       208 -10.7306    154.7762     51.1004   8.2139193185e+01   4.0432110055e+01    0.2854443    0.2219592  -2.64  0.001363685    1.573    0.364
       209  -9.1136    160.3014     47.3508   7.9817331841e+01   3.9572143819e+01    0.1565748    0.1144773  24.23 0.0003824121    1.696    0.410
       210  -9.9582    119.7777     52.2291   9.0790273360e+01   4.8798960689e+01    0.2843255    0.2566962  -7.56  0.001552841    1.126    0.112
       211 -11.1954    165.6185     43.9496   7.7726308108e+01   3.8682009660e+01    0.3147132    0.2627771 -36.47  0.001636227    1.233    0.189
       212 -10.5359    159.4417    245.6760   1.2417987393e+02   3.3708762470e+00    0.3422901    0.2581928 -84.62  0.001491808    1.978    0.495
       213  -9.1564      7.0034     41.8298   1.2924618916e+02   6.7221737460e+01    0.1655423    0.1209936  55.82  0.001078538    2.014    0.503
       214  -8.4125      1.5360     45.4812   1.3261512290e+02   6.6764599726e+01    0.1146312   0.08612698 -51.79 0.0008092816    1.004    0.004
       215  -8.3677    106.3319     37.3221   8.8954733669e+01   5.4127015050e+01    0.1499352    0.1038445  18.12 0.0007049788    1.700    0.412
       216  -9.6125    146.5989     35.2124   7.8500638341e+01   4.4791495400e+01    0.2042515    0.1437776 -11.41 0.0009583174    1.684    0.406
       217  -9.9891    123.0226     44.4754   8.7157234107e+01   4.9275628437e+01    0.2905068    0.2112175  -5.39  0.001386249    1.651    0.394
       218  -9.1286     88.0335    242.4874   1.3682910178e+02   1.4937850675e+01    0.3440496    0.1379722  52.08  0.001768656    1.997    0.499
       219 -10.8175     99.7051    247.6496   1.3520553002e+02   1.2385065759e+01    0.3622825    0.1906874  50.72  0.001841823    1.454    0.312
