#   1 NUMBER                 Running object number                                     
#   2 MAG_AUTO               Kron-like elliptical aperture magnitude                    [mag]
#   3 X_IMAGE                Object position along x                                    [pixel]
#   4 Y_IMAGE                Object position along y                                    [pixel]
#   5 X_WORLD                Barycenter position along world x axis                     [deg]
#   6 Y_WORLD                Barycenter position along world y axis                     [deg]
#   7 A_WORLD                Profile RMS along major axis (world units)                 [deg]
#   8 B_WORLD                Profile RMS along minor axis (world units)                 [deg]
#   9 THETA_WORLD            Position angle (CCW/world-x)                               [deg]
#  10 FWHM_WORLD             FWHM assuming a gaussian core                              [deg]
#  11 ELONGATION             A_IMAGE/B_IMAGE                                           
#  12 ELLIPTICITY            1 - B_IMAGE/A_IMAGE                                       
         1 -13.8316    177.6103     42.6275   6.5169234192e+01   3.5602379357e+01     1.165731    0.8819668 -20.00  0.002403389    1.354    0.261
         2 -14.2397    188.2374     33.5108   6.0509713975e+01   3.4011167342e+01     1.710437      1.18357 -17.16  0.003730742    1.518    0.341
         3 -15.0493    195.9545     23.1280   5.6122634954e+01   3.3214997902e+01     2.951873     1.906234  18.48  0.001361637    2.021    0.505
         4 -12.1752     41.8593     16.2712   9.2609496775e+01   6.8413983897e+01    0.3371798    0.1944352 -14.35  0.001654605    2.407    0.585
         5 -10.4099     82.3111      5.9929   7.1936831933e+01   6.3272380542e+01    0.1880235    0.1557222 -12.50 0.0004490146    1.089    0.082
         6  -9.6040    166.5022     33.5078   6.4011451228e+01   3.9760964518e+01    0.2362283    0.1505534  79.73 0.0003015711    1.893    0.472
         7 -13.0598     46.1069    225.4825   1.2793581669e+02   2.5402111987e+01     1.235311    0.8841296  36.84  0.009649138    1.741    0.426
         8 -14.0251     59.1951    209.6811   1.2473681297e+02   2.6479291823e+01     1.684948    0.4884835  47.00  0.008612486    2.527    0.604
         9 -15.9988    115.2931    238.6468   1.1771359238e+02   1.4563027192e+01     5.725982     2.436161  38.83   0.03234984    2.133    0.531
        10 -12.4386    106.8498    209.0884   1.1629443718e+02   2.0184385896e+01    0.5061867    0.3183869  60.05   0.00327299    1.367    0.268
        11 -12.4506    104.9500    200.2211   1.1569420286e+02   2.1921875600e+01     0.523813    0.3204651  66.17  0.003175933    1.600    0.375
        12 -11.9162    120.6524    200.4301   1.1283796786e+02   1.9497298036e+01    0.3105144    0.2500781 -16.21   0.00198007    2.098    0.523
        13 -13.4053    113.5275    197.4320   1.1379665922e+02   2.1094024830e+01    0.5063308    0.4240721  74.42  0.003112086    1.120    0.107
        14 -12.3912    194.0481    194.3528   9.8811942578e+01   8.0945908789e+00    0.8690063     0.574454 -62.41  0.004679191    2.633    0.620
        15 -10.0700     75.3973    201.1276   1.2118099115e+02   2.5906584739e+01     0.174272    0.1288298  49.38 0.0004674536    1.263    0.208
        16 -11.8248     37.2492    200.3307   1.2792535740e+02   3.0612417198e+01    0.1699932    0.1209828  70.73 0.0003260254    1.006    0.006
        17 -10.3645     86.4556    201.8632   1.1924223500e+02   2.4290784484e+01    0.4232875    0.1758139  62.49  0.001996816    2.805    0.643
        18 -13.3600     68.3818    193.8075   1.2181991188e+02   2.8111505315e+01    0.6255767    0.5006369 -82.66  0.002942361    1.274    0.215
        19 -10.3354     82.3195    195.0663   1.1934659343e+02   2.6042035026e+01    0.2719273    0.2048676  38.58  0.001865661    1.501    0.334
        20 -10.4638     44.1898    210.1786   1.2734169419e+02   2.8141344572e+01    0.2506747    0.1017118  57.32 0.0008237392    1.936    0.483
        21 -16.0723     73.1799    149.9567   1.1611494258e+02   3.6009622722e+01     5.118156     2.571113  81.72   0.01634227    2.971    0.663
        22  -9.5269    180.3179    192.8380   1.0096925853e+02   1.0684464059e+01    0.1707438    0.1514909  87.96 0.0007059959    1.453    0.312
        23 -10.7261     37.4403    206.8696   1.2828859494e+02   2.9450681547e+01    0.1674716   0.09587394  59.40 0.0004455975    1.305    0.234
        24 -19.3815     12.4593    133.5582   1.2817727572e+02   4.6059924844e+01     16.55598     1.625235 -76.34   0.03954312   10.239    0.902
        25 -12.3727    110.5559    182.1256   1.1248652087e+02   2.4205512411e+01     0.320993    0.2726975  86.33  0.002191833    1.149    0.130
        26 -12.4157    116.4805    211.8678   1.1488215028e+02   1.8315180676e+01    0.4509376    0.2671057  87.92  0.002537221    2.419    0.587
        27 -11.3979    207.7162    183.9743   9.4734629972e+01   7.0506990730e+00    0.3532775    0.2591109 -46.25  0.001815033    1.750    0.428
        28 -11.2395    211.0999    179.9179   9.3445011389e+01   6.9729083027e+00    0.3872883    0.2567165 -18.68  0.002227095    1.720    0.419
        29 -11.3597     99.5136    180.6403   1.1447008376e+02   2.6175178011e+01    0.2349377    0.1974343  63.97 0.0006467718    1.050    0.048
        30 -10.2416     71.3703    179.5652   1.1990331093e+02   3.0354702829e+01    0.2227991    0.1330224  76.14  0.001316577    1.647    0.393
        31 -10.3104    193.9194    165.2128   9.3771480760e+01   1.2171344611e+01    0.3458018    0.2776597 -55.36  0.001700213    1.579    0.367
        32 -10.3901    198.1753    176.5601   9.5086708218e+01   9.7575487154e+00    0.3126496    0.2118272  60.81  0.001695506    1.840    0.456
        33 -11.1640    196.2119    171.1760   9.4464476863e+01   1.0876347463e+01    0.3391472    0.3000157  29.52 0.0009718467    1.020    0.019
        34  -9.9485      1.7015    201.8755   1.3402924332e+02   3.3794936727e+01    0.1235561   0.07738116  59.66 0.0005194684    1.203    0.169
        35 -10.3952    230.0000    165.9742   8.7689027709e+01   5.3475787122e+00    0.1941842   0.06916431 -31.67  0.000578006    2.931    0.659
        36  -9.6309     42.2067    235.1003   1.2906864649e+02   2.4328656757e+01    0.1855659   0.08072255  70.22  0.001140287    2.025    0.506
        37  -9.6777    140.3117    157.0080   1.0267235960e+02   2.3698992642e+01    0.1751758    0.1625248  87.91 0.0001920601    1.099    0.090
        38 -10.4801    165.7110    153.5204   9.6890056442e+01   1.9485660515e+01     0.368428    0.2188573  73.75  0.001427003    3.300    0.697
        39 -11.7076    133.8695    144.7294   1.0180739670e+02   2.7198894538e+01    0.9766948    0.2723367 -54.92  0.002939456    4.811    0.792
        40 -10.8926     70.7822    228.6461   1.2414332663e+02   2.1974698844e+01    0.1772764    0.1186334  66.84 0.0005876551    1.151    0.131
        41 -10.5844    174.5552    148.4799   9.4159535504e+01   1.8588478896e+01     0.323878    0.2535378 -52.85  0.001191458    1.450    0.311
        42 -11.4960    144.8340    146.7339   9.9849815859e+01   2.4744950469e+01    0.3814094    0.2889618 -84.63   0.00201175    1.666    0.400
        43 -12.5096     95.5521    141.8746   1.0985869300e+02   3.4409667060e+01    0.2948474    0.2447408 -65.32 0.0008290016    1.204    0.169
        44 -11.7936    107.4536    141.2796   1.0704192058e+02   3.2590172634e+01    0.4877839    0.3151185 -35.48   0.00236959    2.238    0.553
        45  -9.3265     60.8364    228.3242   1.2573548610e+02   2.3241065817e+01    0.1324322     0.115063 -67.65 0.0006103453    1.664    0.399
        46 -10.6473    141.8596    138.8711   9.8947523635e+01   2.6801065573e+01    0.2063189    0.1927775  -0.06 0.0004907797    1.251    0.201
        47 -11.0663    114.8664    131.3342   1.0351355612e+02   3.3354443179e+01    0.3196324     0.285868  -0.25 0.0009530879    1.479    0.324
        48 -11.9100    119.5316    127.9078   1.0174855125e+02   3.3216175114e+01    0.7786362     0.352451 -43.14  0.003144285    2.526    0.604
        49 -11.2533    102.4663    127.7301   1.0575397053e+02   3.6262417734e+01    0.2522942    0.2442259 -65.70 0.0005138189    1.168    0.144
        50 -10.6505    160.3505    128.1039   9.2722389121e+01   2.5086430350e+01    0.3923032    0.2613654 -34.06  0.001887493    1.657    0.396
        51 -11.3463    135.3691    122.0581   9.6849293888e+01   3.1368697506e+01    0.6032597    0.1654939 -50.25  0.001829565    3.984    0.749
        52 -10.2187    110.1659    119.9639   1.0234741717e+02   3.6574962381e+01    0.2147937    0.1894407  59.02 0.0002855422    1.124    0.110
        53 -10.3056    168.0080    112.8882   8.7549462358e+01   2.6220561632e+01    0.3199214    0.2455284 -70.80  0.001184412    1.662    0.398
        54 -10.8068    105.9772    130.9955   1.0553243614e+02   3.4977239943e+01    0.3190524    0.2751826 -86.37  0.001180521    1.104    0.094
        55 -11.0401    119.7387    110.6447   9.7955844873e+01   3.6765127270e+01    0.4992857      0.23559  60.95  0.001747767    3.241    0.691
        56 -10.2429    205.6152    110.1232   7.9613777204e+01   1.8249643655e+01    0.2726569    0.2048292  41.95 0.0006694701    1.319    0.242
        57  -9.4159    134.5064    102.9751   9.2522974210e+01   3.5381240632e+01    0.2274107    0.1424799 -44.62  0.001029265    1.581    0.367
        58  -9.8957     70.3037     72.2362   1.0202605797e+02   5.3502071719e+01    0.1928047    0.1831058  77.99 0.0004242363    1.156    0.135
        59 -10.9058    167.6230     67.7202   7.5067769550e+01   3.4309940482e+01    0.6552275     0.384378 -78.72  0.002077363    3.807    0.737
        60  -9.6357     51.5064     60.9396   1.0516634177e+02   5.8444193751e+01     0.173347    0.1711762 -48.27 0.0005255792    1.172    0.147
        61  -9.5976     97.0952    213.3158   1.1843549672e+02   2.0906905253e+01     0.223565    0.0905804  36.56   0.00109073    2.681    0.627
        62 -10.3774     39.6641    212.8948   1.2826677591e+02   2.8182515386e+01    0.1942241   0.09147891  55.45 0.0007019996    1.582    0.368
        63 -11.4411     85.1591    235.7259   1.2233026054e+02   1.9069966623e+01     0.308567     0.151766 -75.60   0.00093499    2.405    0.584
        64 -10.6275    177.8353    237.3498   1.0749957562e+02   5.4660770986e+00    0.1524694    0.1390427  63.32 0.0005955282    1.346    0.257
        65 -11.5098     92.9575    236.5430   1.2113852338e+02   1.7923861926e+01    0.2396024    0.1808038  66.97 0.0006516265    1.115    0.103
