#   1 NUMBER                 Running object number                                     
#   2 MAG_AUTO               Kron-like elliptical aperture magnitude                    [mag]
#   3 X_IMAGE                Object position along x                                    [pixel]
#   4 Y_IMAGE                Object position along y                                    [pixel]
#   5 X_WORLD                Barycenter position along world x axis                     [deg]
#   6 Y_WORLD                Barycenter position along world y axis                     [deg]
#   7 A_WORLD                Profile RMS along major axis (world units)                 [deg]
#   8 B_WORLD                Profile RMS along minor axis (world units)                 [deg]
#   9 THETA_WORLD            Position angle (CCW/world-x)                               [deg]
#  10 FWHM_WORLD             FWHM assuming a gaussian core                              [deg]
#  11 ELONGATION             A_IMAGE/B_IMAGE                                           
#  12 ELLIPTICITY            1 - B_IMAGE/A_IMAGE                                       
         1 -12.3982    213.9052     24.1868   4.0776960293e+01   2.9009614514e+01      1.03093    0.7887334  32.55  0.005771337    1.717    0.418
         2 -12.5248    201.3994     36.6350   4.5475080599e+01   3.0488400885e+01     1.093548     1.002218  35.25  0.005032819    1.256    0.204
         3 -11.0824     12.6575     17.7282   9.4062017391e+01   7.0918376742e+01    0.5723107    0.1140904 -48.89  0.002135363    4.049    0.753
         4 -10.5507     16.0994      3.4437   8.5221342885e+01   7.2829459138e+01    0.3328947    0.1940763 -41.49  0.002063442    1.798    0.444
         5 -10.1476    238.4680      1.9967   3.3462607678e+01   2.5855181756e+01    0.5897903    0.1999266  77.13  0.002553522    2.878    0.653
         6 -12.2232     85.6285    230.1483   1.1345619694e+02   1.5844080338e+01     1.696037    0.6259024 -66.41  0.004611711    3.070    0.674
         7 -13.3842    122.5991    229.4738   1.0596598324e+02   1.0468474386e+01     7.160161     1.542504  37.62   0.02323726    4.131    0.758
         8 -12.9515     47.9838    220.9569   1.1999361292e+02   2.2511260324e+01     1.584094     1.265496 -68.96  0.005918268    1.402    0.287
         9  -9.1535     65.6591    207.4750   1.1523680567e+02   2.3079467350e+01    0.2196758    0.1854486  69.27 0.0005857655    1.027    0.026
        10 -12.9319     50.9548    193.8745   1.1701449387e+02   2.7836163144e+01     1.473708    0.9834611  85.60  0.006219497    1.393    0.282
        11 -10.1955     31.8098    203.0382   1.2179489705e+02   2.8002736974e+01     0.322898    0.2495219 -47.96  0.002141949    1.762    0.432
        12  -7.9851    113.4387    207.4911   1.0499395753e+02   1.6098212615e+01    0.1333169    0.1171628  58.24 7.299033e-05    1.036    0.035
        13  -9.5352     63.5302    202.1542   1.1514566555e+02   2.4482138717e+01    0.2089012    0.2062797   1.96 0.0008771644    1.355    0.262
        14 -14.6071      3.2663    182.7005   1.2616176783e+02   3.5011273736e+01     11.35527    0.1084455 -74.60   0.02832554    9.076    0.890
        15  -8.0958     99.4799    180.5354   1.0424390081e+02   2.4084098107e+01    0.1397037    0.1267652  71.43 0.0003739308    1.031    0.030
        16  -9.4838     42.4255    179.8811   1.1751075986e+02   3.1946320164e+01    0.2102728    0.1479877  55.35 0.0006130911    1.339    0.253
        17  -8.7369     93.5750    219.1821   1.1067954849e+02   1.6819088719e+01    0.1991372    0.1530356 -61.91 0.0007027011    1.437    0.304
        18 -10.3083     66.3958    177.8938   1.1173910783e+02   2.9508591907e+01    0.3553621    0.2577773 -40.08  0.001212996    1.773    0.436
        19 -10.4798     71.5536    172.4439   1.0978824315e+02   3.0084072408e+01    0.3724039    0.3168415 -15.07  0.001353874    1.610    0.379
        20 -12.7006     30.0664    247.5039   1.2496849890e+02   1.9521334929e+01    0.8683782    0.7350258  19.28  0.006277701    1.870    0.465
        21  -8.6279    110.7579    173.2301   1.0034163964e+02   2.3878446308e+01    0.2256604    0.1187145  26.93 0.0008867897    2.440    0.590
        22  -9.2833     95.4693    169.3519   1.0344775339e+02   2.7279733389e+01    0.4306842    0.1416219  32.03  0.001389135    3.693    0.729
        23 -11.1371     80.9294    162.5095   1.0599927003e+02   3.1107213632e+01    0.8612361     0.453012  49.20  0.001091096    1.971    0.493
        24 -11.8556     68.1242    158.6824   1.0868199756e+02   3.3812680575e+01    0.5773029    0.3851629 -37.18   0.00110831    1.928    0.481
        25 -12.4198     68.6507    144.3408   1.0627666389e+02   3.7228223407e+01     1.867375    0.9649107  79.61  0.006173892    4.080    0.755
        26 -10.3975     87.0538    156.1788   1.0338291567e+02   3.1705784491e+01    0.5192141    0.3675054 -25.10  0.001286062    2.022    0.506
        27  -9.0681     32.7327    155.6573   1.1724102391e+02   3.8602715152e+01    0.2546897    0.1214693 -62.24  0.001257444    1.795    0.443
        28  -8.5195     28.2332    155.4082   1.1832418408e+02   3.9086982072e+01    0.1678462    0.1050653  47.51 0.0009486052    1.647    0.393
        29 -13.2882     60.7711    247.3079   1.1961927027e+02   1.5979863323e+01     2.020717    0.6479768  34.69  0.005087695    3.147    0.682
        30  -8.2765    134.0000    143.9751   8.8741341420e+01   2.6286802728e+01    0.2559594    0.0870563 -48.58 0.0008004139    2.928    0.659
        31  -8.6311     82.7916    142.3226   1.0204506391e+02   3.5710484103e+01    0.2658506    0.1824905 -87.16 0.0008315202    1.776    0.437
        32  -9.0873    100.4834    142.4625   9.7239023346e+01   3.2841019656e+01    0.2690736    0.2455812  74.11 0.0007703922    1.129    0.114
        33  -8.6933    102.6296    139.6811   9.6081658755e+01   3.3141771264e+01    0.3047613    0.2237563 -19.66  0.001388614    1.847    0.459
        34 -10.5544     88.8244    140.7653   1.0008764607e+02   3.5161112292e+01     0.287338    0.2451646 -41.69 0.0004088863    1.223    0.182
        35  -7.7335     34.6622    139.2975   1.1476294586e+02   4.2354565376e+01    0.1338189     0.087713  69.94  0.000406448    1.656    0.396
        36  -8.6947    110.5871    131.1078   9.2020165786e+01   3.3770864419e+01    0.2895617    0.2212014  15.02  0.000880164    1.624    0.384
        37  -8.5084    105.9737    130.5046   9.3160936062e+01   3.4752187359e+01    0.3431351    0.2562119  78.07  0.001494002    1.774    0.436
        38  -9.1735     98.2061    127.0808   9.4576619009e+01   3.6936828892e+01    0.3018602    0.2361699 -28.63 0.0006296843    1.449    0.310
        39  -7.9312    158.8187    162.5292   8.6765941939e+01   1.7289001569e+01    0.2047128    0.1407687  52.75 0.0003071528    1.593    0.372
        40  -8.2545    107.6425    119.4702   9.0086656367e+01   3.7068745369e+01    0.1886881    0.1517926  23.93 0.0005309806    1.381    0.276
        41  -7.7439    168.6584    113.3258   7.2709287372e+01   2.5504955758e+01    0.1620159    0.1273164 -80.50 0.0007051173    1.734    0.423
        42 -13.5988      8.6419    207.2108   1.2654579059e+02   2.9392319212e+01     1.935293     1.175669 -45.61   0.01163708    2.615    0.618
        43  -8.3094    206.1551    110.2942   6.4195879192e+01   1.7585949009e+01     0.235777    0.1857174  29.79 0.0007142473    1.409    0.290
        44  -8.7504     32.6191     99.8476   1.0914233413e+02   5.2127687849e+01    0.1953081    0.1118225 -74.95  0.000952639    1.765    0.433
        45  -8.5733     41.4898     91.9201   1.0450471183e+02   5.3191595100e+01    0.2052889    0.1138585 -58.02 0.0005073472    1.512    0.339
        46  -7.9287    234.3523     84.3066   5.3103750500e+01   1.5850009364e+01    0.1400072    0.1084934  13.47 0.0007042355    1.712    0.416
        47  -7.6323     69.8204     81.6162   9.1904776841e+01   5.2114690085e+01    0.1858767     0.132323  43.98 0.0006998925    1.638    0.389
        48  -8.3714     32.6274     68.8389   1.0216201320e+02   5.9293824567e+01    0.1846215    0.1114512 -65.80  0.000686376    1.731    0.422
        49  -9.3346    142.5705     47.5811   5.8914889996e+01   4.3673549365e+01    0.3065044    0.2395803 -73.11 0.0009922939    1.634    0.388
        50  -8.9891     72.9847    229.8304   1.1590235567e+02   1.7631371291e+01    0.2369931    0.1797788 -23.05  0.001386474    2.388    0.581
        51 -11.5354    192.6266     43.4536   4.8550162580e+01   3.1744476398e+01    0.4952246    0.4679295  38.02  0.001696556    1.163    0.140
        52 -12.1459     27.9105    216.2810   1.2348505232e+02   2.5680841562e+01     1.155938    0.4953675  86.15  0.005841507    2.415    0.586
        53 -10.2655    184.9620     47.1098   5.0756950381e+01   3.3146007365e+01     0.425819    0.2049222  55.95  0.001764916    1.989    0.497
        54  -8.1997    145.2636     42.0343   5.6476217027e+01   4.3799283362e+01    0.1943357    0.1898953  -9.68 0.0003249581    1.061    0.058
        55 -15.1032      8.9774    240.3850   1.2812505340e+02   2.2960235265e+01     12.82618     1.546641 -78.19    0.0407015    7.962    0.874
        56 -11.7962     10.6013    188.7612   1.2505944687e+02   3.3091099090e+01    0.4695926    0.4340798  17.36   0.00361393    1.556    0.357
        57 -12.9468     41.9558    203.4623   1.1977511902e+02   2.6807726266e+01     1.325256    0.7425209  81.98  0.002600099    1.740    0.425
