#   1 NUMBER                 Running object number                                     
#   2 MAG_AUTO               Kron-like elliptical aperture magnitude                    [mag]
#   3 X_IMAGE                Object position along x                                    [pixel]
#   4 Y_IMAGE                Object position along y                                    [pixel]
#   5 X_WORLD                Barycenter position along world x axis                     [deg]
#   6 Y_WORLD                Barycenter position along world y axis                     [deg]
#   7 A_WORLD                Profile RMS along major axis (world units)                 [deg]
#   8 B_WORLD                Profile RMS along minor axis (world units)                 [deg]
#   9 THETA_WORLD            Position angle (CCW/world-x)                               [deg]
#  10 FWHM_WORLD             FWHM assuming a gaussian core                              [deg]
#  11 ELONGATION             A_IMAGE/B_IMAGE                                           
#  12 ELLIPTICITY            1 - B_IMAGE/A_IMAGE                                       
         1 -13.8548    105.0427    112.7551   1.0141987390e+02   3.9198382157e+01     1.500959     0.925055 -71.12  0.005804108    2.527    0.604
         2 -12.3383    226.3270     29.8950   5.7716470782e+01   2.6252352233e+01     1.082782    0.5817234 -49.96  0.006060673    1.672    0.402
         3 -13.2717    214.0477      5.3728   5.4004689837e+01   3.1711266855e+01     8.393088     2.255341 -58.73    0.0268405    5.939    0.832
         4 -12.4752    245.5246     20.3801   5.4232408758e+01   2.3508075538e+01     1.195369    0.4881566 -42.27  0.006079612    2.228    0.551
         5 -12.3138    248.4759      5.1406   5.1330817695e+01   2.4715305670e+01     1.050825    0.7116067 -62.06  0.007481055    1.200    0.167
         6 -12.8540    227.1260     14.8979   5.4729296720e+01   2.7905780077e+01     3.998284     1.239136 -64.37   0.01214051    6.391    0.844
         7 -11.9577    233.1366      4.8596   5.2377420562e+01   2.7796759148e+01     1.350479    0.5236767 -68.18  0.006242753    2.881    0.653
         8 -11.2593    213.0820     23.6555   5.7769226818e+01   2.9861496267e+01    0.9302542    0.2589627 -37.93  0.003836382    3.388    0.705
         9 -10.6970    194.1870     24.3205   5.9956173707e+01   3.3959746184e+01    0.6689862     0.350623 -38.17  0.003534205    2.017    0.504
        10 -10.7452    186.4290      9.7338   5.7584585407e+01   3.7292007244e+01    0.3106849    0.1754875 -51.93  0.001761006    1.790    0.441
        11 -11.5805    183.7182      3.0575   5.6391331971e+01   3.8549712337e+01    0.5092812    0.3720536 -86.40  0.003125345    1.170    0.145
        12 -10.7719    161.9996      9.0675   6.0338553991e+01   4.2859457092e+01    0.2823098    0.1959434 -30.80  0.001739914    1.725    0.420
        13 -11.1073    174.7542      3.9250   5.7560416473e+01   4.0467140682e+01    0.5153826    0.2759422 -73.42  0.002665356    2.152    0.535
        14  -9.6804    248.6524    214.2645   9.1751524796e+01  -9.2773666812e+00    0.2319972    0.2094563 -55.96  0.001262454    1.527    0.345
        15 -10.2726    152.7448    223.9606   1.1259113555e+02   4.4868540043e+00    0.6086891    0.5213725  44.27  0.003481509    1.109    0.099
        16  -9.8479    180.0115    221.9679   1.0642338230e+02   1.3860954656e-01    0.5220612    0.3637434  71.59  0.002389369    2.445    0.591
        17 -11.0809    232.2121    196.2309   9.1284099343e+01  -3.7773363035e+00     2.457838    0.7091432 -37.31  0.008333768    3.524    0.716
        18 -12.9358    223.6094    167.1358   8.7045782122e+01   3.1067165725e+00     4.405777      1.56263 -35.22   0.01472718    3.290    0.696
        19  -9.8249    220.7865    208.5617   9.5769659763e+01  -4.1653383603e+00     1.472471    0.4238723 -42.79  0.005225537    3.295    0.697
        20 -10.3076    213.9446    199.1421   9.5283213415e+01  -1.3303161966e+00    0.5313307     0.411274 -54.63  0.002415886    1.490    0.329
        21  -8.7616    244.5849    173.8124   8.4724086523e+01  -1.7089868662e+00     1.031585    0.7325755 -25.14  0.005716681    1.389    0.280
        22 -11.9680    247.2977    156.8264   8.0897641223e+01   9.4504994478e-01     1.783244    0.6626974 -38.44  0.007063887    2.451    0.592
        23 -11.0926    249.2628    196.6723   8.8358994926e+01  -6.4485100734e+00     0.953575    0.4562196 -39.61  0.003710035    1.818    0.450
        24 -10.2623    249.4342    183.4459   8.5793861331e+01  -4.1872013319e+00     0.817683    0.2556862 -40.46  0.003134235    2.765    0.638
        25 -11.3510    197.4739    208.7526   1.0039786029e+02  -3.4434642728e-01     1.536206    0.3481707 -44.53  0.004595159    4.347    0.770
        26 -10.9962    201.3820    198.0096   9.7548666349e+01   1.0412292264e+00    0.6872171     0.424968 -52.69  0.003235266    1.805    0.446
        27  -9.9959    204.9780    190.2675   9.5303701179e+01   1.9166461656e+00    0.9381678    0.4782598 -46.99  0.004064879    1.940    0.484
        28  -9.6050    184.5144    210.2536   1.0335702079e+02   1.6170685242e+00    0.3859604    0.2756377 -54.73  0.001392175    1.585    0.369
        29  -9.0778    120.1546    218.7955   1.1897278935e+02   1.1273876521e+01    0.2148531     0.181288  65.06 0.0004966125    1.164    0.141
        30  -8.9955    174.4160    208.2541   1.0513091046e+02   3.8116005580e+00    0.3344232    0.1392752 -49.94  0.001031812    2.555    0.609
        31 -10.2150    149.2151    204.8787   1.1007140580e+02   9.1209808133e+00    0.5905296    0.4422895  85.96  0.002702766    1.831    0.454
        32 -10.3678    123.9772    205.9334   1.1603466738e+02   1.3473158617e+01    0.2175004    0.2003196 -83.68  0.001215275    1.091    0.083
        33 -13.2660    198.7808    168.1260   9.2006155111e+01   7.5318727886e+00     1.619617    0.8759817 -30.09  0.006425464    2.275    0.560
        34 -11.4039    192.5013    187.0260   9.7190653556e+01   4.8299193206e+00    0.8444068    0.2496141 -47.46  0.002671187    3.418    0.707
        35  -9.2434    126.3101    198.6652   1.1424695963e+02   1.4715428048e+01     0.420719    0.2694956 -86.93  0.001701826    2.408    0.585
        36 -10.6152    158.6102    190.8457   1.0531604242e+02   1.0431400434e+01     0.616881    0.2613516 -49.25  0.002281729    2.380    0.580
        37  -9.6640    129.7187    189.4988   1.1178965408e+02   1.6216703315e+01    0.3213505    0.2672454  84.92 0.0007489616    1.341    0.254
        38  -9.7298    125.6436    182.6259   1.1148427121e+02   1.8600017234e+01    0.5933292    0.3327658 -73.12  0.002159362    2.684    0.627
        39 -11.9208    184.3018    178.6936   9.7214476858e+01   8.1139855646e+00    0.7106973    0.4317445 -42.31  0.003181708    1.601    0.376
        40  -9.9651    139.5222    179.6770   1.0756394818e+02   1.6650659172e+01     0.375547    0.2447293 -34.97  0.001610841    1.813    0.448
        41 -14.1187    178.6632    162.7310   9.5048231960e+01   1.2665643083e+01     2.660423     1.488841 -31.63   0.01038979    2.199    0.545
        42 -14.1983    180.5999    137.4980   8.8985708313e+01   1.7733607511e+01     2.172503     1.625416  19.46  0.009882394    1.818    0.450
        43  -8.8541     87.8931    169.6854   1.1859444686e+02   2.8445934523e+01    0.2927432    0.2086937 -66.98 0.0006915099    1.359    0.264
        44 -11.1430    139.7745    161.8591   1.0382785107e+02   2.0795628677e+01    0.6175736    0.3104498 -58.72   0.00225773    2.268    0.559
        45  -8.9622    109.9785    166.9503   1.1236752073e+02   2.5305442489e+01    0.2500711    0.1841636  78.46 0.0008741183    1.677    0.404
        46 -13.9313    209.0814    150.6575   8.6260224910e+01   9.1063602727e+00     2.536317     1.582654  13.13  0.009418302    3.285    0.696
        47 -12.0555    151.9270    161.8755   1.0091235950e+02   1.8325885309e+01    0.6306704    0.4294795  52.72  0.002800805    1.564    0.361
        48 -13.9570    161.2159    137.4768   9.3224980570e+01   2.1923672700e+01     1.701996     1.277721   6.37  0.007373838    1.976    0.494
        49 -12.5925    133.0860    153.1142   1.0357893384e+02   2.4219039349e+01    0.8478196    0.6318848  66.69  0.003836221    1.586    0.369
        50 -10.9395    136.7841    143.9509   1.0058478486e+02   2.5630565639e+01    0.5328333    0.2040955 -54.73  0.001667471    2.949    0.661
        51 -12.8186    112.3350    133.1846   1.0443764668e+02   3.3084094259e+01     1.008326    0.5565304 -54.78  0.004070863    1.819    0.450
        52 -13.1393    117.2729    119.8663   9.9851478122e+01   3.5200849388e+01    0.9903619    0.6924127 -27.85  0.004377664    1.729    0.421
        53 -10.2632    191.0737    195.3539   9.9141018101e+01   3.4040248222e+00    0.7461202    0.3146605 -44.99   0.00290609    2.324    0.570
        54 -12.8256    137.4176    129.5406   9.7012508959e+01   2.8829400545e+01    0.7949508    0.5897235 -57.10   0.00367489    1.376    0.273
        55 -13.2643    156.5696    123.9458   9.1043073011e+01   2.5916754669e+01     1.204237    0.8972287  11.09  0.005209986    1.993    0.498
        56  -9.1689     70.1591    169.3148   1.2313827335e+02   3.1274773232e+01    0.3889819    0.2252125  69.28  0.001396807    2.388    0.581
        57 -11.7704    131.6032    119.9157   9.6098445330e+01   3.2227877294e+01    0.5500481    0.3872488  -4.82   0.00220178    2.351    0.575
        58  -9.3139    160.3748    249.0344   1.1495485458e+02  -1.5620230960e+00    0.2068487    0.1266904 -48.42  0.001076268    1.836    0.455
        59 -10.0368     74.7269    125.3224   1.1333930067e+02   4.1501081830e+01    0.3835146    0.2326028 -56.22  0.001026684    1.544    0.352
        60 -11.9614    152.3307    108.7598   8.8219136005e+01   3.0084231190e+01     1.042368    0.5947343  20.43  0.003062758    4.543    0.780
        61  -8.9253    226.4532    106.0944   7.3611777126e+01   1.4265424387e+01     0.435514    0.2354245 -23.44  0.001555219    3.655    0.726
        62 -10.5661    150.6044    168.9084   1.0272717393e+02   1.6967930859e+01    0.3588531    0.2685395 -54.53   0.00168704    1.338    0.252
        63 -10.9593    138.2237    105.8361   9.0812484083e+01   3.3829140282e+01    0.4057258    0.2254578  53.67  0.001642568    1.903    0.475
        64 -10.0927    236.0795    103.5626   7.1664754768e+01   1.2787371195e+01    0.4219171    0.3212642  29.65  0.002249945    1.965    0.491
        65 -10.0455     47.0958    102.4683   1.1672691574e+02   5.0515176119e+01    0.4765678    0.1970218 -56.23  0.001120006    2.188    0.543
        66 -10.3002    248.0259    100.0100   6.9311565310e+01   1.1094699149e+01    0.4755721     0.358063 -22.49  0.002288517    1.816    0.449
        67 -11.2228    249.4414     91.2070   6.7369830640e+01   1.2330019361e+01    0.9442802    0.6376039 -18.20  0.004553765    2.636    0.621
        68  -9.7839    185.9320     98.4869   7.8680092063e+01   2.4473404722e+01    0.5485841    0.3589237  38.42  0.002475254    1.902    0.474
        69 -13.0089    204.4348    127.2139   8.1953835317e+01   1.4789628726e+01     1.544262     1.211254   9.67  0.007499445    1.847    0.459
        70 -10.9038    127.9488     95.2599   9.0550192758e+01   3.8220579724e+01    0.4274704    0.2642604  42.39  0.001891304    1.639    0.390
        71 -10.0642    136.6112     91.3733   8.7336971112e+01   3.7082328862e+01    0.2715061    0.2502216  16.09  0.001465953    1.191    0.160
        72 -11.3793    120.1042     96.1162   9.2826024003e+01   3.9718038413e+01    0.4528287    0.3133948  -2.71  0.001879039    2.327    0.570
        73  -8.0200    159.3184     89.2951   8.1645959221e+01   3.2314700551e+01    0.1456957    0.1187143  17.45 0.0007015036    1.609    0.378
        74 -11.3053    103.5843     87.1253   9.4847629379e+01   4.4848524739e+01    0.3720759    0.2983365  89.42  0.001855086    1.739    0.425
        75 -11.4125     78.7757     82.7314   1.0107463361e+02   5.0195266983e+01    0.4648973    0.1846896 -41.86  0.001817281    2.450    0.592
        76  -9.9376    116.0040     84.1992   9.0571189544e+01   4.2896763533e+01    0.2183891    0.1667647 -12.31  0.001060406    1.617    0.382
        77 -10.8828    242.5470     78.7332   6.5717163429e+01   1.5748297566e+01    0.5868673    0.1932813 -45.34   0.00219332    2.549    0.608
        78  -9.4044    250.3404     78.5993   6.4771182866e+01   1.4240435886e+01    0.3615556    0.1556186 -41.19  0.001663065    2.102    0.524
        79  -8.1968    196.4735     79.4957   7.2326778704e+01   2.5492670871e+01    0.1426734    0.1272872 -77.41 4.161207e-05    1.006    0.006
        80  -8.6615    193.2223     87.5582   7.4767082247e+01   2.4824502525e+01    0.2627798    0.1390932  62.41  0.001119851    1.987    0.497
        81  -9.3019    121.3350     76.6251   8.6990637976e+01   4.3148686830e+01    0.3110985    0.2439405 -82.94  0.001543791    1.714    0.416
        82 -11.0592    250.0203    111.7135   7.1400319945e+01   8.6698351782e+00    0.6675909    0.1953862 -41.89  0.002249155    2.931    0.659
        83  -7.9143    235.2845    247.6322   1.0005997068e+02  -1.2595605437e+01    0.1030617   0.09776971 -67.33 0.0007018567    1.697    0.411
        84 -11.4187    213.8715    238.8476   1.0257130871e+02  -8.2448422123e+00    0.8369101    0.7692434  80.38  0.005411854    1.646    0.392
        85 -10.6279    209.3594    224.1198   1.0085318236e+02  -5.0920226313e+00    0.8629643    0.4947088 -53.19  0.004102929    2.246    0.555
        86  -9.3740     99.5060    245.4995   1.2710432016e+02   9.0261673200e+00    0.2282821    0.1239025 -77.16  0.001041698    2.397    0.583
        87  -8.0967    206.7912     68.0285   6.8126306159e+01   2.5060738846e+01    0.1767608     0.102454 -42.94 0.0006084423    1.666    0.400
        88  -9.8137    176.7580    241.2743   1.1037206638e+02  -2.8575148078e+00    0.4001423    0.3236737 -53.01  0.001720276    1.451    0.311
        89  -8.6115    208.2070     63.9728   6.7019592052e+01   2.5384009871e+01    0.3571953    0.1448363  42.36  0.001095509    5.286    0.811
        90  -9.1877     46.5928     62.3054   1.0592985102e+02   5.8671808009e+01    0.2745529    0.1133833 -47.60  0.001230142    2.362    0.577
        91  -9.0910    227.6533     57.5249   6.3165325683e+01   2.2141722294e+01    0.2554277    0.1430257 -46.60  0.001331581    1.617    0.381
        92  -8.9048    126.8864    240.8185   1.2074958758e+02   5.5289004692e+00    0.3686124    0.1567501 -65.85  0.001354557    3.613    0.723
        93 -10.0734    226.8600     43.0391   6.0292444196e+01   2.4394898248e+01     0.356814    0.1868202 -52.69  0.001575614    1.708    0.415
        94  -8.7142    179.6853     33.2743   6.3858758758e+01   3.6186083273e+01    0.3121873    0.1909354 -50.91  0.001673711    1.673    0.402
        95  -9.3982     80.2596    239.5792   1.3038897970e+02   1.3210670523e+01    0.3320245   0.09003181 -57.95  0.001210517    3.638    0.725
        96 -10.1174    127.1758    235.3801   1.1991049627e+02   6.5730287443e+00    0.2447032    0.1452862  61.05  0.001113418    2.032    0.508
        97  -9.8554     99.6431    228.2594   1.2487928653e+02   1.2631286238e+01    0.4543951    0.2000769 -55.87   0.00194413    2.356    0.576
        98 -10.2680    247.4515    226.1135   9.4113280651e+01  -1.0985010440e+01    0.4032029    0.2152033 -40.63  0.001813118    1.790    0.441
        99 -10.5658    250.0817    220.8380   9.2701403454e+01  -1.0517110999e+01    0.5241095    0.1849311 -39.57  0.002299092    2.541    0.607
