#   1 NUMBER                 Running object number                                     
#   2 MAG_AUTO               Kron-like elliptical aperture magnitude                    [mag]
#   3 X_IMAGE                Object position along x                                    [pixel]
#   4 Y_IMAGE                Object position along y                                    [pixel]
#   5 X_WORLD                Barycenter position along world x axis                     [deg]
#   6 Y_WORLD                Barycenter position along world y axis                     [deg]
#   7 A_WORLD                Profile RMS along major axis (world units)                 [deg]
#   8 B_WORLD                Profile RMS along minor axis (world units)                 [deg]
#   9 THETA_WORLD            Position angle (CCW/world-x)                               [deg]
#  10 FWHM_WORLD             FWHM assuming a gaussian core                              [deg]
#  11 ELONGATION             A_IMAGE/B_IMAGE                                           
#  12 ELLIPTICITY            1 - B_IMAGE/A_IMAGE                                       
         1 -16.0968     83.2033     62.8408   2.8164034868e+01   5.4795018256e+01     2.155346     1.211738 -51.31  0.008978307    1.891    0.471
         2 -16.3382     73.5441     87.1451   3.9802096159e+01   5.1211998070e+01     3.093045     2.301251  70.88   0.01378952    1.688    0.407
         3 -14.7895    126.9489     35.4828   6.0968621109e+00   4.9000330784e+01    0.7992244    0.5495674 -17.06  0.003869388    1.841    0.457
         4 -14.9619      7.4947     23.6656   5.4175910965e+01   7.4942629626e+01     1.105293    0.6945517 -35.71  0.004218833    1.456    0.313
         5 -15.9087     35.2929     17.4636   2.9480133255e+01   7.2546155677e+01      1.81389     1.364152   8.15  0.007255873    1.436    0.304
         6 -16.2800     60.4675     17.9179   1.6802699347e+01   6.7477135356e+01     1.928027     1.768155  75.37   0.01138385    1.206    0.171
         7 -15.9062     80.3100     12.2143   7.0178609546e+00   6.3530013209e+01     1.822034     1.247153 -43.18  0.009623407    1.599    0.374
         8 -14.1741    195.3561     22.3938   3.5359160117e+02   3.4375232320e+01    0.8018252    0.5071584 -65.13   0.00463688    1.404    0.288
         9 -13.5211    143.3436     29.0716   1.1729502992e+00   4.5739233820e+01    0.4563618    0.1734164  66.22  0.001798069    2.453    0.592
        10 -15.2101      3.9410    237.9948   7.9480535944e+01   2.1914334120e+01     1.954574     0.792488  85.93   0.01013015    2.555    0.609
        11 -15.2654      4.3786    204.2726   7.8407579850e+01   2.8963371735e+01      1.18132    0.7079252  87.03  0.005621133    1.597    0.374
        12 -12.7411    147.8154    227.6188   4.6194284886e+01   7.9895658034e+00    0.3475128    0.2979226  30.05  0.002381211    1.244    0.196
        13 -13.8796    166.9183    218.9122   4.1068372478e+01   7.0333224665e+00    0.4732777    0.3184137   2.35   0.00283719    1.455    0.313
        14 -13.2272    107.4501    224.0800   5.4624038021e+01   1.3657908592e+01    0.4278892    0.3760116 -67.20   0.00282207    1.390    0.280
        15 -13.0311    244.1589    219.9397   2.7802089163e+01  -1.6076252378e+00     0.220863    0.1286205  15.51  0.001546559    1.603    0.376
        16 -13.1694     76.2853    219.1764   6.1486620073e+01   1.8449922610e+01    0.3705106    0.2003389  22.05  0.001830379    1.775    0.436
        17 -12.9164     25.6903    206.9971   7.3181434468e+01   2.6529902939e+01    0.4138342    0.2503977  20.28  0.002231372    1.676    0.403
        18 -13.5364     50.3316    200.0875   6.6328980588e+01   2.5588515979e+01    0.3201096    0.2011131  59.71  0.001663696    1.564    0.361
        19 -14.5092    129.6455    189.2100   4.4647254037e+01   1.7435950664e+01     1.046032    0.7549601 -20.39  0.005528912    1.581    0.368
        20 -15.5121      2.7238    169.3486   7.7544475356e+01   3.7415991502e+01     1.857175    0.5271858 -85.85  0.006624627    3.388    0.705
        21 -15.9198      8.1590    145.8893   7.4637800669e+01   4.3131310664e+01     2.289256     1.450812  76.66   0.01089562    1.466    0.318
        22 -14.0276    181.7248    159.0451   2.7885657456e+01   1.5192334864e+01    0.5517918    0.4257214 -46.30  0.003189883    1.347    0.258
        23 -14.2071     80.3798    154.4377   5.2223536007e+01   3.2837410972e+01    0.6045207    0.5217255  61.38  0.003206466    1.169    0.145
        24 -15.0087    116.3897    147.5737   4.0584305399e+01   2.8637805334e+01     1.899483    0.9234989  35.67  0.007545475    2.042    0.510
        25 -13.7577    237.7930    149.3006   1.6787545714e+01   8.6192812685e+00    0.4651391    0.3300509  38.02  0.003101955    1.723    0.420
        26 -13.3755    196.9884    144.5626   2.2193371600e+01   1.5312241307e+01    0.3301387    0.2062096  -0.40  0.001521326    2.498    0.600
        27 -12.8747     80.6524    247.4445   6.2977205961e+01   1.2577115629e+01    0.4455532    0.2100758  19.55  0.002207027    2.097    0.523
        28 -16.2012     64.3170    122.3897   5.1777688533e+01   4.3606666379e+01     3.369639     1.824384  17.77   0.01281988    2.372    0.578
        29 -16.4865     64.1786    106.5671   4.8467998898e+01   4.7836515793e+01     2.463163     1.238996  26.16  0.009359851    2.229    0.551
        30 -13.6324    168.5165    243.2005   4.4108592746e+01   3.1953891757e+00    0.4714546    0.2853088 -11.01  0.002851494    1.754    0.430
        31 -13.6287    177.8329    113.0613   1.8734753089e+01   2.4280929350e+01    0.5291809    0.4423154  15.73  0.002961389    1.423    0.297
        32 -14.7341    229.6129    111.4326   1.0435893508e+01   1.5451388997e+01    0.4551098    0.3758928  53.53  0.003084133    1.522    0.343
        33 -14.6473    214.3992    105.5901   1.1213839675e+01   1.8864124748e+01     0.585221    0.4463713  73.33  0.003513764    1.731    0.422
        34 -15.4665     33.4796     85.1582   5.6667223817e+01   5.7625381722e+01     2.039445    0.8946314 -43.01  0.007645662    2.464    0.594
        35 -14.1958    139.3593     96.5186   2.2508706903e+01   3.5406698087e+01     0.632816    0.4744614 -39.37  0.003093073    1.317    0.241
        36 -14.4035    194.4236     95.6475   1.1851531822e+01   2.4119616328e+01    0.8935906    0.6583974  75.48  0.004911693    1.706    0.414
        37 -14.7174    160.8500     87.4806   1.5518683746e+01   3.2447790232e+01    0.6748564    0.4313439 -65.12  0.003005618    1.952    0.488
        38 -14.5596    192.7193     63.8647   4.3452789682e+00   2.9484969405e+01    0.9513804    0.7655085 -89.46  0.005690792    1.313    0.238
        39 -12.9190      8.2009     60.8477   6.4876746061e+01   6.6093807515e+01    0.5783303    0.3338586  89.33  0.002680854    2.014    0.503
        40 -12.8565    231.6703     61.5154   3.5959345218e+02   2.2268784634e+01    0.2298937   0.09104153 -35.41  0.001097967    2.024    0.506
        41 -14.1326    136.7657     42.5418   6.6849335119e+00   4.5559612561e+01    0.4282415    0.4023824 -81.59  0.002509749    1.046    0.044
        42 -13.8599    188.2589    240.0233   3.9993670047e+01   1.4842024898e+00    0.5563711    0.2735078  19.23   0.00321071    1.821    0.451
        43 -14.5624     98.0956    238.9187   5.8332960584e+01   1.2091414911e+01    0.9963426    0.3069989  29.48  0.004178247    2.555    0.609
        44 -13.4488     72.6041    236.6148   6.3899739931e+01   1.5453895899e+01    0.5023677     0.297022  72.70  0.002679644    2.236    0.553
        45 -14.2824    116.3127    232.3081   5.3570225710e+01   1.1072297345e+01    0.8335932    0.4417591  32.50  0.004121406    1.558    0.358
        46 -13.0108     57.0983    230.3145   6.7011561643e+01   1.8388104583e+01    0.3929095    0.2276597  47.44  0.002197911    1.487    0.327
        47 -14.1579    212.7894    224.8250   3.3509980630e+01   9.1032613282e-01    0.6035277    0.4356174 -36.99    0.0042885    1.585    0.369
