#   1 NUMBER                 Running object number                                     
#   2 MAG_AUTO               Kron-like elliptical aperture magnitude                    [mag]
#   3 X_IMAGE                Object position along x                                    [pixel]
#   4 Y_IMAGE                Object position along y                                    [pixel]
#   5 X_WORLD                Barycenter position along world x axis                     [deg]
#   6 Y_WORLD                Barycenter position along world y axis                     [deg]
#   7 A_WORLD                Profile RMS along major axis (world units)                 [deg]
#   8 B_WORLD                Profile RMS along minor axis (world units)                 [deg]
#   9 THETA_WORLD            Position angle (CCW/world-x)                               [deg]
#  10 FWHM_WORLD             FWHM assuming a gaussian core                              [deg]
#  11 ELONGATION             A_IMAGE/B_IMAGE                                           
#  12 ELLIPTICITY            1 - B_IMAGE/A_IMAGE                                       
         1 -12.6193    201.8681     39.6375   4.3528624218e+01   2.9975734426e+01     1.312217     1.053421  29.08   0.00729925    1.675    0.403
         2 -12.4331    213.6527     27.7580   3.9269900167e+01   2.8719459120e+01    0.9047713    0.7607639  34.40  0.005500304    1.598    0.374
         3 -11.2022    238.9429      3.7438   3.1832612564e+01   2.5849829218e+01    0.7783688    0.3848168  76.90  0.004301248    1.855    0.461
         4  -9.4413     18.1998      4.0296   8.1597199952e+01   7.2727055467e+01    0.1559236      0.13427 -52.05  0.001094645    2.029    0.507
         5  -9.3326    119.3487    220.4549   1.0180445475e+02   1.2168983863e+01    0.2769254    0.2358482  -3.83  0.001103164    1.498    0.332
         6 -10.0310    116.5856    247.6208   1.0574853591e+02   7.5692963830e+00     0.411678    0.2390666 -61.90   0.00162527    2.108    0.526
         7  -8.9303     86.7804    249.3895   1.1188161799e+02   1.1616550224e+01    0.1999648    0.1563226 -85.09 0.0006800878    1.389    0.280
         8 -13.9514     41.4003    200.0623   1.1683809909e+02   2.7611771062e+01     3.900513     1.899848  68.81   0.01789726    2.219    0.549
         9  -9.6780     61.1809    198.8811   1.1226936244e+02   2.5446317994e+01    0.2906151    0.2404971 -66.90 0.0004291755    1.279    0.218
        10  -8.1180    192.3841    193.1800   8.1391501813e+01   4.6984710381e+00    0.1868508    0.1306395 -50.82 0.0009412572    1.707    0.414
        11  -7.6846     72.4595    188.4537   1.0840148825e+02   2.6299217877e+01    0.1371484    0.1193001  72.59 0.0001221384    1.023    0.022
        12  -8.0389     80.7045    183.7361   1.0576485803e+02   2.6207520118e+01    0.2320085   0.09296344  45.72 0.0009056468    2.373    0.579
        13  -7.9856     99.2101    180.8620   1.0074195052e+02   2.3989073978e+01    0.1883795    0.1723369 -14.21 0.0007796855    1.327    0.247
        14 -10.2869     42.0471    177.6495   1.1452037931e+02   3.2697461475e+01    0.4600055    0.3268816 -15.93  0.001641107    2.326    0.570
        15 -10.3448     66.6278    175.1987   1.0812283777e+02   3.0232927277e+01    0.4701881     0.291742 -37.91   0.00197062    2.240    0.554
        16 -10.2494     71.1267    170.1681   1.0627612898e+02   3.0823312042e+01    0.3395516    0.2758215 -37.11 0.0008300663    1.501    0.334
        17  -8.8645    115.3968    174.1749   9.5562808522e+01   2.2773377491e+01    0.2072955    0.1414686 -70.52 0.0006486085    1.694    0.410
        18 -11.1449     58.9680    132.1198   1.0359905557e+02   4.1877234560e+01     0.910889    0.3900003 -75.63  0.003082767    3.362    0.703
        19 -11.9023     68.5602    144.4925   1.0294550769e+02   3.7510851951e+01     0.953461    0.6197101  77.39  0.004329177    1.963    0.491
        20 -10.3444     87.1139    154.7210   9.9534007930e+01   3.2210008042e+01    0.5748867    0.4325696 -19.99  0.001391575    1.840    0.457
        21  -9.1232    134.2844    146.9022   8.5302883966e+01   2.5511718438e+01    0.6568946    0.1454072 -53.11  0.001464429    6.082    0.836
        22 -11.8519      9.4561    188.0313   1.2289122768e+02   3.3528268244e+01     0.428165    0.3797593  50.83 0.0006028848    1.301    0.231
        23 -12.9109     57.3587    239.9762   1.1684556055e+02   1.7332573647e+01    0.9776933    0.7322632  75.36  0.003730353    1.172    0.147
        24  -9.7294     81.2202    141.2438   9.8712967268e+01   3.6464589196e+01    0.3680061    0.2462294  63.96  0.001670333    1.805    0.446
        25  -9.3386    101.4511    139.8984   9.2657054251e+01   3.3435459788e+01    0.5306003    0.3455136 -21.28  0.002100485    2.441    0.590
        26 -10.4512     88.7333    139.5974   9.6224297209e+01   3.5678428003e+01    0.2882652    0.2554279 -40.03 0.0003867988    1.187    0.158
        27 -13.3140     23.4055    225.3197   1.2241650973e+02   2.4201098315e+01     1.888711    0.7688469  70.77  0.005561153    2.521    0.603
        28  -8.7199    105.9956    130.9970   8.9415838745e+01   3.4767918777e+01    0.3673438    0.2297981 -61.21  0.001560081    1.717    0.418
        29  -8.4938    110.9726    130.3050   8.7841443841e+01   3.3998939479e+01    0.2693788    0.2131239 -21.03 0.0008861057    1.534    0.348
        30  -8.6639    135.3323    128.5154   8.0766968759e+01   2.9509373021e+01    0.2912691    0.1462334 -47.11  0.001091238    1.992    0.498
        31 -11.2359     80.1364    161.0614   1.0250689740e+02   3.1732278720e+01     0.972871    0.4510895  55.15 0.0004707948    2.712    0.631
        32  -9.1698     98.0539    126.4384   9.0682798886e+01   3.7310586686e+01     0.333462    0.2511465  -9.03   0.00108057    1.817    0.450
        33 -11.9481     68.2558    156.5587   1.0500622565e+02   3.4554710528e+01    0.6220624    0.4969528 -11.13  0.001386344    1.708    0.415
        34  -8.4035    116.7697    124.4254   8.4811648025e+01   3.4262861595e+01    0.2193805    0.1513588  28.43  0.000618041    1.638    0.389
        35  -8.0704     86.6692    120.2989   9.2703063956e+01   4.0756234005e+01     0.152275    0.1164388  74.48 0.0006177925    1.644    0.392
        36  -8.3750    107.6567    118.9904   8.6091757884e+01   3.7318077188e+01    0.2148388    0.1946882 -45.64 0.0004116895    1.086    0.079
        37 -11.0527     21.8917    113.1008   1.1200211957e+02   5.0356623929e+01    0.6898502    0.2996448  55.21  0.002760522    3.417    0.707
        38  -8.9489    135.0000    112.9935   7.6925478345e+01   3.3061024433e+01    0.4508503   0.08972581 -45.11   0.00106023    5.015    0.801
        39  -8.3449    205.8302    110.3369   6.0562459858e+01   1.7609415315e+01    0.2050345    0.1334581  42.27 0.0004661643    1.685    0.407
        40 -14.7798      3.6466    179.3215   1.2358415858e+02   3.5968233640e+01     16.13049    0.7977394 -75.91   0.03543017   10.731    0.907
        41 -13.8305      9.2416    207.6340   1.2414416334e+02   2.9274384647e+01     1.650219      1.12838 -57.16   0.01080804    1.779    0.438
        42  -8.2801    134.5083    105.5059   7.5053127114e+01   3.4801393624e+01    0.1557603    0.1544256  -0.07 0.0002027564    1.007    0.007
        43 -14.3972     33.3068    249.5346   1.2200915628e+02   1.8405428420e+01     8.385998     2.685022  25.34   0.01994406   13.683    0.927
        44  -8.1939     74.4064     85.1491   8.7712872458e+01   5.0945238233e+01    0.1954895    0.1349703 -59.84 0.0005387913    1.598    0.374
        45  -8.5488    112.4762     81.9880   7.4420289361e+01   4.4519178098e+01    0.2946782    0.2139975  61.11 0.0006942854    1.637    0.389
        46  -8.6896     91.7024    215.4296   1.0726600691e+02   1.7523553135e+01    0.2158706    0.1487923 -82.92 0.0006205818    1.616    0.381
        47 -12.6300     51.1976    190.6550   1.1370754680e+02   2.8584230721e+01     1.917804     1.058437  72.96  0.009268824    1.996    0.499
        48 -11.4578    192.2588     46.2823   4.6535012856e+01   3.1387511759e+01    0.5259272    0.4496835 -19.30  0.001752639    1.394    0.282
        49 -14.9134      7.3204    245.0903   1.2636360119e+02   2.1978714182e+01     2.680354     1.951023  27.44   0.01957647    1.850    0.460
        50 -10.2225    149.3661    227.3462   9.6301932896e+01   5.9547308876e+00    0.3088587    0.2257996  39.31  0.001768619    1.181    0.153
        51  -9.2848    109.5822    201.7155   1.0139039167e+02   1.7618203231e+01    0.3264491    0.2047109 -48.17  0.001601116    1.802    0.445
        52  -9.2626    139.5317     45.2697   5.5621352278e+01   4.4592815448e+01    0.2818339    0.2270183 -87.24 0.0005461184    1.452    0.311
        53  -8.3671    143.0655     40.3389   5.3290347386e+01   4.4407275434e+01    0.2048858    0.1694424  65.14 0.0004976511    1.145    0.127
        54  -9.9068     59.1938    221.2862   1.1490585867e+02   2.0847800639e+01    0.3693402    0.2679453 -60.61  0.001843227    1.569    0.363
