#   1 NUMBER                 Running object number                                     
#   2 MAG_AUTO               Kron-like elliptical aperture magnitude                    [mag]
#   3 X_IMAGE                Object position along x                                    [pixel]
#   4 Y_IMAGE                Object position along y                                    [pixel]
#   5 X_WORLD                Barycenter position along world x axis                     [deg]
#   6 Y_WORLD                Barycenter position along world y axis                     [deg]
#   7 A_WORLD                Profile RMS along major axis (world units)                 [deg]
#   8 B_WORLD                Profile RMS along minor axis (world units)                 [deg]
#   9 THETA_WORLD            Position angle (CCW/world-x)                               [deg]
#  10 FWHM_WORLD             FWHM assuming a gaussian core                              [deg]
#  11 ELONGATION             A_IMAGE/B_IMAGE                                           
#  12 ELLIPTICITY            1 - B_IMAGE/A_IMAGE                                       
         1 -13.2435    207.4483      3.0606   6.0872766414e+01   3.2302735566e+01     1.008237     0.586933  69.68  0.003050236    1.732    0.423
         2 -14.0298    185.7527     26.8048   7.0010529138e+01   3.5223194508e+01     1.782907     1.154102  -8.14  0.005464339    1.755    0.430
         3 -13.9256    193.4652     19.4586   6.6876756516e+01   3.4108974303e+01     1.580438    0.9638051 -28.21    0.0063286    1.543    0.352
         4 -12.6991    199.6356     11.8264   6.4013747837e+01   3.3364487871e+01    0.5375702    0.4692326  32.17  0.001151552    1.276    0.216
         5 -14.2518     10.7040    206.6030   1.4929379403e+02   2.9934894638e+01     1.202153    0.5781016  17.65  0.005471032    2.676    0.626
         6 -12.7575    245.7366    248.3506   1.0917536391e+02  -3.7051759853e+00    0.8153231    0.2483996  30.18  0.004419262    2.540    0.606
         7 -12.7304    139.6768    249.5238   1.2736980367e+02   8.9424475297e+00    0.5893285    0.3667819 -58.66  0.003998657    2.426    0.588
         8 -11.6710    144.3994    248.7961   1.2643428924e+02   8.4462875862e+00    0.2011807    0.1905759  19.53  0.001612293    1.332    0.250
         9 -14.1930     52.3521    223.5259   1.4188468817e+02   2.3098421597e+01     1.101339    0.5675409 -60.77  0.005320918    2.315    0.568
        10 -16.2011     59.9977    211.2668   1.3951902167e+02   2.4417439130e+01     8.111778     1.866738  43.62   0.02346771    3.102    0.678
        11 -10.5600    227.1740    202.6656   1.0521661611e+02   3.0909436412e+00    0.2091437    0.1730563 -20.15 0.0008017143    1.483    0.326
        12 -11.3317    193.0717    194.8155   1.0996952033e+02   8.8772244576e+00    0.6955997    0.3842801 -57.69  0.002514653    6.188    0.838
        13 -11.3669    197.5049    246.4867   1.1675874096e+02   2.0883887506e+00     0.252777    0.1286647   7.76  0.001406616    2.429    0.588
        14 -11.3934     66.9583    195.9728   1.3679400680e+02   2.6449331275e+01    0.3869996    0.1955741  51.03  0.001838185    1.803    0.446
        15 -12.0202     74.6311    191.0823   1.3461802202e+02   2.6475731959e+01    0.3560814     0.270361 -31.74  0.002213122    1.780    0.438
        16 -11.8947     78.7450    184.6450   1.3300871569e+02   2.7218899734e+01    0.2710231    0.2345034 -40.80 0.0009778533    1.390    0.280
        17 -13.7915     58.0097    130.8879   1.3173930496e+02   4.1471608670e+01     1.825848    0.6536314 -78.11  0.005529832    4.831    0.793
        18 -13.0969     92.2681    165.5296   1.2739299901e+02   2.9283286988e+01     1.785108    0.6433999  47.31  0.001334967    2.971    0.663
        19 -14.6475     68.7766    145.7418   1.3077064985e+02   3.6720441801e+01     4.855351     1.457731  51.30   0.01388807    5.441    0.816
        20 -11.6199     87.0184    173.4128   1.2973092460e+02   2.8388893088e+01      0.32383    0.2307527  55.63 0.0004261044    1.393    0.282
        21 -11.9445    135.7585    172.1837   1.1803943386e+02   2.1396372533e+01      0.67193    0.2156866  31.26  0.002284776    3.516    0.716
        22 -13.3638     74.7705    170.1776   1.3232840865e+02   3.0644975228e+01    0.4415265    0.2768288 -41.20  0.001900651    2.023    0.506
        23 -11.3282     44.8780    171.8815   1.3981624019e+02   3.3687967929e+01    0.3584644    0.2247624  31.35  0.002115681    1.548    0.354
        24 -10.4474    134.0195    146.0419   1.1370740522e+02   2.6635667066e+01    0.6548858    0.1857939 -54.68  0.001676239    6.366    0.843
        25 -10.5015    104.0265    148.6761   1.2177039548e+02   3.1081543448e+01     0.275852    0.2520061  21.61 0.0007977791    1.097    0.089
        26  -9.9642    106.4465    145.0230   1.2049515190e+02   3.1477175874e+01    0.2946434    0.1909812 -38.52  0.001313442    1.744    0.427
        27 -12.3205     93.0589    148.0425   1.2454863900e+02   3.2882283338e+01    0.2714049    0.2487442  -1.82  0.000465132    1.206    0.171
        28 -14.1515     43.7656    130.3693   1.3588987695e+02   4.3144858237e+01     1.202435    0.5448743 -77.82  0.005274344    2.300    0.565
        29  -9.8220    109.4323    122.4764   1.1520797887e+02   3.5868992874e+01    0.2303887    0.2194292  22.11 0.0002565079    1.032    0.031
        30 -11.7673     70.4691    134.6307   1.2866109516e+02   3.9053583990e+01    0.4080186    0.2306762  40.90  0.001719151    1.717    0.418
        31 -10.7919    168.3070    113.0272   9.8211786885e+01   2.6299348163e+01    0.3321066    0.2950817 -63.75 0.0009498729    1.422    0.297
        32 -10.1702    113.5438    134.8652   1.1668608190e+02   3.2476164412e+01    0.3161086    0.2276744 -19.78 0.0009593851    1.773    0.436
        33  -9.3330    205.0455    110.4608   9.0359892133e+01   1.9266665390e+01    0.2088389    0.1057653  27.08 0.0008092149    2.674    0.626
        34 -10.9410    101.1205    131.8830   1.1946963734e+02   3.5190605032e+01    0.2969231    0.2358005 -19.37 0.0005198435    1.504    0.335
        35 -10.5490     22.5181     93.2608   1.3801481921e+02   5.4060861876e+01    0.3728744    0.1202874  33.78  0.001517272    3.053    0.672
        36  -9.2027    154.3292     76.3061   9.1126039011e+01   3.5876911960e+01    0.1593159    0.1162494  14.19 0.0007037539    1.656    0.396
        37  -9.7174    127.2413     53.8178   9.0211046259e+01   4.6131089164e+01    0.2562622    0.1686854 -74.25 0.0009520847    2.798    0.643
        38 -11.6080    161.9283    249.0142   1.2329512034e+02   6.2271752029e+00     0.254454    0.1733076  30.97  0.001860496    1.120    0.107
        39 -11.5828    183.5336    249.5202   1.1954546565e+02   3.4814269226e+00    0.3561261   0.07938465  34.84  0.001512131    3.350    0.701
        40 -17.2302      9.3027    238.8948   1.5054231154e+02   2.4543035718e+01     16.88818     2.172086 -81.83   0.06082128    8.291    0.879
        41 -12.0955    172.8820    221.1410   1.1778544569e+02   8.2579191555e+00    0.3106687    0.1830284  25.68  0.001895687    1.382    0.276
