#   1 NUMBER                 Running object number                                     
#   2 MAG_AUTO               Kron-like elliptical aperture magnitude                    [mag]
#   3 X_IMAGE                Object position along x                                    [pixel]
#   4 Y_IMAGE                Object position along y                                    [pixel]
#   5 X_WORLD                Barycenter position along world x axis                     [deg]
#   6 Y_WORLD                Barycenter position along world y axis                     [deg]
#   7 A_WORLD                Profile RMS along major axis (world units)                 [deg]
#   8 B_WORLD                Profile RMS along minor axis (world units)                 [deg]
#   9 THETA_WORLD            Position angle (CCW/world-x)                               [deg]
#  10 FWHM_WORLD             FWHM assuming a gaussian core                              [deg]
#  11 ELONGATION             A_IMAGE/B_IMAGE                                           
#  12 ELLIPTICITY            1 - B_IMAGE/A_IMAGE                                       
         1 -15.2503    170.1014     60.7264   3.4522062309e+01   3.4527407473e+01     1.280073     1.142954 -11.88  0.004009007    1.319    0.242
         2 -15.2958    188.1138     36.7202   2.4444193872e+01   3.3493226829e+01     1.080252    0.9246551  80.68  0.003477414    1.067    0.062
         3 -13.0301    189.5826     14.6695   1.8081075727e+01   3.5909367675e+01    0.2896558    0.2530911  67.15 0.0009336142    1.131    0.116
         4 -12.0955     87.5147     10.6605   3.7161316694e+01   6.0926708268e+01    0.2473361    0.1473618  52.36 0.0008050418    1.638    0.389
         5 -11.8660    227.3721      9.6007   1.2625513269e+01   2.6909722459e+01    0.2657751    0.2121242 -75.90 0.0006974195    1.055    0.052
         6 -12.6636    162.4369    200.4494   6.8195402083e+01   9.0375222503e+00    0.4888431    0.2430049 -50.95  0.002229835    2.352    0.575
         7 -14.8836    182.4298    247.5235   7.1269075621e+01  -1.8518138509e+00       2.4952    0.9076036  37.62  0.002533681    2.377    0.579
         8 -14.0517    167.6261    221.9688   7.0455910239e+01   4.4464765570e+00    0.4082113    0.4032477  57.74  0.001723577    1.209    0.173
         9 -18.9888     71.1525    197.0396   8.6635526999e+01   2.5502521982e+01       7.4422     5.803619 -70.38   0.04239982    1.379    0.275
        10 -11.8783    151.7955    223.9763   7.3777484895e+01   6.9526275037e+00    0.2374686    0.1862706 -54.18  0.001476118    1.554    0.357
        11 -12.7364    192.7143    194.6152   6.1192758717e+01   4.2335190917e+00    0.9449522    0.5007186 -67.15  0.002858609    6.172    0.838
        12 -11.9650    210.9201    198.6460   5.8439608862e+01   1.8069956127e-01    0.2466821    0.2095681  35.93 0.0005144942    1.065    0.061
        13 -11.9727    181.0719    194.4157   6.3448893173e+01   6.5093768250e+00    0.4571025    0.2051484 -51.76  0.001890875    2.800    0.643
        14 -12.2616    151.1151    192.8853   6.9300697263e+01   1.2595511570e+01    0.2568192    0.2114076  73.36 0.0007104308    1.255    0.203
        15 -12.8275    157.7491    218.9459   7.1925219097e+01   6.7204252988e+00    0.3687139    0.1919106 -41.49  0.001500103    2.531    0.605
        16  99.0000     18.6552    189.4135   9.6471675673e+01   3.3532931369e+01    0.2621076    0.1651451 -38.99  0.001437748    3.258    0.693
        17 -11.3418     28.6450    171.6957   9.3092851174e+01   3.6255879901e+01    0.1910389    0.1162079 -50.73 0.0009215307    2.165    0.538
        18 -13.0702    155.2428    169.0421   6.4271960105e+01   1.6439145472e+01     0.365342    0.2838669  31.53   0.00173122    1.418    0.295
        19 -14.4965    239.0839    161.4762   4.6220767064e+01   6.9340308917e-01    0.8664423    0.5768687  41.13  0.004614068    1.483    0.326
        20 -10.7119     28.2238    162.3278   9.2347228665e+01   3.8349433797e+01    0.1109234   0.07666751 -61.84 0.0005170759    1.511    0.338
        21 -10.2383    150.2675    228.3584   7.4656829731e+01   6.5029511022e+00    0.1161382   0.09588236  12.06 0.0002728044    1.639    0.390
        22 -10.2588    163.2754    152.6069   5.9274029952e+01   1.8086775204e+01    0.1553013    0.1159269 -87.40 0.0006992682    1.737    0.424
        23 -11.1882     11.7990    165.8147   9.6179414885e+01   3.9159233074e+01    0.1913065    0.1399851 -14.32  0.001187165    2.635    0.620
        24 -11.8221     27.1423    146.0849   9.0997197408e+01   4.2079204501e+01    0.2049486    0.1503988 -85.77 0.0008187077    1.090    0.083
        25 -12.3956    154.4515    140.0388   5.8591150450e+01   2.2635131581e+01    0.3592555    0.2663232 -72.21  0.001282204    1.589    0.371
        26 -12.2854    160.1313    128.5425   5.4704419377e+01   2.3792965887e+01    0.4271633    0.3181043 -35.65  0.001989987    1.512    0.339
        27 -18.9961     54.4784     83.3955   7.3110698964e+01   5.3444800401e+01     16.62797    0.7531751 -57.56   0.02393432   19.867    0.950
        28 -10.3927     25.9862    118.4972   8.8044244369e+01   4.8443572633e+01    0.1450109    0.1237894  22.74 0.0009865976    1.502    0.334
        29 -11.1180    167.6299    112.6354   4.9181301206e+01   2.5343957090e+01    0.3216588    0.2234565 -83.86  0.001310252    2.053    0.513
        30 -10.6263    121.5310    217.7393   7.8863291063e+01   1.3357002083e+01    0.2026057     0.173918  61.22 0.0007406604    1.094    0.086
        31 -10.2778     25.6704    108.6727   8.6771949522e+01   5.0699802380e+01    0.1464564    0.1212118 -26.82  0.000555074    1.528    0.346
        32 -12.0416     24.1966    104.9339   8.6649199995e+01   5.1667608782e+01     0.245116    0.1943347 -57.22 0.0009558309    1.185    0.156
        33 -11.8336     31.8425    101.8137   8.3907574080e+01   5.1707536510e+01    0.3281822    0.2103792  -8.76  0.001205312    2.490    0.598
        34 -11.5736    140.8949    101.0268   5.2489119105e+01   3.4036892636e+01    0.2532067    0.2193784  57.50 0.0002805444    1.128    0.113
        35 -10.8127     15.2217    100.8182   8.8675171224e+01   5.3280796086e+01    0.2023068    0.1287242 -30.15  0.001048194    2.050    0.512
        36 -13.0287    121.0547     98.5084   5.6952664415e+01   3.8946507424e+01    0.4518477    0.3096088  68.18  0.001959081    1.784    0.439
        37 -12.3837    128.8998     96.4019   5.4316830211e+01   3.7709103118e+01    0.5060291    0.2861185  45.65  0.002099739    1.768    0.434
        38 -11.8588    152.8848    214.3071   7.2211759238e+01   8.3904801799e+00    0.2714169    0.1957686 -53.85 0.0008645187    1.650    0.394
        39 -11.3809     97.8964     90.9977   6.1473230276e+01   4.5154218801e+01     0.214736     0.206296 -81.83 0.0004168246    1.032    0.031
        40 -12.5492      2.4192     86.7249   9.0564636682e+01   5.7170698976e+01    0.8300697    0.1226044 -67.00   0.00305588    3.876    0.742
        41 -12.0480    133.5547    201.9817   7.4332831047e+01   1.4166685929e+01    0.2807317    0.2352113 -85.32 0.0008012821    1.270    0.213
        42 -12.7084    133.5141    197.3376   7.3663924324e+01   1.5065879474e+01    0.3070901    0.2563291 -64.44 0.0009072098    1.336    0.251
        43 -11.4837    150.0217    236.0154   7.5691568827e+01   5.3205546645e+00    0.1802862    0.1471546  50.37 0.0003606066    1.042    0.041
        44 -12.3997     87.9563     81.2522   6.1830146212e+01   4.9013830320e+01    0.5529231     0.267514  58.49  0.001948211    3.490    0.713
        45 -12.2336     75.3754     86.4977   6.7150057196e+01   4.9916852832e+01    0.2866155    0.2308546  61.82 0.0008916412    1.418    0.295
        46 -12.6269    197.5792    207.3764   6.2451540538e+01   1.2866068929e+00    0.2689683    0.2110735  86.73   0.00148919    1.959    0.490
        47 -10.5063     22.3231     86.2801   8.4213052940e+01   5.5968981573e+01    0.1193813    0.0764458 -41.19 0.0003753362    1.589    0.371
        48 -11.1993    167.7251     82.9480   4.1335817986e+01   3.1178178877e+01    0.2137765    0.1994929 -60.66 0.0002853376    1.077    0.071
        49 -10.9278    124.1989     82.4003   5.1674996789e+01   4.1650080663e+01    0.2324692    0.2034147 -35.87 0.0006338148    1.192    0.161
        50 -10.8868    146.0459    207.9122   7.2647556328e+01   1.0773021041e+01    0.1947096    0.1671114  59.48 0.0004866146    1.051    0.049
        51 -14.3205    157.4056     73.0875   4.0796362367e+01   3.5595347829e+01    0.9039878     0.711437  38.73 0.0008726279    1.376    0.273
        52 -15.3055    183.1543    233.2790   6.9171769794e+01  -2.5381109051e-03    0.9331379    0.7565273  15.07  0.003542626    1.375    0.272
        53 -13.8819    176.6350     53.2616   3.1108772421e+01   3.4044283103e+01    0.5390289      0.52944  14.78 0.0008073447    1.157    0.136
        54 -10.7618    143.1985     76.2327   4.5021128473e+01   3.8491265602e+01    0.2128211    0.1785523 -86.16 0.0005169635    1.338    0.252
        55 -13.9131      6.1316     74.0698   8.7442985104e+01   5.9671691764e+01     0.543512    0.2958982 -73.10  0.001762451    1.573    0.364
        56 -10.4302    116.2765     74.4418   5.1501530090e+01   4.4953220490e+01    0.1986939    0.1413847  60.37 0.0006596449    1.547    0.354
        57 -11.0244    138.2333     73.1953   4.5342228130e+01   4.0249476927e+01      0.27039    0.2178209  71.79 0.0006637996    1.337    0.252
        58 -11.4014    101.6751     72.0481   5.4989352371e+01   4.8399031802e+01    0.3127948    0.2575255 -80.34  0.001630931    1.491    0.329
        59  -9.8760    133.1295    209.9899   7.5543052493e+01   1.2742997837e+01    0.9779535    0.4115985 -53.84    0.0043263    2.750    0.636
        60 -11.9333    135.8671    227.8884   7.7343698393e+01   9.0928966207e+00    0.2256601    0.2074286  79.62  0.000412262    1.214    0.176
        61 -14.4653      5.9655     59.8609   8.4917690709e+01   6.2638715531e+01    0.6279071    0.5304061  62.96  0.003361439    1.483    0.326
        62 -12.3614     17.6862     61.0055   8.0818341836e+01   6.1685305803e+01    0.1774929     0.149409 -51.20 0.0004150152    1.047    0.045
        63 -14.0509     13.2341     59.6154   8.2170312301e+01   6.2264464111e+01    0.5291218    0.3100812 -83.41  0.002060902    2.146    0.534
        64 -10.7590    132.4609     64.6622   4.4193366412e+01   4.3185231420e+01    0.1964825    0.1484168 -25.74 0.0008262152    1.497    0.332
        65 -10.7209     95.9619     57.6929   5.2201246109e+01   5.2246060056e+01    0.1898453    0.1762042  39.61 0.0004428255    1.100    0.091
        66 -12.6193     33.1627     55.3923   7.3584598153e+01   6.1580250971e+01    0.2361434    0.1504788  19.55  0.000957567    1.825    0.452
        67 -12.4847     16.7196     54.7089   7.9737340287e+01   6.3030864278e+01    0.1941608    0.1768973 -39.85  0.001012737    1.143    0.125
        68 -11.8390    203.0627     48.6873   2.5441486100e+01   2.7873997797e+01    0.2512901    0.1903754 -56.87    0.0005518    1.294    0.227
        69 -11.9312    112.7270    239.8001   8.3036813928e+01   1.0947306830e+01    0.1651143    0.1526905 -61.04  0.001189057    1.495    0.331
        70 -10.8321     11.8143    206.1476   9.8760525672e+01   3.0854349097e+01    0.1907952    0.1120604  57.67  0.001308076    1.358    0.263
        71 -10.2000     17.7623     33.3454   7.3476902473e+01   6.7057843502e+01     0.137035   0.09560337  -3.21 0.0004024429    1.549    0.355
        72 -14.9219    174.6869    220.9037   6.8950851995e+01   3.3451515121e+00     1.437933    0.9688382  22.85  0.007793427    1.784    0.439
        73 -11.2153     95.8457     36.6486   4.4884352445e+01   5.5819619370e+01    0.1869618    0.1245076  57.05 0.0004486259    1.695    0.410
        74 -12.0424     68.5275     20.0320   4.7421381527e+01   6.3181305052e+01    0.1917717    0.1539486  29.22 0.0003495291    1.195    0.163
        75 -10.9722    126.3823    244.9250   8.1089467777e+01   7.8843188703e+00    0.1394295    0.1273107  74.33 0.0005060094    1.261    0.207
        76 -11.9216    177.8626    202.9617   6.5525566300e+01   5.6711237431e+00    0.2737536    0.1527969 -53.43  0.001305946    2.236    0.553
