#   1 NUMBER                 Running object number                                     
#   2 MAG_AUTO               Kron-like elliptical aperture magnitude                    [mag]
#   3 X_IMAGE                Object position along x                                    [pixel]
#   4 Y_IMAGE                Object position along y                                    [pixel]
#   5 X_WORLD                Barycenter position along world x axis                     [deg]
#   6 Y_WORLD                Barycenter position along world y axis                     [deg]
#   7 A_WORLD                Profile RMS along major axis (world units)                 [deg]
#   8 B_WORLD                Profile RMS along minor axis (world units)                 [deg]
#   9 THETA_WORLD            Position angle (CCW/world-x)                               [deg]
#  10 FWHM_WORLD             FWHM assuming a gaussian core                              [deg]
#  11 ELONGATION             A_IMAGE/B_IMAGE                                           
#  12 ELLIPTICITY            1 - B_IMAGE/A_IMAGE                                       
         1 -14.8264    219.3655     42.8270   6.1399695339e+01   2.5206382006e+01     2.847732     1.587114 -74.98   0.01316489    2.082    0.520
         2 -13.7402    241.3035     55.7227   6.1959557131e+01   1.8532388813e+01     1.303617    0.6631732 -57.90  0.004425927    1.958    0.489
         3 -14.4110    240.5182     37.7346   5.8115280041e+01   2.1156397508e+01     2.140884    0.7178949 -45.98  0.009136028    2.457    0.593
         4 -13.0877    187.4001     33.1036   6.2817920537e+01   3.4191463829e+01    0.8574835    0.7806891 -63.64  0.002935661    1.113    0.102
         5 -13.3709    195.1321     22.4149   5.9107068198e+01   3.3560361523e+01    0.7013807    0.6671515 -31.05  0.001372687    1.288    0.223
         6  -9.2901     82.7435      6.0190   7.3666187312e+01   6.2472108738e+01    0.1485579    0.1065444 -14.89  0.000500644    1.511    0.338
         7 -10.2186     57.6593      3.3301   8.0663380227e+01   6.7658844758e+01    0.1075111   0.09750755 -72.02 4.638363e-05    1.743    0.426
         8 -11.1103    221.5049      1.9105   5.1894844869e+01   2.9550932816e+01    0.5277101    0.1620506  78.12  0.002145051    3.029    0.670
         9 -10.0246     66.3582    224.8981   1.3310697219e+02   1.9657959174e+01    0.1992508    0.1330323  76.89 0.0007708093    1.447    0.309
        10 -19.4810     15.8302    140.6377   1.3685235287e+02   4.4877628625e+01     19.74763      3.56144 -74.91   0.05460566    5.646    0.823
        11 -11.4334     83.5568    174.2604   1.2296262982e+02   2.8507120525e+01    0.4312904     0.293333 -59.44 0.0009959268    1.476    0.323
        12  -9.9088    197.9956    176.7471   9.6245884892e+01   6.6181352675e+00    0.2808457    0.2038448 -30.07  0.001175452    1.382    0.276
        13 -10.3230    196.9817    172.8012   9.5643257177e+01   7.5360823012e+00    0.3606232    0.2804371 -27.09  0.001508883    1.284    0.221
        14 -10.2885    116.0543    211.7630   1.2060145905e+02   1.4755782926e+01    0.2548178    0.1827179  78.32  0.001309805    1.698    0.411
        15 -13.4725     58.4628    130.2745   1.2271169018e+02   4.3041727980e+01     1.808713    0.6629316 -74.62  0.004904744    5.186    0.807
        16 -13.5953     68.3482    144.0549   1.2221149877e+02   3.8236001057e+01     1.172888    0.7227811 -76.19  0.003677157    1.741    0.426
        17 -13.0212     68.8788    194.6958   1.2936126128e+02   2.5887882421e+01    0.7392092    0.6264395 -89.24  0.002801008    1.112    0.101
        18 -11.2934     96.0924    157.5042   1.1681727744e+02   3.0507795650e+01    0.5807482    0.3896615 -30.04  0.001721802    2.107    0.525
        19  -9.8206    141.0109    157.6484   1.0508962170e+02   2.1916093663e+01    0.2377776    0.2112929 -74.39 0.0004365371    1.225    0.184
        20 -12.9472    116.4118    110.1652   1.0036574920e+02   3.7966939284e+01    0.9229455    0.6567494 -57.19  0.003905964    1.495    0.331
        21 -13.8850    134.9215    131.5350   1.0072599970e+02   2.9134914547e+01     2.336895     1.638363 -48.52   0.01045118    1.441    0.306
        22 -11.5384    194.6425    194.0568   1.0033614603e+02   4.1238794933e+00    0.6094514    0.5214795  55.62  0.003489475    1.421    0.296
        23 -10.8819    210.9852    181.2606   9.4581384993e+01   3.4388989478e+00    0.4100656    0.2669255 -16.92   0.00199597    1.764    0.433
        24 -10.6258    107.8382    141.0802   1.1028283047e+02   3.2382582673e+01    0.5249702    0.2717082 -34.72  0.001823118    2.838    0.648
        25 -11.5351     95.7790    141.9784   1.1388190880e+02   3.4367760192e+01     0.293438     0.271567 -34.20 0.0003776856    1.183    0.154
        26 -10.5977    115.0884    131.4027   1.0606938017e+02   3.3293004963e+01    0.3402908    0.2674173   1.79  0.001052759    1.715    0.417
        27  -9.9641    105.9932    130.9982   1.0855734590e+02   3.5168355956e+01    0.3684261    0.2781717 -87.58  0.001663517    1.671    0.401
        28 -10.3364    102.6769    127.7637   1.0877045660e+02   3.6577387667e+01    0.2915113    0.2379167 -15.80 0.0006147057    1.527    0.345
        29  -9.6287     99.3813    180.7124   1.1993077253e+02   2.4401521948e+01    0.2380685    0.1974225  41.67 0.0006304162    1.177    0.150
        30 -11.3009     79.9877    179.5840   1.2466210625e+02   2.7787523706e+01     0.410086    0.2588243 -40.97  0.001283798    2.076    0.518
        31  -9.5026    110.2724    119.9758   1.0467634140e+02   3.6958821519e+01    0.2137331    0.1978167 -48.77 0.0002545886    1.077    0.071
        32 -13.1894    238.5270    110.2846   7.4484029281e+01   1.0559470899e+01     1.326679    0.8679795 -53.93  0.005187527    1.564    0.361
        33 -12.7158    224.6359    109.9740   7.6532261181e+01   1.3445844915e+01     1.035624    0.7470821  -5.75  0.004468218    1.956    0.489
        34 -12.7224    224.4555    100.9120   7.4455648263e+01   1.5045604701e+01     1.614616      1.04753  -1.77  0.006518064    2.959    0.662
        35 -11.6935     90.4110    165.0153   1.1967586048e+02   2.9637775917e+01    0.4742868    0.3576268  55.86 0.0006708534    1.304    0.233
        36 -13.4125    127.9543    116.9166   9.8920014945e+01   3.3966367964e+01     1.405672     1.033157  16.83  0.004889524    1.809    0.447
        37  -9.3368    205.6424    110.1946   7.9776855315e+01   1.7516989107e+01    0.1990573    0.1850817  88.57 0.0005884926    1.134    0.118
        38 -13.2021    112.1085     80.1199   9.2901288426e+01   4.5318276222e+01     1.442363    0.7975984 -28.22  0.005556879    2.310    0.567
        39 -11.9728     91.4143    103.2576   1.0609580763e+02   4.4483284511e+01      1.15612    0.5308774 -37.69  0.004087977    2.640    0.621
        40 -13.2256    103.9599     96.4053   1.0025642821e+02   4.3617081499e+01     1.121961    0.8796791  49.13  0.003513061    1.315    0.239
        41 -12.9895     79.1459    160.0369   1.2188071458e+02   3.2654005376e+01    0.6209756    0.4989297  82.65  0.001078783    1.263    0.208
        42  -9.2954    168.4246    248.4452   1.1467573994e+02  -4.3844139096e-01    0.1252052    0.1014588  32.57 0.0001024493    1.049    0.047
        43 -13.4304    247.3269     79.7016   6.6543759346e+01   1.3719560982e+01     1.377642    0.7596043 -44.68  0.005434543    1.546    0.353
        44 -13.8991    231.2167     72.2453   6.6847910983e+01   1.8256281258e+01      1.46204     1.047922  88.79  0.005979316    1.535    0.349
        45  -9.5846    170.2267    239.9462   1.1309263716e+02   5.8514607388e-01    0.1444045    0.1073434 -43.01 0.0004342032    1.610    0.379
        46 -11.5540     94.0676    237.7979   1.2858210819e+02   1.3098460998e+01    0.4622957    0.1943043  45.95 0.0004151309    1.933    0.483
        47 -12.0993    125.8538     65.1273   8.4258264777e+01   4.4961915776e+01    0.7999126    0.4968007 -28.96  0.003500622    1.804    0.446
        48 -12.1613    176.6830     42.3117   6.6852502618e+01   3.5692917225e+01    0.4211582    0.3406955  60.68 0.0008631853    1.197    0.164
        49 -11.9647    167.9395    234.3318   1.1272015540e+02   1.8511138276e+00    0.4798779    0.2266105  26.74  0.002083564    2.354    0.575
        50  -9.7142    181.6619    232.6850   1.0968604233e+02  -1.1497573764e-01    0.1335174   0.09060656   7.83 0.0007047543    1.698    0.411
        51 -10.0629    168.2935     68.2224   7.5660935802e+01   3.3928924441e+01    0.3335162    0.2082114 -81.23  0.001043128    2.417    0.586
        52  -9.6957     78.5462    232.1548   1.3124069560e+02   1.6478011152e+01    0.2298315    0.1607697  21.96 0.0006312732    1.887    0.470
        53 -11.7856    167.6806    225.7470   1.1145236108e+02   3.3169338069e+00    0.3290127    0.2399409  64.92  0.001745693    1.931    0.482
