#   1 NUMBER                 Running object number                                     
#   2 MAG_AUTO               Kron-like elliptical aperture magnitude                    [mag]
#   3 X_IMAGE                Object position along x                                    [pixel]
#   4 Y_IMAGE                Object position along y                                    [pixel]
#   5 X_WORLD                Barycenter position along world x axis                     [deg]
#   6 Y_WORLD                Barycenter position along world y axis                     [deg]
#   7 A_WORLD                Profile RMS along major axis (world units)                 [deg]
#   8 B_WORLD                Profile RMS along minor axis (world units)                 [deg]
#   9 THETA_WORLD            Position angle (CCW/world-x)                               [deg]
#  10 FWHM_WORLD             FWHM assuming a gaussian core                              [deg]
#  11 ELONGATION             A_IMAGE/B_IMAGE                                           
#  12 ELLIPTICITY            1 - B_IMAGE/A_IMAGE                                       
         1 -18.9260    229.2163     97.3394   3.8974108228e+01   1.3818122437e+01     7.468034     6.264831 -31.94   0.02637232    1.147    0.128
         2  -9.3491    189.5613     13.9273   2.1913871425e+01   3.5857152120e+01    0.2600753    0.2255258  27.56 0.0007052033    1.294    0.227
         3  -9.5746    125.8882     14.1585   3.3081555140e+01   5.2108010957e+01    0.2415332    0.1898036 -33.11  0.001326832    1.380    0.275
         4 -11.6345    119.2399      9.7816   3.2884002817e+01   5.4116304462e+01    0.6870104    0.4266476  37.98  0.002808552    1.505    0.336
         5  -8.6317    204.7520      3.5134   1.7102569849e+01   3.2942419084e+01    0.2528526    0.1160011  65.14 0.0007833611    1.920    0.479
         6  -8.2386    192.4650      2.4684   1.8192202507e+01   3.6246314085e+01    0.1392663     0.124969  74.60 7.694837e-05    1.027    0.027
         7  -9.7873    234.8246      1.3671   1.3656266893e+01   2.5561064146e+01     0.356691     0.113709  72.50  0.001016183    2.893    0.654
         8  -8.9082    147.9415    219.0130   7.9503195894e+01   9.9993965473e+00    0.1818767    0.1501357  52.27  0.001194145    1.021    0.021
         9 -12.2797    247.6909    248.9663   6.6518937449e+01  -1.0372371790e+01    0.8460924    0.5575956  33.19  0.005972683    1.172    0.147
        10 -11.8038    237.2643    249.6817   6.8308164196e+01  -8.8825669552e+00    0.5310822    0.2168807  45.45  0.002337797    2.189    0.543
        11 -12.0916    190.1361    249.7406   7.6136376624e+01  -1.4302623865e+00     1.153605    0.1953346  43.09  0.003886129    4.443    0.775
        12 -13.0827    213.6026    242.1076   7.1114619680e+01  -4.3712585272e+00     1.364492    0.7188523  34.42   0.00794061    1.527    0.345
        13  -9.6684    171.4331    204.2106   7.2913776493e+01   8.1303860993e+00    0.3769675    0.2310917  71.71  0.001678621    2.770    0.639
        14  -9.7390      8.2631    204.0599   1.0314035489e+02   3.1965174120e+01    0.1555448    0.1140418  67.62 0.0004065631    1.176    0.150
        15  -8.8317    247.1571    202.9253   5.8961516265e+01  -5.3681054521e+00    0.1762833    0.1546025  32.07 0.0007093676    1.282    0.220
        16 -10.7925    192.3160    193.7485   6.7174297850e+01   5.8323879692e+00    0.8369751    0.4287194 -62.28  0.002771787    5.369    0.814
        17  -9.5048    154.7571    249.0100   8.2037407821e+01   4.4484753114e+00    0.2476283    0.1294444  51.17 0.0008455339    1.539    0.350
        18 -13.8985     66.1448    120.5302   8.2232373376e+01   4.3228873606e+01     1.701512     1.136377  34.48  0.004284414    1.728    0.421
        19 -10.2245    180.3233    175.5806   6.6190709341e+01   1.1165506340e+01    0.9266422    0.2414715 -42.51  0.002944155    4.275    0.766
        20 -10.5253     94.1257    141.8092   7.8981787879e+01   3.4354343875e+01    0.2929133     0.175734  54.53  0.001423614    1.722    0.419
        21  -9.0768    250.6570    174.1054   5.2835125977e+01  -2.3174758615e+00    0.2807545    0.1191723 -28.70  0.001068008    2.410    0.585
        22  -8.7950     11.9328    188.5016   1.0163262226e+02   3.4559374523e+01    0.1516215    0.1051577  84.91 0.0004133657    1.055    0.052
        23 -13.8668     28.5143    124.7091   9.2489735475e+01   4.6386054464e+01     1.316774    0.9701581 -82.14  0.005360262    1.106    0.096
        24 -13.2432      9.3980    125.3237   9.7168730596e+01   4.7783774712e+01     1.550621    0.6781688 -84.63  0.008199953    2.052    0.513
        25  -9.8753    101.8086    145.9282   7.7877459454e+01   3.2180163400e+01    0.3295526    0.2194497 -79.50   0.00109151    1.710    0.415
        26 -12.5310     53.6611    121.4771   8.5652873817e+01   4.4546130700e+01    0.5836924    0.4327721 -74.12 0.0008715641    1.167    0.143
        27  -8.1819    110.4428    120.5166   7.0673425575e+01   3.6283177321e+01    0.1431369    0.1359534 -71.31 8.934565e-05    1.027    0.027
        28  -8.4122     97.7505    116.1890   7.3014370935e+01   3.9484222202e+01    0.1834956    0.1655807 -19.67  0.000456621    1.321    0.243
        29  -9.6810     47.0337    143.0395   9.0379503571e+01   4.0477717996e+01    0.1881719    0.1518683 -85.41 0.0004148357    1.009    0.009
        30 -11.8249      5.6293     96.7200   9.4862924663e+01   5.4205990482e+01    0.8903217    0.2310108 -66.12   0.00405178    2.559    0.609
        31 -10.6084    109.0946    134.1432   7.3891073241e+01   3.3513046949e+01    0.2830094    0.2197654  36.64  0.001153655    1.411    0.291
        32 -10.4155    139.6635     95.1057   5.6827607971e+01   3.5761413556e+01    0.3276758    0.2638843 -38.63 0.0007158041    1.245    0.197
        33 -10.3497    119.5207     93.3477   6.1539599325e+01   4.0418933374e+01    0.5796859     0.362282 -53.31  0.002332752    1.657    0.397
        34 -10.1042    245.1163    179.4419   5.4847148517e+01  -2.0321629719e+00    0.5187092    0.2801564  31.35  0.002562246    1.798    0.444
        35 -10.6638    134.1629     83.1358   5.4787528267e+01   3.9380546609e+01    0.6464976    0.2505193 -38.15  0.001692485    2.652    0.623
        36  -9.1485    106.0088     80.5284   6.1634838333e+01   4.5725401328e+01    0.3007377    0.2033379 -42.62 0.0008578474    1.408    0.290
        37 -10.9726    138.0484     74.4503   5.1181532655e+01   4.0168919550e+01    0.5993992      0.37762  62.68  0.001931733    1.903    0.475
        38  -8.2414    107.3015     73.3293   5.9104228069e+01   4.6927089135e+01    0.1480068    0.1126714  -6.13 0.0003670227    1.646    0.392
        39  -9.1213    114.6398    193.0381   8.2405621370e+01   2.0289055826e+01    0.2028667    0.1509019  62.28 0.0004458591    1.185    0.156
        40 -10.0672    140.9096     64.0089   4.7183126021e+01   4.1394650258e+01    0.2297212     0.220796 -10.01 0.0004154556    1.032    0.031
        41  -9.3522    110.9627    168.1625   7.9526608564e+01   2.5867559041e+01    0.2187583    0.1845123 -79.56 0.0004132462    1.160    0.138
        42  -8.7456    110.3047     53.9811   5.1909953689e+01   4.9935483169e+01    0.2021217     0.177281 -26.31 0.0004307811    1.094    0.086
        43  -9.6387    128.6548     42.9590   4.3100331881e+01   4.7717728890e+01    0.2093278    0.1846587 -18.65  0.000626657    1.130    0.115
        44  -9.5204    158.0583    166.8091   6.9112597838e+01   1.7260724407e+01    0.2135361    0.2005747 -62.29 0.0003558593    1.151    0.131
        45 -11.0714    130.4876     33.4537   3.9233166577e+01   4.8661512074e+01    0.5657514    0.3588303   4.82  0.002157304    2.129    0.530
        46  -9.0272    141.9983    164.3216   7.2090767815e+01   2.0935389321e+01    0.2895074    0.1976441 -72.65  0.001344197    1.847    0.459
        47 -10.5860    176.6559    164.4872   6.4776625996e+01   1.3878569105e+01    0.4295811    0.3693705  55.39  0.001738243    1.145    0.127
        48  -8.4066    153.6948    163.7078   6.9451774223e+01   1.8734779386e+01    0.1966915    0.1615755  77.02  0.000264593    1.352    0.260
        49  -8.3584    152.3062    161.2978   6.9288154023e+01   1.9483728581e+01    0.2081743    0.1486909 -46.08 0.0002362164    1.515    0.340
        50 -10.0333    123.3109     31.4633   4.0254382577e+01   5.0602986978e+01    0.3300976    0.1938092 -14.72   0.00121727    1.995    0.499
        51 -10.7549    177.4750    170.0033   6.5695566004e+01   1.2721020774e+01     0.426577    0.3342341  -7.88   0.00222171    1.631    0.387
        52  -8.6538    156.2946     25.3963   3.0887164264e+01   4.3297292245e+01    0.3584617    0.2042547 -62.26   0.00138859    2.671    0.626
        53  -8.8265    191.9264     23.1560   2.4325045031e+01   3.4197615386e+01    0.2379098    0.2150262  11.18 0.0008091083    1.255    0.203
        54 -10.3113    127.4023     22.8783   3.6048588920e+01   5.0754619110e+01     0.301438    0.1938385  47.95  0.001474759    1.434    0.303
        55  -9.5500    243.3275     21.1924   1.7715281613e+01   2.1301879694e+01    0.3633467    0.1794907  64.04   0.00138309    1.968    0.492
        56  -9.6635    140.1332     21.1157   3.2594738840e+01   4.7885773856e+01    0.2224259    0.1791554  25.82 0.0004928937    1.252    0.201
        57  -8.7331    101.8378    159.3508   8.0144132024e+01   2.9266125130e+01    0.1817145    0.1617082  57.57 0.0008453174    1.130    0.115
        58 -10.1406    166.1285    152.3111   6.4499556265e+01   1.8364146343e+01    0.2632794    0.2155888 -55.47 0.0005140036    1.330    0.248
        59 -10.1199    156.4284    244.4908   8.1219501423e+01   4.7890589893e+00    0.2200912    0.1838709  26.75 0.0007610042    1.368    0.269
        60  -9.4504    157.1858    240.1380   8.0559845633e+01   5.2663759118e+00     0.177452     0.158579  59.75 0.0004204038    1.187    0.157
        61 -10.2644    186.0314    237.9929   7.5256380195e+01   7.0014182886e-01    0.1839424    0.1696302  11.52  0.000810365    1.258    0.205
        62  -9.8116    173.5974    149.8904   6.2393029000e+01   1.7228909250e+01    0.2957964    0.2111535  52.34 0.0009321421    1.365    0.268
        63 -13.2039     67.3647    143.2151   8.5624580362e+01   3.7965015855e+01     1.663061     1.162796  88.42  0.007787322    1.419    0.295
        64 -10.4441    124.4058    231.7362   8.5327478924e+01   1.1919112154e+01    0.2205749    0.1877823  73.73 0.0005070058    1.166    0.142
        65 -10.6570     72.9420    107.1629   7.7803294909e+01   4.5338693240e+01    0.3354504    0.2458638 -65.11            0    1.251    0.201
        66  -9.0680     75.8336    223.1864   9.3011426217e+01   2.0664253113e+01     0.167648    0.1180452  69.16 0.0003937532    1.111    0.100
