#   1 NUMBER                 Running object number                                     
#   2 MAG_AUTO               Kron-like elliptical aperture magnitude                    [mag]
#   3 X_IMAGE                Object position along x                                    [pixel]
#   4 Y_IMAGE                Object position along y                                    [pixel]
#   5 X_WORLD                Barycenter position along world x axis                     [deg]
#   6 Y_WORLD                Barycenter position along world y axis                     [deg]
#   7 A_WORLD                Profile RMS along major axis (world units)                 [deg]
#   8 B_WORLD                Profile RMS along minor axis (world units)                 [deg]
#   9 THETA_WORLD            Position angle (CCW/world-x)                               [deg]
#  10 FWHM_WORLD             FWHM assuming a gaussian core                              [deg]
#  11 ELONGATION             A_IMAGE/B_IMAGE                                           
#  12 ELLIPTICITY            1 - B_IMAGE/A_IMAGE                                       
         1 -13.8645      2.9916     90.6392   1.3551385740e+02   5.8484156098e+01     2.879969    0.5698984 -86.02  0.006662124    7.551    0.868
         2 -13.2972    204.9059     34.5141   5.8149739453e+01   2.9626106262e+01     1.151828    0.9103966 -50.20  0.006328458    1.102    0.093
         3 -13.2551      4.1578      7.0088   1.1415023352e+02   7.8207602285e+01     1.297427    0.6731413 -44.18  0.007104092    1.684    0.406
         4 -13.7706    223.4487     15.9661   5.2335116596e+01   2.7758476649e+01    0.8751153    0.8274714  25.70  0.001867136    1.483    0.326
         5 -11.2046    166.9220    244.2634   1.0781902007e+02   3.1962485670e+00    0.2865338     0.161329 -15.04  0.001561618    2.316    0.568
         6 -11.3191    184.6371    248.9194   1.0505573209e+02   4.3672088733e-01    0.3191369    0.1855925   3.73  0.001934212    1.758    0.431
         7 -10.2893    174.7337    250.4251   1.0710548358e+02   1.4212898535e+00    0.2253338   0.08448627  33.51  0.001143809    2.134    0.531
         8 -10.8106    161.2542    250.0857   1.0965927968e+02   3.1055229725e+00    0.3665919    0.1218698  24.92  0.001547227    2.968    0.663
         9 -11.8914    150.8665    247.0406   1.1134991240e+02   4.8268462377e+00    0.4705033    0.3177693  -6.51  0.002950589    1.669    0.401
        10 -11.1056    142.9250    248.9013   1.1317784742e+02   5.5649216981e+00    0.3868676    0.2091332  49.70   0.00203139    2.448    0.591
        11 -11.5743    132.9853    249.1006   1.1524085207e+02   6.7986299042e+00    0.7269434    0.1629957  37.03  0.002803393    3.275    0.695
        12 -11.9701    125.2699    240.4077   1.1589264645e+02   9.1402356213e+00     0.486217    0.2285183  30.19  0.002515364    1.673    0.402
        13 -12.3595    123.4082    247.9238   1.1711179643e+02   8.2008936138e+00    0.7484654    0.4203292  39.63   0.00436849    1.489    0.328
        14 -10.9090    116.8737    249.7237   1.1867734356e+02   8.7545957235e+00    0.5113363    0.1918765  29.52  0.002414807    2.096    0.523
        15 -11.0812    109.9938    247.6718   1.1993400432e+02   9.9543214528e+00    0.4477861    0.2506687  27.52  0.002566445    1.429    0.300
        16 -11.6658    100.1296    247.9703   1.2208209003e+02   1.1154506035e+01    0.6968978    0.4252407  11.50  0.003866112    1.941    0.485
        17 -10.5494     97.1511    239.3309   1.2191997175e+02   1.2988206409e+01    0.3069739    0.1659459  40.96 0.0009949431    1.481    0.325
        18 -12.5789    102.9592    238.2816   1.2052929802e+02   1.2417387385e+01    0.6909263    0.5594885  -5.24  0.001497911    1.475    0.322
        19 -11.9674    102.3563    231.1030   1.1992805383e+02   1.3748202666e+01    0.6703799    0.3891438   2.32  0.002791909    2.889    0.654
        20 -10.3029     98.4745    231.4607   1.2084539625e+02   1.4198761357e+01    0.2483396    0.2223599  64.26  0.001366172    1.270    0.213
        21 -11.1045     84.1376    230.2654   1.2401017198e+02   1.6282721917e+01    0.4531529    0.3260161 -24.46  0.002619499    1.983    0.496
        22 -11.5395     87.6162    248.4478   1.2483079922e+02   1.2632451119e+01      0.53577    0.3467409  34.94  0.001706579    1.159    0.137
        23 -10.2471     81.5647    248.2046   1.2612450380e+02   1.3413278389e+01    0.3156315    0.1776228 -78.37   0.00169592    2.475    0.596
        24 -12.0042     89.5011    239.3398   1.2362269904e+02   1.3962805240e+01    0.7096426    0.3937148  62.94  0.003659896    2.349    0.574
        25 -11.4238     82.4104    239.8624   1.2525099525e+02   1.4760464158e+01    0.5211539    0.2019784  46.28 0.0006995255    2.234    0.552
        26 -11.1829     90.7094    224.1625   1.2189470230e+02   1.6565917650e+01    0.4700205    0.2953018  38.75  0.002010439    1.273    0.215
        27  -9.9775     91.0059    220.0264   1.2140004886e+02   1.7312124933e+01    0.2267545    0.1602374  63.31  0.000727247    1.582    0.368
        28 -11.0101     73.9978    244.3836   1.2748170612e+02   1.4989868017e+01    0.3619199    0.2987235 -44.16  0.002501457    1.614    0.381
        29  -9.0999     56.7362    250.4346   1.3165356173e+02   1.5934373006e+01    0.2111572   0.08890495  30.39  0.001086658    1.834    0.455
        30 -11.0503     68.4048    245.6588   1.2880504908e+02   1.5430805948e+01    0.2810016    0.2187767  54.93 0.0008752657    1.201    0.167
        31 -11.6629     60.1387    245.9270   1.3063275348e+02   1.6344089453e+01    0.5676587    0.2882885  33.66  0.002907238    1.478    0.323
        32 -11.1221     48.8565    216.5790   1.3124397850e+02   2.3276826199e+01    0.7303779    0.2657745  53.49  0.003095613    2.613    0.617
        33 -12.7249      2.8918    190.7750   1.4132547672e+02   3.3367373432e+01      1.81404    0.3435396 -84.73  0.005800359    5.276    0.810
        34 -14.7655     15.2232    242.1200   1.4014637554e+02   2.1728139506e+01     3.197883     1.107771  31.82   0.01645393    2.091    0.522
        35 -11.6653    135.9442    241.0363   1.1370146116e+02   7.6402524137e+00    0.3351151     0.220926  -6.23  0.001932081    1.907    0.476
        36 -11.5661    136.1350    235.8638   1.1304213751e+02   8.4217583353e+00    0.3264422    0.2217319 -23.58  0.001948945    1.806    0.446
        37 -11.7226    134.0000    233.4536   1.1320431712e+02   9.0921066512e+00    0.3834459     0.226326 -49.57  0.002188412    2.087    0.521
        38 -13.0932      8.9255    211.0203   1.4053145659e+02   2.8457807097e+01     1.274833    0.9367675 -43.04  0.008018711    1.933    0.483
        39 -10.7129    144.5748    240.4969   1.1183812922e+02   6.5936143387e+00    0.2742835   0.09505565  31.99   0.00123603    2.256    0.557
        40 -10.3935     73.9977    237.5141   1.2694495653e+02   1.6219716610e+01    0.2316899    0.1679101  78.63 0.0003737529    1.622    0.383
        41 -12.5072     38.8654    207.7065   1.3309773985e+02   2.6255384539e+01     1.124754    0.6512015  80.66  0.006026909    1.828    0.453
        42 -10.9512    244.8294    241.1594   9.3756990456e+01  -5.1961450542e+00    0.1767834    0.1171137 -44.68  0.001175496    2.784    0.641
        43 -12.1700    119.3166    237.2619   1.1682590558e+02   1.0436982683e+01    0.7926264    0.4700924 -19.26  0.003438906    2.728    0.633
        44  -9.4333     55.1811    235.6864   1.3106280472e+02   1.8786971588e+01    0.3172641    0.1056292  47.81  0.001333839    2.423    0.587
        45 -10.8092    154.3419    230.5771   1.0854969812e+02   6.8022639315e+00    0.3759796    0.2618838  64.53 0.0005964833    2.706    0.630
        46 -10.5920    113.3370    230.9719   1.1744247531e+02   1.2299053845e+01    0.2447048    0.1774261 -64.10  0.001222299    1.802    0.445
        47  -8.7518     45.6365    231.2603   1.3295294704e+02   2.0704094918e+01    0.1334288    0.0652173  49.19 0.0006977476    1.636    0.389
        48 -10.2561    249.6131    230.2211   9.1433278571e+01  -4.5016318065e+00    0.1471045   0.07450455 -20.67 0.0009573045    1.688    0.407
        49  -9.3109     56.5386    228.3106   1.3024793038e+02   2.0040859498e+01    0.1820968    0.1180954 -88.58 0.0002535427    1.789    0.441
        50 -10.9710     78.5352    225.5739   1.2488396601e+02   1.7882329310e+01    0.4352984    0.2921637  34.15  0.002149483    1.200    0.167
        51  -9.3164    117.0000    224.9583   1.1592482019e+02   1.2847050316e+01     0.180381   0.07505488 -56.41 0.0001410147    2.974    0.664
        52  -9.1968     65.1064    224.0523   1.2791787545e+02   1.9852671182e+01    0.2800117    0.1309545 -44.39  0.001233098    3.306    0.698
        53  -8.8750     45.6520    225.2622   1.3258134729e+02   2.1878851894e+01    0.1387726    0.1114903 -75.38 0.0004051258    1.461    0.315
        54 -10.2230     99.1623    223.5599   1.1985927609e+02   1.5545273074e+01    0.2534437    0.1813745 -10.66  0.001115114    1.917    0.478
        55  -9.9003    136.1023    224.9902   1.1168476246e+02   1.0187510422e+01    0.3413711    0.1247878 -46.45  0.001464647    3.182    0.686
        56 -10.5819     71.0506    219.0695   1.2607936089e+02   2.0102302051e+01    0.4375135    0.2287506  56.98    0.0021563    1.985    0.496
        57  -9.5675     60.1764    220.3499   1.2879747766e+02   2.1184166322e+01    0.1732758     0.167335  45.42 0.0003781934    1.224    0.183
        58  -9.7237    246.0000    219.9973   9.0437036788e+01  -2.9960802891e+00    0.1661161   0.05023041 -34.58 0.0008105399    2.999    0.667
        59  -9.4374    141.5440    218.9893   1.0969867531e+02   1.0423991640e+01    0.2137761    0.1466101  28.46 0.0006448986    1.203    0.169
        60 -10.1584    107.6204    216.8298   1.1711909731e+02   1.5631809531e+01     0.430378    0.1910338  50.77  0.001552184    2.658    0.624
        61  -9.6176    116.3663    216.2990   1.1501390874e+02   1.4491445923e+01    0.2691299    0.1759802   9.40  0.001312946    1.819    0.450
        62  -9.7990     87.1158    211.7560   1.2146180597e+02   1.9460048121e+01    0.3454939    0.2831944  52.75  0.001881587    1.157    0.136
        63 -10.8865     63.0436    208.9244   1.2714776389e+02   2.3184144711e+01    0.3521575    0.3075347 -21.23  0.001447988    1.480    0.324
        64  -9.5408     58.5310    212.5073   1.2857181935e+02   2.2986241622e+01     0.282892     0.140307  48.64 0.0007151327    1.722    0.419
        65 -10.3354     55.7205    209.0988   1.2899296814e+02   2.4039471502e+01    0.4362946    0.1788804 -69.65  0.001963771    2.701    0.630
        66  -8.8726    110.8110    211.5389   1.1571981613e+02   1.6175969116e+01    0.1829897    0.1026415  42.35 0.0003655977    1.568    0.362
        67  -9.6142     99.2878    210.0845   1.1830694619e+02   1.8102712875e+01    0.2775544    0.1381396  51.78  0.001145557    2.201    0.546
        68  -8.4103     74.2982    208.6605   1.2431065221e+02   2.1803944027e+01    0.1405514   0.08471151  56.77 0.0007033878    1.662    0.398
        69  -9.3135     91.2747    204.8401   1.1966157193e+02   2.0286608337e+01    0.3431328    0.1509512  26.13  0.001427103    2.240    0.554
        70  -9.3281    106.7480    203.3255   1.1565117539e+02   1.8364239235e+01    0.2056806    0.1647168 -67.08 0.0006097328    1.502    0.334
        71  -9.0229     72.5582    203.4203   1.2422659547e+02   2.3133932772e+01    0.1622723    0.1264497 -59.11 0.0001819332    1.497    0.332
        72  -9.8616     43.2355    199.5310   1.3142304502e+02   2.7560388389e+01    0.3471302    0.2526124 -28.65  0.001906032    1.980    0.495
        73  -9.0157     96.8115    199.2186   1.1759361803e+02   2.0652523578e+01    0.1766468     0.150565   6.17 0.0003382471    1.302    0.232
        74  -8.9831      7.6365    198.1919   1.4039361778e+02   3.1332226296e+01    0.1522669     0.104445 -79.75 0.0004057569    1.512    0.339
        75  -9.8178    250.0219    193.9854   8.5673114141e+01  -3.6297451392e-01    0.1829147    0.1071635  -5.08  0.001138714    1.690    0.408
        76 -11.8629     51.8761    192.4420   1.2858105997e+02   2.8153516194e+01    0.4721765    0.3689502  41.15  0.001583074    1.105    0.095
        77  -9.5658     25.9796    192.6717   1.3545604595e+02   3.0912128713e+01    0.2589217    0.1657243  55.86  0.001168894    1.319    0.242
        78  -9.0375     21.9493    193.2386   1.3653819314e+02   3.1170158544e+01    0.1874453    0.1614735  69.21 0.0003138654    1.101    0.091
        79  -9.9014     19.1162    188.6903   1.3703754382e+02   3.2470998316e+01     0.334253    0.1633947  86.16  0.001313253    2.054    0.513
        80  -9.2878    191.7069    191.7004   9.5081838808e+01   7.5559485927e+00    0.1494388    0.1411674  11.68 0.0005539595    1.297    0.229
        81  -8.3154     38.6098    192.2892   1.3210099292e+02   2.9698531811e+01    0.1499741   0.07483038  52.60  0.000700791    1.765    0.434
        82  -8.7138     15.2860    190.2772   1.3812025539e+02   3.2451445542e+01    0.1103426   0.09531724 -40.40  0.000219906    1.513    0.339
        83 -10.0884     31.4159    192.6421   1.3402730695e+02   3.0375545856e+01    0.3159445    0.1886772 -42.12 0.0009998392    2.372    0.578
        84 -10.2497      9.9541    186.9886   1.3936345425e+02   3.3660195060e+01    0.2975743    0.1594291  80.27  0.001487528    1.746    0.427
        85 -10.5076     70.9062    187.0132   1.2290917174e+02   2.6966075411e+01    0.3008411       0.1799  27.93  0.001453342    1.576    0.366
        86 -11.8245     58.6557    185.0434   1.2604450411e+02   2.9020061576e+01    0.2697042    0.2530964  29.14 0.0004492237    1.167    0.143
        87  -8.5744    107.4563    185.5344   1.1301415594e+02   2.1916641656e+01     0.142403     0.125419  37.21 0.0001151317    1.012    0.012
        88 -14.5915     24.4486    220.2359   1.3726018637e+02   2.5111252412e+01     1.283466     1.026838  16.63  0.008549273    1.453    0.312
        89  -8.6412     24.6258    183.7064   1.3527819202e+02   3.3113149849e+01    0.1247873   0.09723783 -30.65 0.0007024481    1.735    0.424
        90  -9.9239     36.9414    180.3811   1.3164971425e+02   3.2651832642e+01     0.275264    0.1830254 -65.38  0.000600685    1.611    0.379
        91  -8.4112     65.6938    181.7227   1.2374416401e+02   2.8881990952e+01    0.1299694    0.1076242 -15.73 0.0002726369    1.550    0.355
        92  -9.1817     27.0602    179.3662   1.3432974417e+02   3.3903091969e+01    0.2081149    0.1666931 -72.35  0.000651174    1.335    0.251
        93  -9.6430     80.9779    178.5351   1.1911223449e+02   2.7494129338e+01    0.2333116     0.191344 -39.69 0.0003265566    1.445    0.308
        94  -8.7942    111.2636    177.6287   1.1082006808e+02   2.3000454848e+01    0.2089779    0.1279999  25.03 0.0009465585    1.669    0.401
        95 -10.8360     70.2877    173.1684   1.2143122690e+02   3.0274047142e+01    0.2751707    0.2559066  24.21 0.0005065484    1.152    0.132
        96 -12.0101    248.2133    171.6682   8.2106795251e+01   2.6784120960e+00     0.559482    0.2852527 -33.48  0.003291233    1.654    0.395
        97 -11.2883    245.2579    162.4682   8.0877879718e+01   4.2794150073e+00    0.2775601    0.2028119 -25.22  0.001896112    1.124    0.110
        98 -11.8483    247.0712    157.9478   7.9794255148e+01   4.6464341568e+00    0.5863087    0.4636856 -73.02  0.003614248    2.503    0.601
        99 -10.7756      2.2117    172.0208   1.4083629209e+02   3.7762144162e+01    0.4265698    0.1816766  63.76  0.001518925    2.086    0.521
       100 -11.7030      7.4318    165.6938   1.3909367923e+02   3.8901185345e+01    0.8112014    0.4034474 -25.35  0.003293112    3.650    0.726
       101 -11.4477     11.0170    170.5002   1.3830831056e+02   3.7457188301e+01    0.5317326    0.2270321  65.36  0.002245067    2.226    0.551
       102 -11.6837     12.1886    167.1899   1.3780059616e+02   3.8166226104e+01    0.6023104    0.2298879  21.09  0.002550175    2.653    0.623
       103 -10.8066     54.2236    171.9400   1.2592897413e+02   3.2686437111e+01    0.4902079    0.2218182  40.86  0.001568027    1.890    0.471
       104  -9.9188     27.2353    171.7697   1.3375144620e+02   3.5714602249e+01    0.2497415     0.204158 -41.20 0.0006146395    1.521    0.342
       105 -11.5614     39.0092    167.8829   1.2999363288e+02   3.5457088999e+01    0.2992786    0.2695379 -29.61 0.0003818752    1.364    0.267
       106 -11.8533     78.6003    165.0750   1.1793445522e+02   3.1016248507e+01    0.6111209    0.4760278  25.11  0.002766338    1.302    0.232
       107 -10.8490     82.6278    157.7508   1.1564193802e+02   3.2175199526e+01    0.5441629    0.2697776  41.84  0.002239329    1.835    0.455
       108  -9.5381     18.1691    172.2558   1.3637744583e+02   3.6432879041e+01    0.2591568    0.1390391  46.04  0.001132663    1.582    0.368
       109 -10.1102     68.1090    166.1415   1.2116288467e+02   3.2269737592e+01    0.2152286    0.1929689  58.80 0.0005369505    1.032    0.031
       110  -9.6979     91.6315    168.4826   1.1470670141e+02   2.8209102838e+01    0.2508633    0.2153758  41.53 0.0001198642    1.054    0.051
       111 -10.4105     23.9815    161.9997   1.3399428703e+02   3.8430970754e+01    0.2031921    0.1783777  60.49 0.0004870929    1.030    0.029
       112  -8.9540     66.9399    161.4563   1.2088891147e+02   3.3581708589e+01       0.2119     0.134544  31.83  0.000323533    1.481    0.325
       113 -11.4692      9.8385    156.9967   1.3793369423e+02   4.0863687554e+01    0.4059197     0.187812  62.67  0.001844724    2.030    0.507
       114 -11.7242     23.7424    155.7324   1.3358887076e+02   4.0028381098e+01    0.5512584     0.341602  15.94  0.002757554    1.811    0.448
       115 -11.1158     23.2033    150.0623   1.3330308649e+02   4.1521226762e+01     0.332318    0.2496497  -9.46  0.001469012    1.715    0.417
       116  -8.4885    228.4339    155.4732   8.2073779668e+01   7.6076097800e+00    0.1211748    0.1017197 -20.44 0.0002275713    1.066    0.062
       117 -10.4360     32.2089    153.8438   1.3077506866e+02   3.9698215768e+01    0.2794909    0.2268756 -47.39 0.0004269423    1.418    0.295
       118 -12.3610    240.7822    120.1684   7.3360793452e+01   1.0821389492e+01    0.6980292    0.4196715  51.64  0.004049479    2.038    0.509
       119 -13.0097    248.2301    101.8031   6.8735016718e+01   1.2203620115e+01     1.000895    0.4561525 -32.94   0.00514623    1.824    0.452
       120 -11.8454    247.8613    142.5161   7.6802867451e+01   6.6360952657e+00    0.4736381      0.37944  10.57  0.003321225    1.316    0.240
       121 -12.7551    248.2648    134.2397   7.5165185151e+01   7.7163492681e+00     1.120885    0.4762781 -29.73  0.005533267    2.099    0.524
       122  -9.0119     54.1502    151.5406   1.2353942144e+02   3.7784585455e+01    0.2766501    0.1428207 -46.83 0.0007503571    2.295    0.564
       123 -10.8434     93.0808    149.9449   1.1121604644e+02   3.2373882552e+01    0.3296286    0.2941469   9.03 0.0008281167    1.241    0.194
       124 -13.4581      6.5729    143.0338   1.3815323978e+02   4.4621437672e+01     1.184165    0.6530547 -74.24  0.005937141    1.680    0.405
       125 -13.8939      8.9799    110.9293   1.3494038034e+02   5.2837412116e+01      1.53631    0.3563016 -76.99  0.004888134    3.761    0.734
       126 -12.7294     13.6964    101.4358   1.3203673456e+02   5.5054185298e+01    0.5860521    0.4001942 -30.00  0.002937023    1.664    0.399
       127 -11.3794      3.4486    133.1634   1.3860495531e+02   4.7352807975e+01    0.5095068    0.3170803 -88.87   0.00181617    1.448    0.309
       128 -13.2592      3.8428    121.6412   1.3773295701e+02   5.0320696587e+01    0.8760077    0.6361132 -89.73  0.004949476    1.234    0.190
       129 -11.0675    170.0350    247.7659   1.0766419738e+02   2.3390930554e+00     0.402664    0.1996801 -11.51  0.001782151    3.676    0.728
       130  -9.1657     96.5234    145.9919   1.0946764452e+02   3.2738549778e+01    0.2140287    0.1521945 -59.67 0.0003666055    1.492    0.330
       131 -10.0044    133.1361    141.1842   9.8306572240e+01   2.7029915360e+01    0.3622165    0.2219496 -57.58  0.001074769    1.892    0.471
       132  -8.5804     47.6757    150.3237   1.2546019999e+02   3.8896992124e+01    0.1577685   0.09568268  59.53 0.0005634375    1.686    0.407
       133  -9.1822     44.9997    139.7646   1.2501582966e+02   4.1954390612e+01    0.1865943    0.1176088  28.27 0.0004818541    1.576    0.366
       134  -9.9185    106.7052    135.7035   1.0440206653e+02   3.3357497163e+01    0.4307868    0.2850899 -16.01  0.001591778    2.515    0.602
       135  -8.8383     93.3057    133.0576   1.0790828954e+02   3.6455050586e+01    0.2029974    0.1960163 -67.86  0.000395966    1.077    0.071
       136  -9.6858     44.2941    129.9984   1.2392816340e+02   4.4609453966e+01    0.2042075    0.1788009 -85.46 0.0004762762    1.103    0.093
       137  -8.7043    113.3296    129.3053   1.0108003311e+02   3.3584497358e+01    0.1567756    0.1238696  -4.24 0.0002650919    1.655    0.396
       138  -9.2587     58.9632    127.7094   1.1835302374e+02   4.3332275738e+01    0.2059027    0.1862094  45.80 0.0003655418    1.074    0.069
       139 -10.2833     80.9418    148.4507   1.1463606236e+02   3.4726209662e+01    0.2814107    0.2519194  40.58 0.0007762837    1.063    0.059
       140 -11.0175    249.6209    150.9188   7.8143705472e+01   5.2503003273e+00    0.3940664    0.2054119 -32.99  0.002276005    1.570    0.363
       141 -12.5551     15.7395    120.1862   1.3321846929e+02   4.9938858637e+01    0.5796751    0.2974994  75.49  0.001993306    2.094    0.522
       142  -8.6524     41.3476    123.2559   1.2401825810e+02   4.6739304176e+01    0.1435609    0.1091996 -27.17 0.0006960079    1.594    0.373
       143 -10.6806    232.0396    116.6780   7.3801342725e+01   1.2743342350e+01    0.1662794    0.1540908 -20.33  0.000626729    1.108    0.098
       144 -11.7780     68.3747    143.9346   1.1786551347e+02   3.7781726600e+01    0.7219931    0.4341977  64.14  0.002410915    1.989    0.497
       145  -9.1062    168.0027    113.0372   8.3668002427e+01   2.5578873569e+01    0.2410286    0.1816503 -79.83  0.001131577    1.836    0.455
       146 -10.8115    236.7392    111.4826   7.2106554151e+01   1.2718683984e+01    0.2782082    0.1192109 -43.82  0.001306381    2.121    0.529
       147 -10.0477     29.8087    108.2043   1.2625941169e+02   5.1959583288e+01    0.2015138    0.1567261 -42.97 0.0005095176    1.359    0.264
       148 -11.0244     19.1703    105.8845   1.3029450318e+02   5.3485319694e+01    0.2430977     0.212107 -20.38 0.0007053153    1.283    0.220
       149 -10.4335    249.7137    117.9432   7.1797427822e+01   9.7488919840e+00    0.2988898    0.1737528 -28.34  0.001250981    1.483    0.326
       150  -8.6393     71.7394    100.3365   1.0792344711e+02   4.8444694325e+01     0.155162    0.1186609  77.58 0.0003139833    1.580    0.367
       151 -11.9864    247.7515    112.8100   7.1012082980e+01   1.0760488750e+01    0.4659812    0.3798502  34.00  0.003139824    1.472    0.321
       152  -9.3846    161.4572     79.5062   7.6241372201e+01   3.3159602459e+01     0.147402    0.1402976 -70.29 0.0001211777    1.004    0.004
       153  -9.1927    235.9682    146.0130   7.9130257690e+01   7.8616831412e+00     0.186658    0.1283152  -3.87 0.0004830328    1.605    0.377
       154 -11.0439    198.0816    245.4704   1.0214592213e+02  -6.9967676382e-01    0.2188836    0.1260633  12.83  0.001370425    1.494    0.331
       155 -11.7969    180.1655    243.6533   1.0519596331e+02   1.6471402462e+00    0.3522384    0.1784558  22.08  0.001589164    1.660    0.398
