#   1 NUMBER                 Running object number                                     
#   2 MAG_AUTO               Kron-like elliptical aperture magnitude                    [mag]
#   3 X_IMAGE                Object position along x                                    [pixel]
#   4 Y_IMAGE                Object position along y                                    [pixel]
#   5 X_WORLD                Barycenter position along world x axis                     [deg]
#   6 Y_WORLD                Barycenter position along world y axis                     [deg]
#   7 A_WORLD                Profile RMS along major axis (world units)                 [deg]
#   8 B_WORLD                Profile RMS along minor axis (world units)                 [deg]
#   9 THETA_WORLD            Position angle (CCW/world-x)                               [deg]
#  10 FWHM_WORLD             FWHM assuming a gaussian core                              [deg]
#  11 ELONGATION             A_IMAGE/B_IMAGE                                           
#  12 ELLIPTICITY            1 - B_IMAGE/A_IMAGE                                       
         1 -10.4142     10.4355     18.7398   9.6546031320e+01   7.0995202991e+01     1.271608    0.4268856 -24.67  0.004017567    6.473    0.846
         2 -11.2321     23.5197     32.5964   9.5534803772e+01   6.7484980645e+01      1.78484    0.4231369 -39.89  0.006552614    3.712    0.731
         3 -10.7719     37.2328      9.1456   7.8355896473e+01   6.9670635430e+01    0.8762587    0.3769817 -36.76  0.002489943    2.215    0.548
         4 -10.7831     21.9755     53.6511   1.0324897001e+02   6.3509460257e+01    0.7953675    0.4687587 -88.21   0.00274257    3.948    0.747
         5 -10.1425      4.7031     41.7864   1.0742237467e+02   6.7061812423e+01    0.7272091      0.30259 -63.95  0.003633291    2.252    0.556
         6  -9.9807     24.3254     11.2404   8.5773434903e+01   7.0927432470e+01    0.6412674    0.2791156  22.18  0.002803568    2.565    0.610
         7 -10.1988     18.3494      4.8859   8.5677835242e+01   7.2463781013e+01      0.54403    0.4127631 -50.10  0.003386719    1.992    0.498
         8 -10.2678     73.6009     17.9444   6.8018261934e+01   6.2761731797e+01     1.266285    0.2410293 -31.32  0.003925447    4.927    0.797
         9 -10.1181     69.2628     40.5359   7.9322073135e+01   6.0256264890e+01    0.8839082    0.3356784 -39.21  0.002644029    2.480    0.597
        10  -9.8218     79.1571     24.1460   6.8906356431e+01   6.0937733695e+01    0.6306329    0.3055545  25.67  0.001807348    2.771    0.639
        11  -9.4384    101.0902     32.7503   6.5709319325e+01   5.5354010900e+01    0.5720131    0.2187737 -31.65  0.002080435    2.612    0.617
        12  -9.3723    102.9213     21.0866   6.0504455074e+01   5.6423705284e+01    0.3855115    0.2626999 -35.34  0.001004269    1.591    0.371
        13  -8.6189    104.8598     14.8191   5.7446779700e+01   5.6677459099e+01    0.3937262    0.1984071  18.84  0.001552476    2.951    0.661
        14 -10.2775     62.6687      3.4105   6.4875384991e+01   6.6357166256e+01    0.5987664     0.452509 -23.16   0.00383922    1.380    0.275
        15  -9.6476     60.1121     33.5309   7.9927156903e+01   6.2855662447e+01    0.6979572    0.2473316 -38.23  0.002859369    2.621    0.618
        16  -9.8502     63.1082     21.3567   7.3387230342e+01   6.4170550525e+01    0.6541176    0.2681527 -39.79  0.002377429    2.632    0.620
        17  -9.9088     64.6557     13.3764   6.9059345221e+01   6.4918737734e+01    0.4160185    0.2949981   0.23 0.0002446986    1.330    0.248
        18  -9.8418     51.7364     14.0409   7.4432331387e+01   6.6957982637e+01    0.6995018    0.3569003  15.57  0.003168404    2.707    0.631
        19 -10.1313     46.2751     29.6535   8.3973012263e+01   6.5462113728e+01    0.4681403    0.2760333 -49.78   0.00129511    2.075    0.518
        20  -9.5081    118.8858     21.4040   5.6690752760e+01   5.2744727327e+01    0.2721548    0.2480147 -27.16 0.0004841586    1.186    0.157
        21  -8.7218    112.4831     15.5710   5.5909404862e+01   5.4864849263e+01    0.3303047    0.1907472 -28.96 0.0005567321    1.819    0.450
        22  -8.9011    154.1771     17.0049   4.8336386167e+01   4.4527385956e+01    0.3706527    0.1987604 -63.61  0.001494862    2.674    0.626
        23  -9.3196     96.2429     14.8493   5.9704224734e+01   5.8567617743e+01    0.6236832    0.2667054 -12.96  0.002419326    3.143    0.682
        24  -8.3842     97.7991      6.1218   5.5581716629e+01   5.9082623666e+01    0.2536968    0.1652779   5.55 0.0007296331    1.674    0.403
        25  -8.2215     96.0039      2.9950   5.4687840283e+01   5.9747708549e+01    0.1810451    0.1749053  43.04 0.0004547681    1.189    0.159
        26  -9.5676     85.4192     13.2061   6.2077134515e+01   6.1007291309e+01    0.4268143    0.2587893 -49.07  0.001571113    2.443    0.591
        27  -7.9350     80.6708     12.7386   6.3320319195e+01   6.2008495419e+01    0.2548573    0.1634102 -35.75 0.0006931874    1.749    0.428
        28  -9.6182      2.2902     14.1583   9.9063998443e+01   7.2333552580e+01    0.5223721    0.2105343 -59.16   0.00244806    3.231    0.691
        29 -10.3556      5.8443      4.7257   9.2683931009e+01   7.3606663345e+01    0.4393299    0.2806541 -28.06   0.00176778    1.165    0.142
        30  -9.2186    133.6480     11.2419   4.9894733478e+01   5.0231961789e+01    0.4025957    0.1655942 -43.09  0.001251974    2.901    0.655
        31  -8.8627    137.2426      9.5674   4.8659327975e+01   4.9502317780e+01    0.2446577    0.1988164  -0.12 0.0006838542    1.378    0.274
        32  -8.3358    120.5798      5.8494   5.0396657866e+01   5.3882463868e+01    0.2876175    0.1608287  63.77  0.001402208    1.650    0.394
        33  -9.4557    125.4781      4.3777   4.8906167697e+01   5.2833825613e+01     0.334927    0.2450395 -26.91  0.000888214    1.501    0.334
        34  -8.8740    125.3517     13.1914   5.2202596612e+01   5.2063987618e+01    0.2400665    0.2179802  85.49 0.0004459469    1.210    0.174
        35  -9.0606    126.9238      9.0612   5.0364114422e+01   5.2074484808e+01    0.2827472    0.1923558  44.02 0.0004780592    1.348    0.258
        36  -7.8167    141.3040     11.5446   4.8643993677e+01   4.8308658105e+01    0.2855439    0.1418754 -38.69 0.0008608583    2.171    0.539
        37  -9.0329    114.3354      9.8077   5.3223789593e+01   5.5000169285e+01    0.3040906    0.1969558  36.58 0.0004110168    1.470    0.320
        38  -8.5083    110.4299      7.5292   5.3181794726e+01   5.6114164604e+01    0.2233079    0.1866855   9.62 0.0007182999    1.210    0.173
        39  -8.7394    110.2544      4.2151   5.1893267425e+01   5.6442943976e+01    0.3542995    0.2114705 -58.05  0.001454249    2.568    0.611
        40  -8.6120    101.8573      7.7634   5.5272750105e+01   5.8036654813e+01    0.3884716    0.1794693 -23.31  0.001111956    2.261    0.558
        41  -8.3870    104.4885      2.0250   5.2273252025e+01   5.7941517652e+01     0.294755    0.1587626  35.75  0.001436321    1.782    0.439
        42  -8.1355     85.5783      6.4489   5.8995050570e+01   6.1653969080e+01    0.3285626    0.1309742  39.99   0.00141936    2.313    0.568
        43  -8.4966     77.0031      6.2623   6.1470845858e+01   6.3395372334e+01    0.2424264    0.2302774  56.92 0.0008508455    1.347    0.258
        44  -9.0632     78.6248      3.0259   5.9450346741e+01   6.3379019814e+01    0.3162751    0.2480015  49.58 0.0009378848    1.285    0.222
        45  -8.5663      2.4825      3.4861   9.4060415892e+01   7.4047018213e+01    0.1845096    0.1374806 -35.78 0.0009494318    1.261    0.207
        46  -8.8087    115.2673      4.0085   5.0756718739e+01   5.5294116853e+01    0.3170145    0.1963574 -37.31  0.001041735    1.838    0.456
        47  -9.2698    135.2916      2.2454   4.6420253353e+01   5.0619305475e+01    0.3630935    0.1865982  34.74  0.001637416    2.183    0.542
        48  -8.3364     89.1935      2.8969   5.6398574761e+01   6.1219374592e+01    0.2498729    0.1523225 -31.54 0.0008533219    1.815    0.449
        49  -8.6022    238.3233      2.8989   3.5391507519e+01   2.5424402744e+01    0.2086778    0.1575163  74.95 0.0004035455    1.321    0.243
        50  -8.8561     83.3259    131.4440   1.0102698255e+02   3.8312985532e+01    0.7305882    0.4201451  82.20  0.002603214    3.314    0.698
        51  -8.8435    236.1025    249.9035   8.8993466692e+01  -9.9664307681e+00     0.218449    0.1246025  27.87  0.001370016    1.401    0.286
        52  -9.5722    201.3951    250.4181   9.5144781559e+01  -5.0488443292e+00    0.3302098    0.1189861  40.20  0.001561009    2.286    0.563
        53 -10.3013    192.3931    246.8007   9.6245932301e+01  -3.2204834046e+00    0.4016823    0.2611164 -55.32  0.002329663    2.442    0.591
        54  -9.9471     66.3215    128.7958   1.0530087465e+02   4.1439989389e+01    0.4922879    0.4029546 -69.72   0.00278175    1.098    0.090
        55 -10.1129     71.2540    125.7582   1.0331136707e+02   4.1497117054e+01    0.5999656    0.3695316 -78.99  0.001299538    1.918    0.479
        56 -10.2265     58.4361    124.6538   1.0679602338e+02   4.3480875111e+01     0.748272    0.4117788  77.48  0.002393326    3.096    0.677
        57  -9.8942     98.6308    128.6026   9.6177136016e+01   3.6462915047e+01     0.655026    0.4013406  77.00  0.002210566    2.862    0.651
        58  -8.7605    126.0729    129.2808   8.8965430898e+01   3.1111013710e+01    0.2694781    0.2222296 -53.67 0.0007477495    1.195    0.163
        59  -7.9584    160.3546    127.2227   8.0017173509e+01   2.4238098841e+01    0.2327754     0.142215 -52.66 0.0009446823    1.769    0.435
        60  -9.8047     41.9204    122.7810   1.1124834601e+02   4.5838365289e+01    0.5960574     0.295937  89.98  0.002344122    3.005    0.667
        61  -9.8608     27.5555    123.1336   1.1541112662e+02   4.7135062466e+01    0.5738734    0.2814654  71.02  0.002391172    2.977    0.664
        62  -8.2247    157.9557    122.1222   7.9293320688e+01   2.5854117192e+01    0.2461902    0.2147311 -81.81  0.001185919    1.324    0.245
        63  -9.6222    203.1843    120.1744   6.9201260776e+01   1.6025641315e+01     0.254028    0.2396443 -19.67 0.0002581309    1.023    0.023
        64  -7.9871    207.8988    116.9224   6.7512117909e+01   1.5581055418e+01    0.2294363    0.1969989   2.56 0.0003703414    1.284    0.221
        65  -8.7041     92.2511    104.3015   9.2221289193e+01   4.3331200583e+01    0.6148349    0.3829111  -3.95  0.002152625    3.491    0.714
        66  -9.8922     93.7714     97.2937   8.9898707071e+01   4.4675872834e+01    0.4445479    0.4136692 -84.54  0.001054954    1.174    0.148
        67  -8.8283     96.2113     90.9505   8.7373275262e+01   4.5658017158e+01    0.4891253    0.3163067 -10.90  0.001913618    2.609    0.617
        68  -8.2708      1.3756    116.2228   1.2189147150e+02   5.0677610766e+01    0.2971766   0.09444848 -76.89  0.001259377    2.601    0.616
        69 -10.3112     78.3960    113.1498   9.8540068461e+01   4.3499729645e+01    0.5877481    0.3595585 -81.62  0.001666262    2.424    0.588
        70  -8.0625     78.3451    105.1742   9.6678149238e+01   4.5409308160e+01    0.4128792    0.2600746  -8.42  0.001600381    2.999    0.667
        71  -9.5321     81.5617     99.4946   9.4254320050e+01   4.6235938371e+01    0.7236984    0.3022449 -54.11  0.001304544    2.260    0.558
        72  -9.2915     19.8965    115.8218   1.1658151302e+02   4.9519056273e+01    0.2926596    0.2518926  41.75  0.001977673    1.386    0.278
        73  -9.6962     14.0837    110.0224   1.1748298404e+02   5.1323363043e+01     0.720125    0.2882674 -80.00  0.003110101    2.526    0.604
        74  -8.9542    243.4972    115.4843   6.1174438849e+01   8.3249834761e+00    0.1411538    0.1243133 -30.06 0.0002871593    1.001    0.001
        75  -8.9418    152.5841    115.0508   7.8737358156e+01   2.8566156276e+01    0.2860569    0.2283266  69.57  0.000678968    1.464    0.317
        76 -10.9954     44.9105    102.5547   1.0665548388e+02   5.0405814194e+01     1.197251    0.5903823  67.82  0.003122949    5.186    0.807
        77 -10.6991     63.1832     94.1023   9.8786770174e+01   5.0202112047e+01     1.427227      0.51569 -55.01  0.004109974    2.428    0.588
        78 -10.3765     65.8991    110.3863   1.0171738878e+02   4.5971059564e+01    0.8715264    0.6077065 -72.29  0.002429793    1.480    0.324
        79  -9.2051     59.1435    109.6128   1.0363405060e+02   4.7045532095e+01    0.5259875    0.2820983 -66.68   0.00144473    1.837    0.456
        80  -7.0249    167.3435    113.6981   7.4958312376e+01   2.5469448760e+01    0.1608759    0.1262534 -83.73 0.0003070641    1.680    0.405
        81  -9.2520     36.4201    111.6059   1.1100694704e+02   4.9096279021e+01    0.3227667    0.1907405  74.27  0.001055361    2.304    0.566
        82  -8.1808    158.9091    111.9182   7.6414478476e+01   2.7782175752e+01    0.2393943    0.2243571 -57.33 0.0003591175    1.084    0.078
        83  -9.1215    141.9719    111.7424   8.0462226788e+01   3.1656739637e+01    0.5030614     0.326385  35.60  0.002125125    1.703    0.413
        84  -9.7177     31.3579    109.8742   1.1225600848e+02   4.9984458289e+01    0.5431135    0.1603556 -44.21  0.001807065    4.243    0.764
        85 -10.1094     91.7935    112.9497   9.4516867258e+01   4.1378357944e+01    0.6080251     0.444493  88.85  0.001721398    1.837    0.456
        86  -8.4455    149.9644    109.9999   7.8025392446e+01   3.0232409658e+01    0.2410508    0.1925159 -81.61 0.0003267863    1.589    0.371
        87 -11.1441     20.7940     98.5707   1.1366368637e+02   5.3543455510e+01     1.683985    0.6576783 -78.44  0.005447138    3.106    0.678
        88 -10.4940     25.5298     77.9299   1.0802855632e+02   5.7956390897e+01    0.5749425    0.3572603  84.98  0.001957493    2.445    0.591
        89  -8.6171     40.0916    107.0296   1.0905296774e+02   4.9834912188e+01     0.202528    0.1452796  81.45 0.0005460027    1.626    0.385
        90  -9.5997      6.5179    103.8050   1.1890284990e+02   5.3272974693e+01    0.4218929    0.2421365  71.52  0.001425258    2.087    0.521
        91  -9.4785    149.4205    103.1801   7.6293827491e+01   3.1789502484e+01    0.4566104    0.2866193 -55.07 0.0009973226    1.797    0.443
        92  -8.3664    166.0341    103.9068   7.2627915624e+01   2.7758089633e+01    0.2666396    0.2212622 -41.87   0.00041739    1.181    0.153
        93  -8.3703     73.9409    102.3865   9.7369420202e+01   4.6735551682e+01    0.3373055    0.1890302 -55.59 0.0007128107    1.629    0.386
        94  -8.5790    159.1447    101.3689   7.3492421855e+01   2.9893644141e+01    0.2867735    0.2434358 -59.96 0.0003066488    1.255    0.203
        95 -10.5632    132.2076    120.1044   8.5125350909e+01   3.1927533734e+01    0.9201246    0.5993255  79.27  0.003386736    2.714    0.632
        96  -9.6809    239.6924     97.3600   5.7482416540e+01   1.2079732744e+01    0.3281568    0.2157314 -66.71  0.001005842    2.037    0.509
        97  -8.8831    122.5566     97.4687   8.1609134168e+01   3.8988023388e+01    0.3713856    0.3262562  31.34  0.001312574    1.195    0.163
        98 -10.2418    123.0557     91.3705   7.9702185738e+01   4.0184321428e+01     0.601436    0.5211384 -14.16  0.001163099    1.256    0.204
        99  -8.6817    150.1013     96.5405   7.4261932974e+01   3.2997560564e+01    0.3552919     0.284334  20.43  0.001395351    1.480    0.324
       100  -8.8437    150.2582     89.9233   7.2313014262e+01   3.4287613386e+01     0.565711    0.2793289 -26.14  0.001869037    2.886    0.653
       101  -7.4590    171.2022     95.9507   6.9302694043e+01   2.8092161018e+01    0.2123295     0.122254 -39.31 0.0003080546    1.694    0.410
       102  -8.7310    164.3745     94.2192   7.0305583892e+01   3.0069608876e+01    0.3335333    0.2513652 -50.16 0.0009430958    1.357    0.263
       103  -9.9684     34.4612     90.5152   1.0761429443e+02   5.4293431151e+01    0.5483938    0.2602633 -77.27  0.001849456    2.845    0.648
       104 -10.0293     36.6957     81.1046   1.0472560053e+02   5.6253310045e+01     0.645308    0.3477745 -19.72  0.002847548    2.827    0.646
       105  -9.0341    125.8828     83.6053   7.6594638484e+01   4.1169192189e+01    0.6868322    0.3829441  22.83  0.002270057    3.283    0.695
       106  -8.8295    157.7701     90.4851   7.0724764167e+01   3.2384195280e+01    0.4006113    0.2135954 -24.24   0.00139269    2.609    0.617
       107 -10.2820     47.7738     84.3137   1.0158175313e+02   5.4365502101e+01    0.7108601    0.4361634 -74.97  0.002108768    2.048    0.512
       108  -9.2774     48.7394     77.3940   9.9443955294e+01   5.5818070800e+01    0.6079356    0.3726357 -20.47   0.00278087    2.129    0.530
       109  -9.9321     81.6810     72.5828   8.6449175635e+01   5.2167540422e+01    0.4862232    0.3312945 -68.80  0.001077526    2.147    0.534
       110 -10.2944     85.3267     86.6065   8.9528579925e+01   4.8542555440e+01    0.4986032    0.3822661 -88.98  0.001010758    1.876    0.467
       111  -9.5700     87.1237     78.7996   8.6611816210e+01   4.9925579653e+01    0.5569338    0.3720044  11.38  0.001659424    2.101    0.524
       112  -8.5985    163.6466     87.2723   6.8479392522e+01   3.1581824367e+01    0.3508422    0.1821221 -38.25  0.001188706    1.893    0.472
       113 -10.1613      4.4236     89.3700   1.1750089715e+02   5.6735924366e+01    0.6356911    0.2839352 -89.79  0.002282761    2.967    0.663
       114 -10.2453    104.0078     82.7207   8.2554290861e+01   4.5949283250e+01    0.5348442    0.3143598 -55.06 0.0008153655    1.926    0.481
       115  -9.8556    104.6025     71.8851   7.8927825600e+01   4.8036747569e+01    0.8680764    0.6085398 -14.63  0.003943833    1.779    0.438
       116  -7.9102    170.5101     83.4693   6.5912028197e+01   3.0613253372e+01    0.2708734    0.1368795 -47.14   0.00067943    2.071    0.517
       117  -8.5139    156.1775     70.9564   6.5254309479e+01   3.6404366194e+01    0.4344166    0.2303052 -21.06  0.001441126    2.657    0.624
       118  -8.4621    157.6848     83.1707   6.8604245015e+01   3.3807054247e+01    0.4055435    0.2058411 -38.80  0.001106617    1.936    0.483
       119  -8.7014    157.0291     76.9601   6.6894459063e+01   3.5118669543e+01    0.4241875    0.2150425 -57.81  0.001395482    3.045    0.672
       120  -9.4237      5.9470     78.7825   1.1524097751e+02   5.9065437949e+01    0.6450427    0.2407806 -31.94  0.002731107    3.537    0.717
       121  -7.7142    243.6640     83.3033   5.3583817056e+01   1.3495220457e+01    0.1443614   0.09837917 -63.32  0.000703795    1.665    0.400
       122  -8.7194    149.8226     80.2526   6.9536000980e+01   3.6260751017e+01    0.4204365    0.2059213 -41.77  0.001165027    2.016    0.504
       123  -8.8879    119.0738     80.5548   7.7516561829e+01   4.3276376684e+01    0.3600428    0.2750155 -66.13 0.0006638988    1.630    0.387
       124  -8.0082    119.9745     76.0232   7.5833136141e+01   4.3980189770e+01    0.2371122    0.2005536   5.54 0.0006083912    1.322    0.244
       125  -9.1332     74.1559     80.0559   9.1287572321e+01   5.1795485379e+01    0.4106144    0.2341481 -58.47 0.0009627292    1.915    0.478
       126  -8.2289     68.7276     79.5859   9.3000095726e+01   5.2716332901e+01    0.2647757    0.1139565 -51.29  0.001061372    2.117    0.528
       127  -8.8992    240.4832     79.0019   5.2980769737e+01   1.4849513854e+01    0.2244062    0.1250304 -35.40  0.001037728    1.606    0.377
       128  -8.2659    166.5331     78.2817   6.5233144529e+01   3.2537528135e+01    0.3485352    0.1480446 -38.18  0.001111561    2.290    0.563
       129  -7.7020    249.6600     78.6646   5.1718027240e+01   1.2954842582e+01    0.1348424    0.1054303   9.62 -0.0001352078    1.755    0.430
       130  -8.2414    184.5104     77.9961   6.1578236258e+01   2.8136343569e+01    0.2707868    0.2115453  38.53 0.0006438334    1.407    0.289
       131  -7.2914    174.2788     78.6666   6.3754428031e+01   3.0551226345e+01    0.1590642    0.1180023 -66.61 0.0005017986    1.608    0.378
       132  -9.5463    127.1828     75.1577   7.3601439467e+01   4.2541100304e+01    0.4005856      0.31306 -72.97 0.0008541499    1.672    0.402
       133  -8.1981     18.4855     77.0104   1.1039573761e+02   5.8692134283e+01    0.1941007   0.09905692 -61.23 0.0005694201    1.543    0.352
       134  -9.9191     63.1695     60.8476   8.9108486048e+01   5.7464123954e+01    0.6783276    0.3464712  27.48  0.002686147    2.278    0.561
       135 -10.5247     55.4429     71.0235   9.5194568071e+01   5.6399735826e+01    0.6450278    0.4242001  61.45   0.00233379    2.504    0.601
       136  -9.0579     54.5173     63.0452   9.3074724079e+01   5.8200079465e+01     0.446581    0.2801509 -39.70  0.001672518    1.402    0.287
       137  -9.1210    204.3587     72.2641   5.6548126295e+01   2.4235093137e+01    0.3797846    0.2596188 -31.20  0.001322472    1.464    0.317
       138  -9.1398    114.7186     72.7212   7.6242126426e+01   4.5762743614e+01    0.3529373    0.2674888 -34.32 0.0007059735    1.296    0.228
       139 -10.1592    110.7103    249.4606   1.1171920403e+02   9.0509637520e+00    0.2038985    0.1710708  54.20 0.0002237665    1.080    0.074
       140  -9.5819     16.0361     70.4815   1.0989853360e+02   6.0319908526e+01    0.4477693     0.207937 -59.16  0.001238017    1.649    0.393
       141  -9.7152     16.9763     61.0785   1.0731428229e+02   6.2308789666e+01    0.7896796    0.1770136 -57.50  0.003057603    3.005    0.667
       142  -9.1469    184.1257    249.1289   9.8087251747e+01  -2.2577555785e+00    0.1907119    0.1424161  16.88   0.00125136    1.290    0.225
       143  -8.6874     40.8368     20.6487   8.2341271241e+01   6.7579533833e+01    0.2863134    0.1482071 -35.39 0.0007601543    1.715    0.417
       144 -10.1611    155.4165    248.8791   1.0335449365e+02   2.2559239071e+00    0.4409628    0.1976644  28.16   0.00194476    2.799    0.643
       145  -9.1055    170.7821    246.4167   1.0017206012e+02   1.9626842430e-01    0.1813461   0.09545724  31.77 0.0009581617    1.704    0.413
       146 -10.1543     12.0632     45.8967   1.0528778899e+02   6.5800809960e+01    0.7423053     0.344701  -6.33    0.0029004    3.058    0.673
       147  -7.8680    227.9588    243.0043   8.9314322230e+01  -8.0374627979e+00    0.1445631    0.1061341  21.22 0.0003748481    1.069    0.065
       148  -8.3056    142.6964    131.8376   8.5371623589e+01   2.7082342336e+01      0.36828    0.2507667  71.97  0.001388472    2.094    0.522
       149  -7.8101    235.8399    238.8346   8.7278751938e+01  -8.6648373868e+00    0.1455308    0.1226697  23.86 0.0004443377    1.302    0.232
       150  -9.5270      6.8037     32.6566   1.0362018701e+02   6.8725192030e+01    0.2850844    0.1779539 -26.01 0.0007812206    1.431    0.301
       151  -9.9955      7.2493     28.2248   1.0187453061e+02   6.9528340858e+01    0.2648052    0.2558946  80.76  0.001032516    1.534    0.348
       152  -7.6359    175.4327     72.9050   6.1854249183e+01   3.1272259402e+01     0.224471    0.1181097 -55.41 0.0008048972    2.439    0.590
       153  -8.3985    162.5832     72.8864   6.4460147764e+01   3.4477708835e+01    0.2889894    0.2286321 -73.53  0.001357348    1.509    0.337
       154  -7.8731    169.4459     71.0085   6.2481450336e+01   3.3094151933e+01    0.2339658    0.1470033 -38.90  0.000534514    1.564    0.361
       155  -9.1463    146.9209     69.0902   6.6761106273e+01   3.9005395501e+01    0.3771039    0.2660416 -61.79  0.001092499    1.758    0.431
       156  -8.7699    129.9481     68.6782   7.0785026589e+01   4.3119656978e+01    0.5364789    0.2714516  28.60  0.001728342    3.383    0.704
       157  -8.3887    130.4215     64.8204   6.9395510387e+01   4.3702982356e+01    0.3817852    0.1813569 -40.08 0.0009321974    2.092    0.522
       158  -9.7279     94.8210     68.3070   8.0758362407e+01   5.0663783783e+01     0.446847    0.2595653 -46.58 0.0008999962    1.721    0.419
       159  -9.4540     97.2101     58.8323   7.6735542293e+01   5.1990635777e+01    0.7006603    0.4049325  -8.84  0.002508159    3.234    0.691
       160  -7.5157     23.1922     69.1137   1.0685309690e+02   6.0108265483e+01     0.195449    0.1635997  30.17 0.0006210628    1.464    0.317
       161 -10.4690     32.5275     63.6459   1.0179007673e+02   6.0506083341e+01     1.119141    0.4531626 -32.81   0.00363883    3.145    0.682
       162  -8.5583     44.1567     53.5935   9.4028729186e+01   6.1380913699e+01    0.2746594    0.1961484 -15.74 0.0008651378    1.450    0.311
       163  -9.3252     39.6226     53.4543   9.5830540943e+01   6.1913953789e+01     0.429994    0.2244547 -43.82  0.002202273    1.590    0.371
       164 -10.1274     49.9085     54.6018   9.2066678851e+01   6.0490785343e+01    0.5089601    0.4005072 -69.19  0.002522364    1.709    0.415
       165  -9.7654     55.2027     44.3375   8.6235927493e+01   6.1735951097e+01    0.9848744    0.5091986  -4.44  0.003173735    5.130    0.805
       166  -9.2109    138.2933     65.2329   6.7571588729e+01   4.1768339074e+01    0.6628224    0.3435873 -26.14  0.001684717    2.304    0.566
       167  -9.0099    138.9560     56.9777   6.4697964733e+01   4.3005377984e+01    0.3949364    0.2007749 -43.89 0.0006442713    2.077    0.519
       168  -9.1228     83.4237     64.8766   8.3319529588e+01   5.3423916767e+01    0.5858196    0.3601969  -5.96  0.002327795    2.749    0.636
       169  -9.0422    121.3189     66.1845   7.2246352037e+01   4.5542845958e+01    0.3607363    0.2701106 -63.35 0.0006990592    1.704    0.413
       170  -8.1488    122.2309     61.0210   7.0258318049e+01   4.6258794486e+01    0.2957407    0.2249908  18.55  0.000934239    1.525    0.344
       171  -8.0073    170.2138     64.9194   6.0512682626e+01   3.3927637171e+01    0.2409368    0.2043901 -71.93  0.000718766    1.281    0.220
       172  -9.3961    109.6961     63.8553   7.4724117712e+01   4.8508681285e+01    0.3719168    0.2809033 -57.02 0.0007345635    1.577    0.366
       173  -8.9728    110.5742     58.2379   7.2521828898e+01   4.9328694266e+01    0.3847738    0.2884777   2.27  0.001003216    1.604    0.377
       174  -8.2250    157.7641     63.1783   6.2506209673e+01   3.7341932964e+01    0.2695588    0.1929261 -46.58 0.0009084097    1.438    0.304
       175  -7.8560    147.7247     63.4208   6.4776484584e+01   3.9790883931e+01    0.2233882     0.136939  43.31 0.0009449105    1.678    0.404
       176  -8.7414     49.4204     62.2076   9.4755977087e+01   5.9009859986e+01    0.1839299    0.1180803 -59.60 0.0008938494    1.684    0.406
       177  -8.3887     10.6582     61.4185   1.0993218297e+02   6.2640321696e+01    0.3040935    0.1968189  74.69  0.001654095    2.451    0.592
       178 -10.0427     73.4747     57.2135   8.4098805751e+01   5.6589331089e+01     1.070486    0.3571322 -38.47  0.003028376    2.977    0.664
       179  -8.3906     79.6850     47.5075   7.8324717396e+01   5.7291297077e+01    0.3410839    0.2258997 -27.75  0.001653851    1.461    0.315
       180  -7.5526    164.5193     60.4878   6.0290696089e+01   3.6086371906e+01    0.1504751    0.1467371 -84.11 -2.034403e-05    1.019    0.019
       181  -7.2196    152.6468     60.3177   6.2698847913e+01   3.9090998619e+01    0.1598588    0.1183918 -73.82 0.0007046718    1.743    0.426
       182  -8.7978    146.6947     58.9738   6.3577290711e+01   4.0785946808e+01    0.3532102    0.2157677 -45.34 0.0009330721    1.720    0.419
       183  -8.3878    152.9680     52.2627   6.0053147682e+01   4.0290031521e+01    0.5027797     0.214329 -32.96   0.00186454    2.372    0.578
       184  -8.1981    147.6211     53.3578   6.1544769645e+01   4.1455524573e+01    0.3672892    0.1537574 -29.16  0.001299728    2.620    0.618
       185  -9.3112    149.6371     46.4339   5.8847496961e+01   4.1998307110e+01    0.7350047    0.1953327 -37.09  0.001857641    3.529    0.717
       186  -8.9667    130.1208     57.3306   6.6960384709e+01   4.5060948463e+01    0.5074326     0.235216 -31.29  0.001560532    2.276    0.561
       187  -9.1701     88.0404     55.9487   7.8643868548e+01   5.4277661558e+01    0.8725343    0.4037519 -26.98  0.003204017    2.844    0.648
       188  -9.2647    118.1652     55.4139   6.9412954203e+01   4.8139160921e+01    0.4732485    0.2989149 -43.20  0.001619378    1.652    0.395
       189  -9.2113    121.1161     47.0527   6.5664118417e+01   4.8811025450e+01     0.483712     0.239921 -33.92 0.0004742987    2.027    0.507
       190  -8.5079    162.9370     53.0677   5.8307569685e+01   3.7651620557e+01    0.4763373    0.2227471 -26.81  0.001651734    2.422    0.587
       191  -8.9309    105.5923     51.7233   7.1634514741e+01   5.1508886019e+01    0.6038226    0.3054495 -30.40  0.002270585    2.060    0.515
       192 -10.1765     85.1674     48.0931   7.6681682041e+01   5.6194234281e+01    0.3716229     0.302728 -59.86 0.0009495655    1.611    0.379
       193  -7.8485    172.4472     50.4779   5.5745735279e+01   3.5622929375e+01    0.2561563    0.1245269 -43.31 0.0005947752    2.083    0.520
       194  -8.0635    157.3842     48.4956   5.7951510115e+01   3.9744153825e+01    0.3297153    0.1923626 -25.29   0.00110406    1.891    0.471
       195  -8.5867    141.9388     48.6626   6.1236732486e+01   4.3582004751e+01    0.2623156    0.2129135 -42.91 0.0003934702    1.282    0.220
       196  -9.6026    130.6492     46.2401   6.3006935316e+01   4.6690726863e+01    0.8256991    0.3582782 -21.78  0.002348318    3.169    0.684
       197  -8.5129    132.8403     35.8337   5.8836760945e+01   4.7633452213e+01    0.2676173    0.2016937 -38.67 0.0005063874    1.400    0.286
       198 -10.8534    134.1141     30.9301   5.6821838235e+01   4.7955564797e+01    0.3715466    0.2743737   1.23            0    1.595    0.373
       199  -8.7375    112.4207     45.7956   6.7521944748e+01   5.0977234423e+01    0.6549421    0.3340025 -23.80  0.002162436    2.278    0.561
       200  -9.9492     37.8129     42.0017   9.2598195016e+01   6.4329495752e+01    0.3618778    0.3179728  82.97  0.001820762    1.808    0.447
       201 -10.4574     35.8966     38.0046   9.1933495858e+01   6.5275175467e+01     0.648366    0.3471898 -16.80 0.0003502425    2.417    0.586
       202  -9.5219    153.8152     40.9178   5.6206634141e+01   4.1728263788e+01    0.5658758    0.3339361 -47.14   0.00234279    1.852    0.460
       203  -8.9456    139.4873     40.3829   5.8962887481e+01   4.5385961215e+01    0.4384886    0.2221123 -41.51  0.001357487    2.091    0.522
       204  -8.9134     71.7316     25.6799   7.2150061169e+01   6.2095068285e+01    0.4156733    0.2045252  28.73  0.001840358    2.343    0.573
       205  -9.6378    188.3598    233.2266   9.4968091023e+01  -7.1933188876e-01    0.3712947    0.2144514 -39.88  0.002064005    2.019    0.505
       206  -8.2240    113.3764    235.1571   1.0967610175e+02   1.1068826655e+01    0.1611139    0.1393452  69.36 0.0005687808    1.126    0.112
       207  -9.8733     75.9641     32.3663   7.3534798865e+01   6.0382443894e+01    0.4775803    0.3562842  37.65  0.001731044    1.340    0.254
       208  -8.4617    223.3156    226.8965   8.7507499371e+01  -5.3460642664e+00    0.1824227    0.1459029  27.66 0.0003818174    1.179    0.152
       209  -8.8278     84.6055     21.7069   6.6072334922e+01   6.0191344781e+01     0.254962    0.2051813  -9.42   0.00068649    1.183    0.155
       210  -8.7689    104.8612     40.9686   6.7830757715e+01   5.3367674928e+01    0.3243408    0.2247582 -49.84 0.0007100375    1.751    0.429
       211  -8.6703    106.0401     36.4656   6.5766932849e+01   5.3766125277e+01    0.3285761    0.2013858  25.48  0.001365189    1.927    0.481
       212  -8.0523    123.2184     40.3900   6.2729023016e+01   4.9308351532e+01    0.3551829    0.1821767  21.17  0.001127173    3.954    0.747
       213 -10.2930     90.0149     38.3581   7.1296864871e+01   5.6830847235e+01    0.8460714    0.3101956  35.19  0.002846323    3.571    0.720
       214  -8.7510     53.7953     38.1191   8.4355883977e+01   6.3025954962e+01    0.4406193    0.1476271 -42.28   0.00176311    2.721    0.632
       215  -9.1398    144.1203     36.4045   5.6632396316e+01   4.4775262305e+01     0.331679    0.2341957 -64.18 0.0006611421    1.783    0.439
       216  -8.6810    118.9090     34.8231   6.1749797161e+01   5.1086195679e+01    0.2997031    0.1903924 -36.25 0.0007580805    1.640    0.390
       217  -7.3115     56.0000    215.9081   1.1892097042e+02   2.2904866041e+01     0.186142   0.06151785 -70.21 0.0005531252    2.979    0.664
       218  -8.9677    221.9654    209.2625   8.4677754449e+01  -2.7217879998e+00    0.2740398    0.2365065  74.19  0.001451681    1.950    0.487
       219 -10.1469     10.9345    207.3179   1.2687236050e+02   2.9647888753e+01     0.473906    0.2880154  26.40  0.003011371    2.260    0.558
       220  -9.7315    124.0003    205.9982   1.0378948371e+02   1.4753783645e+01    0.1887418    0.1661095  54.22            0    1.003    0.003
       221 -10.4703    241.3851    202.1067   7.9890268808e+01  -4.7933278697e+00    0.2224222    0.1919833  -4.29 0.0001817397    1.145    0.127
       222  -8.8794    210.1043    203.8770   8.5905835655e+01   3.6160742215e-02    0.2687592    0.1880629  42.42 0.0004101367    1.443    0.307
       223  -8.9831    211.0692    199.0880   8.4838977736e+01   6.0829608061e-01    0.2116678    0.1884906  -1.18  0.001331272    1.084    0.078
       224  -8.3422     45.2820     15.9501   7.8120622979e+01   6.7654455231e+01    0.1983195      0.14004  -6.83   0.00105319    1.263    0.208
       225  -8.6740     46.8507     20.4359   7.9577847054e+01   6.6799501761e+01    0.3586603    0.1976939 -20.07  0.001870149    1.843    0.457
       226  -9.0231    191.2848    193.0288   8.7558824143e+01   5.0957402864e+00    0.6260387    0.3519486 -65.03  0.002113014    4.797    0.792
       227  -8.4328    211.6915    194.3884   8.3835237281e+01   1.2357433850e+00    0.2085797    0.1876442  -7.82 0.0002920572    1.110    0.099
       228  -8.4935     42.3748     27.8731   8.4905935452e+01   6.6256155843e+01    0.2470788    0.1496062 -20.05 8.497392e-05    1.618    0.382
       229  -9.0863    110.2710     32.8899   6.3234782985e+01   5.3319672410e+01    0.3657247    0.2419403 -44.75 0.0009894585    1.743    0.426
       230  -7.4932    214.5434     28.4396   4.3608172638e+01   2.8046263466e+01    0.1369961    0.1194737 -72.17 0.0001516673    1.022    0.022
       231  -7.4717    147.5326     28.5211   5.3303500918e+01   4.4915162500e+01    0.1413931     0.133859  71.53 4.702672e-05    1.044    0.042
       232  -9.1468     91.4145     26.2373   6.5901270473e+01   5.8247204953e+01    0.3891346    0.2135032 -42.54  0.001306398    2.156    0.536
       233  -8.3300     92.4239     20.8161   6.3315265626e+01   5.8708195508e+01    0.2823927    0.1679795  27.99 0.0006549758    1.771    0.435
       234  -9.4831    154.9617     27.0951   5.1490518494e+01   4.3206136224e+01    0.4475977    0.1809138  67.65  0.001657717    2.548    0.608
       235  -8.9348    143.8911     25.7916   5.3064894934e+01   4.6152730742e+01    0.2960101    0.2202119   6.33  0.001203078    1.615    0.381
       236  -8.3371    128.3900     25.8293   5.6221078929e+01   4.9968364766e+01    0.2425049    0.2073623 -75.58 0.0005805087    1.391    0.281
       237  -7.0476    221.3299    194.7034   8.2088776094e+01  -4.6866103669e-01    0.1172539    0.1076473  77.79 0.0005556413    1.637    0.389
       238  -8.4714    111.5516     21.0347   5.8284533573e+01   5.4489452013e+01    0.3534616    0.1345165 -25.73  0.001377469    2.755    0.637
       239 -10.3124    179.3499    189.9829   8.9413506923e+01   7.8238906984e+00    0.2446156    0.2396268 -16.03 0.0003841486    1.131    0.116
       240  -8.7112    130.4796     21.0274   5.4033952420e+01   5.0007676551e+01    0.3013046    0.2080566   0.34   0.00150203    1.729    0.422
       241  -8.9146    132.6053     17.2877   5.2258152674e+01   4.9887846418e+01    0.2550494    0.2392906 -40.28 0.0006777112    1.171    0.146
       242  -7.2712    165.4928     20.4926   4.7685415714e+01   4.1275864836e+01    0.1396956    0.1286547  76.17 0.0008106045    1.004    0.004
       243  -8.2595    238.0270    189.9729   7.8160134293e+01  -2.5397736636e+00    0.1957207    0.1624301   0.96 0.0003332984    1.009    0.009
       244  -8.6592    139.5754     17.9664   5.1174400535e+01   4.8095936618e+01    0.1961316    0.1360388 -25.09 0.0003646514    1.553    0.356
       245  -8.2387    131.7615    189.5587   9.9570335130e+01   1.6693361031e+01     0.201528    0.1829894 -39.27  0.000453988    1.243    0.196
       246  -9.1978     64.2948    184.2720   1.1400911987e+02   2.8556501647e+01    0.2188465    0.1858703  81.31  0.000456538    1.019    0.019
       247  -8.8386    200.3532    174.1006   8.2024780103e+01   6.6884079995e+00    0.2448041    0.1893885  32.60 0.0002008404    1.240    0.194
       248  -8.1978    186.2841    172.6104   8.4573463995e+01   9.6723529069e+00    0.2608835    0.1713054 -50.69 0.0007812761    1.743    0.426
       249  -7.5107    247.4732    170.5317   7.2629359131e+01  -1.2097716666e+00    0.1320768     0.112301  -9.50 -4.864914e-06    1.029    0.028
       250  -8.3416    229.9837    168.2241   7.5191668666e+01   2.1811769930e+00       0.2761    0.1645532 -55.22   0.00118838    2.679    0.627
       251  -7.3726    128.2193    166.3912   9.6297751492e+01   2.2275829863e+01    0.1432322    0.1106054 -27.78 0.0003356022    1.624    0.384
       252  -7.2742    189.3280     15.3459   4.2996979495e+01   3.5785653292e+01    0.1408379   0.09747999  38.05 0.0007050214    1.751    0.429
       253  -8.6600     64.9529    168.8835   1.1194958269e+02   3.1986267585e+01    0.1900117    0.1665117 -85.77 0.0003172974    1.063    0.059
       254  -8.0155    134.0000    149.0331   9.1413599661e+01   2.5027406671e+01     0.352696    0.1535876 -52.53  0.001276379    2.391    0.582
       255  -8.0829    133.5075    144.4668   9.0545810745e+01   2.6153053186e+01    0.3193482    0.1500918 -50.55  0.001201369    2.146    0.534
       256  -7.1787    158.2451    146.2724   8.5030825091e+01   2.0649015699e+01     0.143257    0.1187614  -4.88 0.0002021463    1.441    0.306
       257  -9.3380     66.9189    144.4218   1.0786030136e+02   3.7551646070e+01    0.4977463    0.2962629  62.87  0.002296336    1.986    0.497
       258  -8.7378    112.4931    134.0772   9.3634850656e+01   3.2646177826e+01    0.3708742    0.2608601  80.62  0.001257613    1.973    0.493
       259  -9.0734    146.8268    122.4001   8.2029416646e+01   2.8266118464e+01      0.28647     0.266716 -56.06 0.0002638825    1.078    0.073
       260  -9.5807    110.4415     90.2041   8.2912392812e+01   4.3072365745e+01    0.8879102    0.4106524  29.25  0.002828205    3.489    0.713
       261 -10.0812    134.1895    131.5251   8.7419033640e+01   2.8938110007e+01    0.6233627    0.5173082  52.32   0.00227111    1.231    0.188
       262  -9.9134    140.5064    118.2986   8.2548922495e+01   3.0547521750e+01    0.5156673    0.3697792 -66.00  0.001311548    1.692    0.409
       263 -10.0998    117.0240    125.2450   9.0392578520e+01   3.3843710461e+01    0.7964384    0.4917944 -70.33  0.002273664    2.218    0.549
       264 -10.4998    109.0813    113.2716   8.9628023861e+01   3.8165145026e+01     1.168198    0.5319679 -52.44  0.002143115    2.175    0.540
       265 -10.7429    109.0435     99.9375   8.6102209152e+01   4.1213609729e+01     1.216063    0.6428167  57.64  0.004411765    2.645    0.622
       266 -11.3204    133.6915    109.5323   8.1982387127e+01   3.3958910596e+01      1.80804    0.5729975 -47.51  0.005410428    3.195    0.687
       267  -9.6696    139.4726    104.6829   7.9176857005e+01   3.3734360658e+01    0.5178106     0.329519 -58.29 0.0007928658    1.846    0.458
       268 -10.0468    138.7957     91.5135   7.5595601820e+01   3.6644686175e+01     1.166452    0.4229159 -42.50  0.003593371    2.699    0.629
       269  -9.7639    140.3607     80.2078   7.1802811226e+01   3.8524012187e+01     1.235021    0.2992133 -40.03  0.003339918    3.988    0.749
       270 -11.1351    120.9174    110.9530   8.5755402851e+01   3.6344336591e+01     1.229704    0.6216592 -52.13  0.002471179    2.026    0.506
       271 -10.2840    127.7460    102.3860   8.1592411817e+01   3.6809020261e+01    0.7068256    0.5353599 -39.40  0.001725935    1.304    0.233
