#   1 NUMBER                 Running object number                                     
#   2 MAG_AUTO               Kron-like elliptical aperture magnitude                    [mag]
#   3 X_IMAGE                Object position along x                                    [pixel]
#   4 Y_IMAGE                Object position along y                                    [pixel]
#   5 X_WORLD                Barycenter position along world x axis                     [deg]
#   6 Y_WORLD                Barycenter position along world y axis                     [deg]
#   7 A_WORLD                Profile RMS along major axis (world units)                 [deg]
#   8 B_WORLD                Profile RMS along minor axis (world units)                 [deg]
#   9 THETA_WORLD            Position angle (CCW/world-x)                               [deg]
#  10 FWHM_WORLD             FWHM assuming a gaussian core                              [deg]
#  11 ELONGATION             A_IMAGE/B_IMAGE                                           
#  12 ELLIPTICITY            1 - B_IMAGE/A_IMAGE                                       
         1 -13.3434    182.7160     32.2145   6.7419920481e+01   3.5683449087e+01     1.194303    0.9598706  24.27  0.005039353    1.678    0.404
         2 -12.4176    187.1453     25.3415   6.5086243886e+01   3.5454816731e+01    0.6542313    0.5977937  79.88   0.00201488    1.111    0.100
         3 -10.8376    208.1818     12.5262   5.9623383850e+01   3.1979445717e+01    0.8321387    0.1484737 -29.85  0.002382318    7.201    0.861
         4 -11.3115    205.4880      2.2485   5.7639709164e+01   3.3678902446e+01    0.6765547    0.2848084  81.50  0.003119614    2.277    0.561
         5  -9.3899     60.9696      1.8388   8.3982577468e+01   6.4896671373e+01    0.2034316   0.09749664  28.13  0.001087447    2.003    0.501
         6 -10.5631    116.0671    211.7863   1.2393058535e+02   1.4113051587e+01    0.3852076    0.2672062  89.99 0.0007921083    1.735    0.424
         7 -19.4279     30.1968    138.8899   1.3374504604e+02   4.3540489939e+01     20.03288     2.781623 -66.76   0.04923452    6.840    0.854
         8  -9.0152     90.5149    184.0199   1.2549978817e+02   2.4757162860e+01    0.3253298    0.1543584  57.13  0.001252873    2.542    0.607
         9  -8.8236     99.2850    180.7207   1.2287464577e+02   2.4082411558e+01    0.1852677     0.169728 -34.85 0.0008085495    1.312    0.238
        10  -9.1316     94.7852    179.2141   1.2370648044e+02   2.5198463870e+01    0.2226127    0.1800766  74.68 0.0006028549    1.227    0.185
        11 -10.6944     86.1419    177.5082   1.2551522126e+02   2.7013169783e+01    0.3910185     0.259715 -45.66  0.001203243    1.706    0.414
        12 -11.1013     89.1440    172.6950   1.2399580397e+02   2.7690341633e+01    0.5256577    0.2649813 -48.04  0.002189609    2.128    0.530
        13  -9.4848    198.4816    176.5158   9.9404247675e+01   5.7265709167e+00    0.3140997     0.276862 -10.98   0.00153428    1.176    0.150
        14  -9.9292    197.0148    172.7557   9.8918083483e+01   6.7686515147e+00    0.3979933     0.320338 -29.59  0.001344788    1.265    0.209
        15  -9.3186     93.0244    206.6349   1.2825087783e+02   1.9127813549e+01    0.3077402    0.2735407   2.39  0.001728942    1.585    0.369
        16  -9.7122    102.0142    170.7153   1.2047748961e+02   2.6004275386e+01    0.2136597    0.1902808  59.93 0.0008225864    1.105    0.095
        17 -10.1935     95.2947    163.4342   1.2083976249e+02   2.8916710035e+01    0.3114196    0.2453914 -49.62 0.0005612915    1.302    0.232
        18 -11.8463     84.1238    158.6030   1.2281757160e+02   3.1919116216e+01    0.5027181    0.3966825 -38.15  0.001099893    1.470    0.320
        19  -8.3316     83.4755    206.0717   1.3026918519e+02   2.0764885281e+01    0.2022563    0.1255465 -66.13  0.001025206    1.572    0.364
        20 -10.6132    100.0001    156.0122   1.1823484028e+02   2.9912501533e+01    0.6480344    0.3320792 -40.54  0.002232905    2.410    0.585
        21 -10.9825    107.7137    203.1135   1.2447752513e+02   1.7464984191e+01     0.437712    0.2745355  29.01  0.002024835    1.961    0.490
        22  -9.8025    134.0000    144.4859   1.0708243898e+02   2.6166582961e+01    0.4084025    0.1708155 -52.65  0.001397382    2.459    0.593
        23  -9.1805    144.9928    145.4868   1.0459284065e+02   2.3631620740e+01    0.2396652    0.1549709  45.12 0.0004369405    1.557    0.358
        24 -10.1007    110.3629    140.5293   1.1229890252e+02   3.1775456049e+01    0.4647653    0.2532806 -37.63  0.001790367    2.231    0.552
        25 -10.6715     99.0737    140.8826   1.1539299420e+02   3.3742639619e+01    0.2818209    0.2741991 -21.43 0.0004116677    1.131    0.116
        26 -10.6876      2.7667    137.6693   1.4066224189e+02   4.6039487609e+01    0.2657362     0.209548   0.96   0.00177202    1.761    0.432
        27  -9.5877      9.2252    137.0372   1.3895597005e+02   4.5731880374e+01    0.1786983    0.1724631  37.15 0.0004450069    1.326    0.246
        28 -10.1237    105.2930    128.9192   1.1103317643e+02   3.5478725627e+01    0.6293406    0.3329487 -64.40  0.002239245    2.387    0.581
        29 -10.0350    116.9980    130.5695   1.0825657438e+02   3.2858530928e+01    0.3836337    0.2983271 -12.37  0.001518364    1.733    0.423
        30  -9.6249    126.4291    127.9282   1.0513636280e+02   3.1573357091e+01    0.3152329    0.2213793  61.65  0.001383224    1.659    0.397
        31  -8.3565    127.5167    122.5348   1.0352640220e+02   3.2580127086e+01    0.1548764    0.1506084 -73.99 7.540704e-05    1.016    0.016
        32 -10.5867    108.3432    209.6361   1.2530715812e+02   1.5913800903e+01    0.3675059    0.3478765 -89.07    0.0022376    1.127    0.113
        33  -8.8221    168.9797    113.7294   9.1259774487e+01   2.5261062107e+01    0.2207244     0.203399  66.02 0.0004525848    1.091    0.083
        34  -9.0556    111.7487    119.7654   1.0706068741e+02   3.6385843402e+01    0.2044482    0.1780556  86.29 0.0004627423    1.299    0.230
        35 -10.7487    193.4559    193.8537   1.0395153442e+02   3.3061030152e+00    0.7719023    0.4632885 -60.35  0.003279961    2.356    0.576
        36  -8.6797     94.3781    199.2814   1.2690913955e+02   2.0571345573e+01    0.1906882    0.1255377 -76.78 0.0004119129    1.593    0.372
        37  -8.2790    150.5376    101.5092   9.2296155151e+01   3.2050502723e+01    0.1554036     0.149046 -84.07 0.0001097103    1.046    0.044
        38  -9.2170    208.4887    196.9788   1.0151159700e+02  -7.6034521140e-02    0.2116661    0.1338391 -39.98 0.0004939322    1.582    0.368
        39  -9.5322    114.9881    194.4845   1.2146395069e+02   1.8135396838e+01    0.2822924    0.1932815 -33.63  0.001293845    2.027    0.507
        40  -9.6365    127.1850    208.6649   1.2100533365e+02   1.2809989936e+01    0.3070622    0.1542355 -35.50  0.001096923    3.482    0.713
        41 -10.8446    163.7397     56.0421   7.6931287625e+01   3.7010310247e+01    0.5588585    0.1064604 -36.78  0.001541173    4.960    0.798
        42 -11.9443    169.4640     46.0854   7.3164036645e+01   3.7064708538e+01    0.4785058    0.4406525   5.29  0.001631557    1.312    0.238
        43  -9.5670    102.4198    195.0292   1.2444027555e+02   2.0203850170e+01    0.3066476    0.2283298  76.95  0.001339852    1.414    0.293
        44  -9.6975    170.7033    239.1402   1.1663669841e+02  -8.5679531964e-01    0.2444129     0.161497  46.87  0.001316701    1.407    0.290
        45  -9.9008    208.3993    182.4201   9.8616349558e+01   2.6572519158e+00    0.5023364    0.2399794 -33.52   0.00199248    2.322    0.569
        46  -9.3392    164.0000    215.8673   1.1421735988e+02   4.5777438271e+00    0.3682009   0.08084148 -48.52  0.001054498    4.963    0.799
        47  -9.0738    211.2395    178.9670   9.7343124036e+01   2.7749882562e+00    0.2690895    0.1914003 -42.32  0.001352513    1.381    0.276
        48 -10.4950    189.3371     15.0658   6.2309292051e+01   3.6094779765e+01    0.2282579    0.1899923 -81.13 0.0009533221    1.097    0.088
