#   1 NUMBER                 Running object number                                     
#   2 MAG_AUTO               Kron-like elliptical aperture magnitude                    [mag]
#   3 X_IMAGE                Object position along x                                    [pixel]
#   4 Y_IMAGE                Object position along y                                    [pixel]
#   5 X_WORLD                Barycenter position along world x axis                     [deg]
#   6 Y_WORLD                Barycenter position along world y axis                     [deg]
#   7 A_WORLD                Profile RMS along major axis (world units)                 [deg]
#   8 B_WORLD                Profile RMS along minor axis (world units)                 [deg]
#   9 THETA_WORLD            Position angle (CCW/world-x)                               [deg]
#  10 FWHM_WORLD             FWHM assuming a gaussian core                              [deg]
#  11 ELONGATION             A_IMAGE/B_IMAGE                                           
#  12 ELLIPTICITY            1 - B_IMAGE/A_IMAGE                                       
         1 -14.1683    106.2988    105.3370   7.1346114525e+01   4.0374013581e+01     1.942382     1.154993 -35.46  0.007936084    1.979    0.495
         2 -13.3710     64.9946     52.9160   6.8994279572e+01   5.9358100529e+01     1.381003     0.714577 -33.20  0.005917734    2.168    0.539
         3 -14.3085    166.6659     29.2185   3.5114657464e+01   3.9820349287e+01     1.168468    0.8433496  82.33  0.004465811    1.339    0.253
         4 -12.6338    121.4068     25.5754   4.1553913698e+01   5.1450938949e+01    0.7340408    0.5959044  49.07  0.003689598    1.194    0.162
         5 -14.4010    146.8207     29.2019   3.8100345260e+01   4.4732699317e+01     1.373866     0.812295  68.89  0.006577337    1.615    0.381
         6 -13.1926    131.9600     32.6255   4.1913004936e+01   4.7977898522e+01    0.6328423    0.5080948  80.85  0.001876232    1.255    0.203
         7 -13.5368      3.0727     10.3221   8.3153964259e+01   7.4943081574e+01    0.7453349    0.4700297 -49.73  0.004759464    1.515    0.340
         8 -13.1088      8.0745      2.7390   7.5461994256e+01   7.5734555252e+01    0.6020949    0.4007976  42.35  0.002674153    2.119    0.528
         9 -15.9222     13.1047     20.9502   8.1477663470e+01   7.2216873403e+01     1.900281     1.021088 -30.06  0.008692933    1.780    0.438
        10 -14.4680     24.8711     13.4891   7.0639584706e+01   7.2179665737e+01     1.011601    0.5341864  43.48  0.005293412    2.364    0.577
        11 -13.5136    217.1676     28.6834   2.9349037543e+01   2.8086354481e+01     1.000047    0.3826912 -60.60  0.003902926    3.143    0.682
        12 -14.2995    217.0844     11.3764   2.5305439452e+01   3.0102547618e+01    0.9489091    0.7084761 -55.62  0.002776842    1.121    0.108
        13 -13.6231    187.5414     12.3026   2.8003453618e+01   3.6717865153e+01      1.09379    0.5223127 -40.53  0.005353936    1.898    0.473
        14 -12.2767    224.7930      4.5825   2.3237515178e+01   2.9168450927e+01    0.3537724    0.2568057  44.96  0.001267297    1.957    0.489
        15 -11.7601     46.9639     20.5161   6.2778494140e+01   6.7900224890e+01    0.3803932    0.2893566   7.62  0.002081065    1.310    0.237
        16 -13.5583    189.0824     26.1493   3.1504632056e+01   3.4785981399e+01     1.368005    0.4787631 -56.75  0.004703648    3.699    0.730
        17 -15.0990     98.9533     11.6340   4.1065948484e+01   5.8368223221e+01     1.646945     0.820187  63.77  0.006488122    1.890    0.471
        18 -12.6817     85.6753     14.3791   4.5653872874e+01   6.1102204801e+01    0.5247554    0.3622163 -44.96  0.002461714    1.682    0.405
        19 -12.3665     69.9396     16.1039   5.1366175922e+01   6.4249340421e+01    0.3775026      0.32343 -83.51  0.001915329    1.589    0.371
        20 -11.6742     59.1127     16.0725   5.5356009413e+01   6.6370126978e+01    0.3470334    0.2756256  40.96  0.002132832    1.205    0.170
        21 -11.6896     46.7510     13.0781   5.9059171103e+01   6.8973014091e+01    0.2732731    0.2629152  22.30  0.001348676    1.254    0.202
        22 -13.7489     41.7799      4.3311   5.6520817971e+01   7.0905389310e+01     0.668276    0.5100358  17.46  0.003662579    1.177    0.150
        23 -10.6065    123.3168     11.1319   3.5938753347e+01   5.2567164023e+01    0.1760582    0.1683543 -71.71 0.0006031874    1.099    0.090
        24 -11.4940    165.4650      7.5342   2.8926136782e+01   4.2513403559e+01    0.2405351     0.123727 -64.26 7.748936e-05    2.125    0.529
        25 -12.2142    153.0377      8.8307   3.0763827811e+01   4.5441184862e+01    0.2966851    0.2537905  68.33 0.0009718945    1.124    0.110
        26 -11.0001     74.8138      8.9912   4.6366837588e+01   6.4036864333e+01    0.3700004     0.169479 -24.21  0.001705004    2.354    0.575
        27 -10.6604    145.0081      8.2888   3.1632088001e+01   4.7480808719e+01    0.1871711    0.1503196  78.98 0.0003109361    1.116    0.104
        28 -10.4437    133.2655      8.6157   3.3422285799e+01   5.0358170218e+01    0.1870548    0.1085358  60.07 0.0004131129    1.536    0.349
        29 -10.6426     59.6898      7.5760   5.0796636493e+01   6.7270530316e+01    0.2379077    0.1061254  48.16  0.001123472    2.005    0.501
        30 -11.8315    119.9901      3.7571   3.3803499863e+01   5.4064584815e+01    0.4902187    0.2056364  78.40  0.001947182    2.699    0.629
        31 -11.1622    117.0572      1.4972   3.3449423880e+01   5.4971522459e+01    0.2977954    0.1854782  72.06  0.001197254    1.462    0.316
        32 -10.3803     67.1715      4.3679   4.6518872824e+01   6.6104371705e+01    0.1694163    0.1141207  64.70 0.0004364591    1.639    0.390
        33 -11.2090    232.5658      1.7778   2.2157175259e+01   2.7834793844e+01    0.2164553    0.1444905  89.27  0.001321314    1.387    0.279
        34 -11.2734    169.4626      1.8002   2.6870709954e+01   4.2086566657e+01    0.3744113    0.1361097  67.80  0.001602634    2.365    0.577
        35 -11.4468     61.1210      1.6005   4.7128844114e+01   6.7602565034e+01    0.3775174    0.1446353  57.63  0.001524966    2.583    0.613
        36 -10.8954    182.5298      1.4831   2.5593909547e+01   3.8989028092e+01    0.2524757    0.1121293  77.03 0.0008033316    2.052    0.513
        37 -11.1622     81.4418      1.4670   4.0905439912e+01   6.3313118011e+01    0.4621221   0.09932695  60.02  0.001562928    3.736    0.732
        38 -13.1887     55.3864     27.2764   6.2287385232e+01   6.5463655950e+01    0.6518423    0.3982252  42.86   0.00344063    1.631    0.387
        39 -11.7955     40.8120    137.3729   9.8186806921e+01   4.2593380749e+01    0.3485466    0.2302188  77.42  0.001741491    1.613    0.380
        40 -12.2396    109.5122    249.2271   9.4672884742e+01   8.9156874686e+00    0.3189012    0.1985158  47.77  0.001934768    1.392    0.282
        41 -13.3401    101.4763    238.7257   9.5222807858e+01   1.1824394405e+01    0.5748904     0.364575  44.80  0.003426826    1.307    0.235
        42 -11.6586     51.3163    248.4937   1.0615615390e+02   1.6484463302e+01    0.3375039    0.2438233 -79.69  0.002349311    1.509    0.338
        43 -12.5483      2.8860    248.8450   1.1528549115e+02   2.1523262559e+01    0.4306538    0.2469959  75.10  0.002585226    1.428    0.300
        44 -13.2911      9.4612    245.7359   1.1397694903e+02   2.1470388183e+01    0.6980132    0.3277049  59.77  0.003425619    1.619    0.382
        45 -11.5351    246.9719    135.9844   4.9662344486e+01   6.5046469486e+00    0.2834239    0.1728538  77.00  0.001157644    4.399    0.773
        46 -11.9507     45.0936    133.9048   9.6372222715e+01   4.2989830289e+01    0.4457572     0.308866 -74.13  0.002265867    1.332    0.249
        47 -11.1418    135.9825    133.0000   7.0147058896e+01   2.8112145517e+01    0.2552769   0.08626943  42.85 0.0008080521    2.981    0.665
        48 -13.2812    108.5721    124.4847   7.5410190922e+01   3.5466406509e+01    0.8189529    0.6005802  33.15  0.003867429    1.468    0.319
        49 -12.7444    109.9328    117.2316   7.3307588232e+01   3.6905417326e+01     1.317885    0.3985488  35.61  0.003568305    4.417    0.774
        50 -12.8104     84.1155    115.1429   8.0492291350e+01   4.2145785010e+01    0.9322082     0.546204  21.07  0.003711058    2.399    0.583
        51 -11.8805     78.2478    110.1952   8.1207302103e+01   4.4337667894e+01    0.4545769    0.3107724 -83.61  0.001487864    1.898    0.473
        52 -13.2530     95.6534    110.4082   7.5805217381e+01   4.1236028842e+01    0.8825308    0.8200272 -83.60  0.003896955    1.089    0.082
        53 -11.9906     28.3702    245.5972   1.1041977770e+02   1.9580775244e+01    0.4212462    0.2451481  49.95  0.002699435    1.291    0.225
        54 -11.8778      4.3501    119.8363   1.0750482635e+02   5.0210095246e+01    0.5122418    0.1977498  18.65  0.002118445    3.047    0.672
        55 -11.5798     34.9670     86.6746   9.1291413408e+01   5.5991847748e+01    0.3652441    0.2636379 -19.33  0.001052193    1.649    0.393
        56 -12.1545     36.6615     93.1079   9.2026589394e+01   5.4238814998e+01    0.4911636    0.3148903  11.04  0.001542174    1.946    0.486
        57 -14.5394     16.0570    108.6739   1.0226972852e+02   5.2201309343e+01     1.504986    0.9417366  73.39  0.006775811    1.764    0.433
        58 -14.2276     22.5928     95.0227   9.7760797295e+01   5.5098514941e+01     1.169502     1.005101  42.66  0.006799402    1.298    0.230
        59 -13.1465      2.3517     97.4842   1.0570116027e+02   5.5879938726e+01     0.759747    0.3101757 -80.47  0.003191425    2.263    0.558
        60 -11.6885    121.4671    112.4033   6.8928711519e+01   3.5689121807e+01     0.382653     0.284577  84.13  0.001216718    1.810    0.448
        61 -11.8608     62.4976    109.7195   8.6309565788e+01   4.6878819976e+01    0.5905813    0.4281456  80.98  0.002844262    1.689    0.408
        62 -13.0233     29.4937     89.2821   9.4004743628e+01   5.5900339843e+01    0.9333912    0.4770312  66.39  0.003546632    3.439    0.709
        63 -11.2047     42.0630    107.0454   9.2834621557e+01   5.0169041255e+01    0.3262343    0.1966921  24.24  0.001564777    1.885    0.470
        64 -13.2155    120.2263    102.2045   6.6593772993e+01   3.8215460356e+01     0.700708    0.3584864  38.28  0.002685762    2.165    0.538
        65 -12.3344    136.1167    103.0911   6.2710431827e+01   3.4592807663e+01    0.6363127    0.3311718  51.26  0.001389241    2.000    0.500
        66 -11.7232     47.1280     99.8715   8.9568428225e+01   5.1370441664e+01    0.5472798    0.3490856  75.40   0.00244602    2.184    0.542
        67 -11.4928     52.2882     97.8911   8.7256485519e+01   5.1209468757e+01    0.4111497    0.2583655 -23.83  0.001638558    2.239    0.553
        68 -11.9514     49.3762     93.8261   8.7391816336e+01   5.2581491009e+01    0.4416586    0.3314787  82.74  0.001836105    1.623    0.384
        69 -12.5551     28.5461    122.0675   9.9914657447e+01   4.7750437758e+01    0.4348641    0.3351762 -70.03  0.002494196    1.142    0.124
        70 -11.8322    163.6169     98.1601   5.5152702375e+01   2.9440591919e+01    0.3471377    0.2794605 -62.69 0.0006260799    1.309    0.236
        71 -11.9206     60.7947     97.7875   8.4175263512e+01   5.0068614294e+01    0.4286859     0.304197  64.30  0.002059073    1.746    0.427
        72 -12.4862    135.8271     95.0350   6.0589340633e+01   3.6335500259e+01     0.438218    0.3502593  39.29  0.001697329    1.330    0.248
        73 -10.7580     81.4332     93.8139   7.6021307073e+01   4.7717258344e+01    0.2820113    0.1965607 -10.44  0.001196241    2.209    0.547
        74 -12.0720     42.5252     90.9512   8.9314776555e+01   5.4116410082e+01    0.3343008    0.2513476 -72.23 0.0004389037    1.323    0.244
        75 -10.8156    125.0430     92.0009   6.2478684284e+01   3.9361756093e+01    0.2475926    0.1898736 -86.47  0.001124633    1.685    0.406
        76 -10.7776    135.0730    125.7453   6.8684237098e+01   2.9902424231e+01    0.2143518     0.201689  47.23 0.0007566063    1.076    0.071
        77 -12.6041    188.0387     84.5347   4.7037793127e+01   2.6411823765e+01    0.5997865    0.2883832  43.39  0.002137299    2.566    0.610
        78 -12.2182    237.4398     80.7054   3.9163811826e+01   1.6698123151e+01     0.316725    0.2142175 -83.09  0.001708509    1.903    0.474
        79 -11.3721    158.1749     63.2863   4.6543192740e+01   3.6989835141e+01    0.3785123    0.2055839 -53.58  0.001531234    2.040    0.510
        80 -13.2333    164.2853     71.7055   4.7807826124e+01   3.4112699734e+01     1.090815    0.5397233  53.03  0.004485946    2.043    0.510
        81 -13.7815    169.5397     76.9921   4.8297147835e+01   3.1961272452e+01     1.443059    0.4589998  53.50  0.004820713    3.129    0.680
        82 -11.7538    158.1794     83.6231   5.2350828573e+01   3.3431369107e+01    0.3283135    0.2219497  53.58 0.0004820732    1.509    0.337
        83 -12.8592    161.9586     79.9885   5.0576659662e+01   3.3209286706e+01     0.700318    0.4135085  38.52  0.002276001    2.109    0.526
        84 -11.9009     47.4271     81.7086   8.5156053631e+01   5.5742873374e+01    0.3824651    0.3208403 -80.51  0.001731297    1.309    0.236
        85 -11.6807     60.4760    245.8360   1.0417211281e+02   1.5875857430e+01    0.2148843    0.1798165  34.93  0.001537068    1.283    0.220
        86 -13.1959     91.5745     58.1891   6.1453924306e+01   5.3301760540e+01    0.5910119    0.5056355 -28.16  0.002529133    1.193    0.162
        87 -13.2648     53.8932     68.2420   7.8709152767e+01   5.7943658486e+01     1.741573    0.6518657  33.90  0.006673305    2.811    0.644
        88 -12.9685     54.1839     81.8781   8.2562401211e+01   5.4806472043e+01    0.6195736    0.4761049 -75.35   0.00324691    1.470    0.320
        89 -14.0707     61.2290     75.6635   7.8077197421e+01   5.5205952429e+01    0.7129118    0.5254925 -34.00  0.001255955    1.396    0.284
        90 -13.2442     87.2222     65.4875   6.5416369566e+01   5.2784448616e+01    0.9369004    0.6247302  12.53  0.003891384    2.301    0.565
        91 -13.1314     71.3153     75.0696   7.4118233284e+01   5.3710213952e+01    0.6383182    0.4574331  -5.89  0.002188354    1.940    0.484
        92 -12.4183     77.1606     73.3174   7.1463785464e+01   5.3069272508e+01    0.6396547    0.3832114 -25.56  0.002133243    2.337    0.572
        93 -12.9041    214.1012     79.1380   4.1758115763e+01   2.1630318087e+01    0.8637251    0.5027943  87.48  0.003733873    2.663    0.625
        94 -12.4124    135.9537     79.8733   5.6210651379e+01   3.9321325882e+01    0.6671108    0.3394742  49.80  0.002168387    1.972    0.493
        95 -11.8891    113.8148     80.3705   6.2094153194e+01   4.4227961251e+01    0.3681225    0.3558179 -47.31 0.0006330065    1.030    0.029
        96 -11.6186     42.0935     77.1165   8.6094817320e+01   5.7477910152e+01    0.5285335    0.2186811 -63.50  0.002053248    2.550    0.608
        97 -14.8023      6.4232     71.2279   1.0003024255e+02   6.2009028601e+01     1.029913    0.7029552 -53.48  0.004124977    1.225    0.184
        98 -14.0119      4.6791     63.5890   9.9320664533e+01   6.3889906742e+01    0.6939207    0.5894267  -3.38  0.004128021    1.320    0.242
        99 -11.3191    181.0153    120.9950   5.7333350596e+01   2.1272896416e+01    0.1751385    0.1743938 -10.70 0.0008163893    1.055    0.052
       100 -11.3699     26.7925     75.3436   9.2053903314e+01   5.9512568707e+01    0.4566536    0.2620148  83.80  0.001919271    2.909    0.656
       101 -12.1355    218.4781     74.4983   4.0078600107e+01   2.1437031305e+01    0.2489571    0.1976058  88.97  0.001262948    1.379    0.275
       102 -13.2146    199.0483     70.1552   4.1663225923e+01   2.6313130936e+01    0.7224745    0.4489931  45.95   0.00273359    1.909    0.476
       103 -11.6357    214.6546     71.8629   3.9947385393e+01   2.2646455243e+01    0.2247951    0.1893084  53.39  0.001326724    1.364    0.267
       104 -10.1757     95.9708     69.9497   6.4077238534e+01   5.0128294690e+01     0.171268    0.1685785  25.49 0.0003073449    1.020    0.020
       105 -12.3866    134.8199     66.2158   5.2325072909e+01   4.2103589676e+01     0.566304    0.4092187  44.16  0.001784891    1.445    0.308
       106 -11.8458     31.4515     63.1082   8.6818388261e+01   6.1875726412e+01    0.5850778    0.3148405 -70.07  0.002645418    2.251    0.556
       107 -11.6081     24.5638     59.3542   8.8929558799e+01   6.3393500078e+01    0.4419267    0.3021643 -55.25  0.001593981    1.294    0.227
       108 -10.9288     99.7491     65.3744   6.1386231480e+01   5.0230844805e+01     0.277697    0.1859392  64.29  0.001239038    1.835    0.455
       109 -11.8694    200.0477     61.7950   3.9409632495e+01   2.7379241272e+01     0.326726    0.2785656 -45.96  0.001043518    1.099    0.090
       110 -13.2225    177.8363     57.8265   4.1599449309e+01   3.3135356703e+01    0.8243507    0.5304508 -48.46  0.003019335    1.480    0.324
       111 -10.5173    130.3111     62.3122   5.2145519233e+01   4.3856943595e+01    0.1489094    0.1173243  18.08 0.0006318752    1.629    0.386
       112 -12.4054     79.2206     60.8766   6.6569797796e+01   5.5242323231e+01    0.4967977     0.457612  -1.25  0.001988183    1.101    0.092
       113 -13.0774     81.7986     54.5833   6.3407333966e+01   5.5943377615e+01    0.7205054    0.5088117  34.76  0.003024911    1.459    0.315
       114 -10.9294     38.8315     60.2949   8.2646252889e+01   6.1669248857e+01     0.289297     0.221759  63.16  0.001548977    1.770    0.435
       115 -13.8716    100.7455     49.4770   5.5499819866e+01   5.2865407337e+01     1.086833    0.8387978  75.81  0.005217095    1.580    0.367
       116 -11.2790    111.5984     59.2550   5.5890516287e+01   4.8747518636e+01     0.279258    0.2429391  21.00  0.000760154    1.275    0.216
       117 -14.4107    120.5208     54.9196   5.2089717091e+01   4.7428999910e+01      0.83133    0.6158519  42.11  0.002072353    1.394    0.283
       118 -11.2328     17.8400     55.7139   9.1137039681e+01   6.4786054448e+01    0.3181551    0.1589765 -61.33  0.001568399    1.802    0.445
       119 -11.4629    248.6051     55.8188   3.2574725351e+01   1.8118905505e+01    0.3854691    0.1063385 -50.92  0.001363491    3.794    0.736
       120 -11.6501    249.1523     49.0823   3.1090484347e+01   1.8915727288e+01    0.2892269    0.2121161   9.95  0.001607135    2.434    0.589
       121 -11.6259     36.2330     53.3615   8.1583360809e+01   6.3462248906e+01    0.4138421    0.2549997  -9.44  0.001975419    2.196    0.545
       122 -11.8330    135.7794     50.1497   4.6983812290e+01   4.4537947617e+01    0.4944628     0.319954  38.60  0.001815359    1.796    0.443
       123 -10.6722     23.2743     50.1711   8.6807277354e+01   6.5516054799e+01    0.1939857    0.1463341 -32.80  0.000599588    1.206    0.171
       124 -11.7703    151.9889     47.0000   4.2799644018e+01   4.1039151377e+01    0.3274857    0.1959668  57.79 0.0009140333    1.617    0.381
       125 -12.8540    158.7594     43.7510   4.0634286775e+01   3.9841495066e+01    0.7701612    0.3919197  47.22  0.003247358    2.185    0.542
       126 -12.6282      3.8433     43.7495   9.5043448438e+01   6.8363550047e+01    0.4871309    0.3630659 -22.83  0.002474307    1.298    0.230
       127 -12.1760     11.7352     43.6908   9.0761924917e+01   6.7859532704e+01    0.4223382    0.2456157 -23.20  0.001856889    1.829    0.453
       128 -13.8145    217.2673     42.4113   3.2595603042e+01   2.6312345621e+01     1.183384    0.4456701  67.45  0.004627413    2.754    0.637
       129 -13.1499    204.7420     40.0842   3.3362027743e+01   2.9397456816e+01     1.111952    0.4776609 -89.48  0.003810713    4.119    0.757
       130 -13.2200    171.1924    243.1552   8.1861002268e+01   1.3300796863e+00    0.3909327    0.3062415  48.85  0.002615768    1.520    0.342
       131 -11.5572    147.4058    239.2153   8.5955523289e+01   5.2532178300e+00     0.145645    0.1191972 -69.92 0.0007807784    1.665    0.399
       132 -10.6324     27.6485    235.3506   1.1002794027e+02   2.1599749641e+01    0.1912583   0.09457094  59.48  0.000992217    1.663    0.399
       133 -13.5541     92.4483    230.5167   9.6260514187e+01   1.4572256441e+01    0.5303211    0.4849871  36.05  0.003676744    1.165    0.142
       134 -13.0413    113.6681     38.0490   4.7848881426e+01   5.1665658353e+01    0.4990778    0.3469494  69.92  0.001928562    1.545    0.353
       135 -12.3648     75.7282     37.2739   5.8772078088e+01   6.0119531103e+01    0.3787513     0.237032  42.98  0.001001266    1.550    0.355
       136 -11.8460     70.5061     36.4872   6.0340166495e+01   6.1261318729e+01     0.322978     0.283952  50.59  0.001185991    1.229    0.186
       137 -12.6082    242.2018     36.1319   2.8897746769e+01   2.1939778382e+01     0.502771    0.2763236  72.92  0.001995974    1.956    0.489
       138 -13.6886    121.9912     37.1325   4.5573581847e+01   4.9803706334e+01    0.8953061    0.5041852  40.09  0.002708805    2.013    0.503
       139 -10.9262     35.1373     34.8824   7.5169011308e+01   6.7248172201e+01    0.3479716    0.1884375 -40.11  0.001460578    1.703    0.413
       140 -11.6656     42.7299     29.2206   6.8930405903e+01   6.7191226949e+01    0.4128564    0.1803142  29.47  0.001483073    2.600    0.615
       141 -12.2725     45.8890     33.6308   6.9401621762e+01   6.5966849155e+01    0.4956217    0.4218818 -17.09   0.00279122    1.073    0.068
       142 -11.2406     39.6608     32.9918   7.2104842535e+01   6.6983111530e+01    0.3513329    0.2829656 -19.32  0.002174718    1.144    0.126
       143 -12.3352     14.1789    222.3118   1.1206356014e+02   2.5555636261e+01    0.3933978    0.2554437  88.30  0.001585899    1.379    0.275
       144 -13.3674     25.9901    226.7682   1.0989307793e+02   2.3465137210e+01    0.7522957    0.3754271 -57.34  0.004100511    2.508    0.601
       145 -13.4392     20.3230    224.1813   1.1090817746e+02   2.4568495220e+01    0.5482528     0.435811 -77.46   0.00267481    1.379    0.275
       146 -13.0302     64.5986    223.3702   1.0153499892e+02   1.9668966397e+01    0.7666451    0.5485533  37.51  0.004749721    1.290    0.225
       147 -13.4652     63.8143    214.5112   1.0091228517e+02   2.1581979426e+01    0.5623024    0.3625931  64.39   0.00319961    1.471    0.320
       148 -12.8583    223.8316     20.7785   2.6953648883e+01   2.7590197088e+01    0.3128504    0.2864707 -28.41  0.001469282    1.351    0.260
       149 -12.7069     59.4789    213.0033   1.0174081718e+02   2.2448044980e+01    0.3172512    0.2101221 -66.29  0.001101097    1.611    0.379
       150 -11.3823    194.9994     23.5049   3.0189417545e+01   3.3713449585e+01    0.3397458    0.2484865  85.82  0.001293451    1.287    0.223
       151 -12.6757     24.6513    217.2758   1.0963019128e+02   2.5541378207e+01    0.6590385    0.2394217  47.97  0.003248907    2.134    0.531
       152 -11.9614     63.5196     25.1405   5.7984339669e+01   6.4310519513e+01    0.4978579    0.3157662  13.26  0.002416866    2.077    0.519
       153 -10.6027     98.5669     27.3230   4.7591314166e+01   5.6646197739e+01    0.2476472     0.119049  56.37  0.001069982    1.947    0.486
       154 -11.3133     30.8287     25.6392   7.3341103979e+01   6.9442179323e+01    0.3607184    0.2023443  14.44  0.001762752    2.172    0.540
       155 -11.1650     36.1965     23.6351   6.9568467992e+01   6.9058145317e+01    0.2963053    0.2054016 -40.80  0.001748857    1.439    0.305
       156 -12.2546      3.7466    211.7872   1.1371931090e+02   2.8695386509e+01    0.4897048    0.2256315  85.03  0.002683551    1.934    0.483
       157 -11.3858     51.5045     20.5599   6.0757083448e+01   6.7131008268e+01    0.2702152    0.1848937  41.28  0.001045819    1.438    0.305
       158 -11.5010     72.4623    207.2405   9.8245750548e+01   2.1978134091e+01    0.3256249    0.2520717  80.53  0.001856255    1.275    0.216
       159 -10.2417    149.3104    207.6430   8.1121314450e+01   1.0335070189e+01    0.1300749    0.1005922  68.72 0.0007043011    1.734    0.423
       160 -11.6673     41.2338    206.5826   1.0529162544e+02   2.6011205667e+01     0.227682    0.1370106  82.26  0.001258453    1.623    0.384
       161 -11.6892     57.4178    203.7360   1.0135774033e+02   2.4691768382e+01    0.4491176    0.2096535  81.47  0.001840684    3.037    0.671
       162 -13.5598     15.1499    197.3483   1.1052774289e+02   3.0759567778e+01    0.9006079    0.4831755 -68.65  0.005047166    1.827    0.453
       163 -12.6189     22.1940    166.6762   1.0665572902e+02   3.7200608517e+01    0.3537968     0.245762  50.32  0.002051305    1.345    0.256
       164 -13.5397     29.8145    169.4623   1.0492096951e+02   3.5779405653e+01    0.8423127    0.5354865 -40.44  0.003462589    2.135    0.532
       165 -12.7647    139.6186     21.5943   3.6804836453e+01   4.7427408647e+01      0.78738    0.2469944  60.41  0.002214954    2.700    0.630
       166 -15.6946      8.8277    179.1864   1.1090199011e+02   3.5441753447e+01     2.380748     1.182559 -75.65   0.01265661    1.774    0.436
       167 -13.0234     22.1300    181.1375   1.0781887496e+02   3.3775600976e+01    0.5163165    0.3880579 -77.11   0.00214378    1.258    0.205
       168 -13.1841     40.3021    195.5774   1.0461698156e+02   2.8547418893e+01    0.4755252    0.2481242  76.65  0.002317485    2.039    0.510
       169 -12.6909     36.6613    195.1520   1.0543593615e+02   2.9050472155e+01    0.3386658    0.1924544 -82.50  0.001814087    1.684    0.406
       170 -10.4679     79.8464    192.6793   9.4859477716e+01   2.4128614037e+01    0.3634585   0.06477653  41.26  0.001091569    4.186    0.761
       171 -11.3032     49.0185    182.0580   1.0124836163e+02   3.0637509347e+01    0.3158635    0.1746709 -62.95  0.001580823    1.788    0.441
       172 -11.3885    198.4921    181.7937   6.6750170608e+01   6.9365962249e+00    0.2480779    0.1788245  34.08     0.001409    1.377    0.274
       173 -12.1044    109.4655     42.0399   5.0369957549e+01   5.2064775405e+01    0.5103253    0.2194679  55.32  0.001338665    2.232    0.552
       174 -11.5169    200.7616    191.6970   6.8133774751e+01   4.9457673257e+00    0.2518413    0.2110505   6.17  0.001036275    1.080    0.074
       175 -11.5407    123.9451    167.3600   8.0163226377e+01   2.2732125475e+01     0.511951    0.2868204 -80.12  0.001697242    3.918    0.745
       176 -12.0008     25.1259    159.3746   1.0522868080e+02   3.8698068453e+01    0.3264671    0.2516555   2.37  0.001367857    1.776    0.437
       177 -11.9211     76.9279    156.8505   9.0622824318e+01   3.2967760977e+01    0.5056788     0.278081  32.12  0.001638117    1.900    0.474
       178 -12.8693     73.2963    153.8017   9.1148600539e+01   3.4253508433e+01    0.7386536    0.5029709  31.79  0.003407784    1.551    0.355
       179 -10.1413     75.4978     31.5312   5.6424905182e+01   6.1046762940e+01    0.1373212    0.1215648  16.64 -2.280021e-05    1.085    0.078
       180 -10.9673    103.0536    150.3729   8.2362734163e+01   3.0310465205e+01    0.2917389    0.1986441 -39.88  0.001343556    1.677    0.404
       181 -11.7217     60.2182    147.5267   9.3899439935e+01   3.7647556299e+01    0.3893166    0.2919892  11.86  0.001988398    1.724    0.420
       182 -11.0721     37.8518    145.8557   1.0018401989e+02   4.0769344048e+01     0.196335    0.1447631  68.75 0.0005983745    1.322    0.243
       183 -12.1712      7.5728    146.3414   1.0891593128e+02   4.3405880060e+01    0.7620195    0.3254749 -60.55  0.003589662    2.129    0.530
