#   1 NUMBER                 Running object number                                     
#   2 MAG_AUTO               Kron-like elliptical aperture magnitude                    [mag]
#   3 X_IMAGE                Object position along x                                    [pixel]
#   4 Y_IMAGE                Object position along y                                    [pixel]
#   5 X_WORLD                Barycenter position along world x axis                     [deg]
#   6 Y_WORLD                Barycenter position along world y axis                     [deg]
#   7 A_WORLD                Profile RMS along major axis (world units)                 [deg]
#   8 B_WORLD                Profile RMS along minor axis (world units)                 [deg]
#   9 THETA_WORLD            Position angle (CCW/world-x)                               [deg]
#  10 FWHM_WORLD             FWHM assuming a gaussian core                              [deg]
#  11 ELONGATION             A_IMAGE/B_IMAGE                                           
#  12 ELLIPTICITY            1 - B_IMAGE/A_IMAGE                                       
         1 -14.9870     26.7005    186.7350   1.1032203910e+02   3.1798239474e+01      9.66057     3.472998  88.08   0.02768848    5.278    0.811
         2 -11.6818      2.0000     81.0119   1.0382160624e+02   6.0049924480e+01    0.8848345     0.108963 -64.51  0.002580718    5.211    0.808
         3 -13.3069    233.6221     34.9578   3.1098630962e+01   2.4760353708e+01     1.079382     0.754122  56.62  0.007051905    1.811    0.448
         4 -12.9307    214.3922     49.7477   3.5882505605e+01   2.6639508713e+01      1.11089    0.9357615 -78.49  0.007138745    1.055    0.052
         5 -10.4994      2.4937      5.9901   7.9122508480e+01   7.3956330945e+01    0.2493859    0.1251263 -38.97  0.001518143    1.948    0.487
         6  -9.1391    249.6773    248.3108   6.8943041204e+01  -1.1268270488e+01   0.09298962   0.08645074 -11.28 0.0007037976    1.652    0.395
         7 -10.4915     82.9954    216.1131   9.9407181775e+01   1.7670306604e+01    0.6983848      0.35756 -87.13  0.002543164    3.417    0.707
         8 -14.0070     83.4905    238.0179   1.0192167556e+02   1.2752839614e+01     3.698383    0.9281844  29.71   0.01154024    4.223    0.763
         9 -12.4530     67.5076    243.0425   1.0606324482e+02   1.3832678541e+01     1.309083     0.742532  68.61   0.00640329    2.098    0.523
        10 -13.5961    110.5426    230.4436   9.4697008953e+01   1.0460626834e+01     3.552186    0.4726497  33.28  0.008449017    6.521    0.847
        11 -11.1419     71.7939    230.0228   1.0374231731e+02   1.6077529485e+01    0.4141863     0.311817   4.14  0.002236598    1.765    0.433
        12  -9.5018     41.5054    215.3856   1.0940255911e+02   2.3225813150e+01    0.2634794    0.1884454  66.36 0.0005720367    1.313    0.238
        13 -13.6527     91.9213    227.1267   9.8654263432e+01   1.3910787815e+01     2.915486    0.6397256  42.23  0.008913101    4.006    0.750
        14 -13.9523     15.6873    196.4643   1.1396515086e+02   3.0448231744e+01     1.743035     1.079245  82.41  0.003953505    1.520    0.342
        15  -9.4215    192.9677    194.9428   7.0160260729e+01   4.6796526486e+00    0.3538715     0.184803 -62.88  0.001160346    4.559    0.781
        16 -11.5368     42.2259    176.9183   1.0506255839e+02   3.2643936523e+01    0.4057981    0.3019074 -27.99 0.0005603775    1.695    0.410
        17 -11.5697     49.9572    170.7854   1.0208091697e+02   3.3322901386e+01    0.3362962    0.2822436 -25.04 0.0004773595    1.406    0.289
        18 -14.1539      8.8056    204.1612   1.1618117214e+02   2.9220721499e+01     2.235413    0.7985302 -77.24  0.001445942    2.503    0.600
        19 -10.6655     62.9323    161.3307   9.6867319392e+01   3.4122160980e+01    0.2722007    0.2575821 -16.29 0.0003585844    1.156    0.135
        20 -11.6759     76.1816    140.0155   8.8871580237e+01   3.7728760965e+01    0.4066045    0.3116521 -64.60 0.0004482355    1.315    0.239
        21 -11.9566     72.3358    154.6878   9.2903252634e+01   3.4524194814e+01    0.7378035     0.589441  43.16  0.003737048    1.286    0.222
        22 -12.6250     68.3046    144.1075   9.2157304022e+01   3.7851418952e+01     1.012119    0.6616609  65.18  0.003676396    2.031    0.508
        23  -9.6406     79.8920    148.3976   8.9419605968e+01   3.5003441330e+01     0.492126    0.2858856 -88.60  0.001679461    3.174    0.685
        24  -8.7525    134.0000    146.5876   7.3681124438e+01   2.5716205655e+01     0.525841   0.08772869 -49.03  0.001152405    5.896    0.830
        25 -12.6996     55.1145    241.3863   1.0865839565e+02   1.5756064899e+01     1.095401    0.8850334 -42.61  0.006765162    1.578    0.366
        26 -10.1389     88.7630    142.3792   8.5488923553e+01   3.5100196677e+01    0.3359098    0.2966834 -30.80 0.0008445757    1.175    0.149
        27  -9.2936    240.3384    144.6736   5.1914092427e+01   6.4497728163e+00    0.1273881   0.09345718 -66.43 0.0007051582    1.727    0.421
        28  -9.2143     93.2009    138.7181   8.3352117572e+01   3.5263219525e+01    0.3179061    0.2285975  -5.07 0.0005599944    1.923    0.480
        29 -12.9245     48.0329    157.3923   1.0069390167e+02   3.7042504897e+01    0.5881882    0.3586244 -30.78   0.00165988    2.138    0.532
        30 -11.4413     51.6013    108.5941   9.0280641008e+01   4.9087542150e+01    0.9777206    0.2699166 -63.22  0.002521721    5.346    0.813
        31 -10.3783    105.0477    130.8924   7.8025408015e+01   3.5045744712e+01    0.5108018    0.3505724  30.11  0.001761727    1.555    0.357
        32  -9.9582     90.1436    126.7549   8.1558135691e+01   3.8755307823e+01    0.3083291    0.2560287   4.57 0.0006642268    1.370    0.270
        33 -11.1253     12.1719    241.5628   1.1780189940e+02   2.0498670291e+01    0.4325006    0.2509301  73.02  0.001313877    1.531    0.347
        34  -9.3006    102.7635    119.1045   7.5822734107e+01   3.8279894816e+01    0.2359678    0.2150636  34.60 0.0002875346    1.108    0.097
        35  -9.8422     23.8427    117.0969   1.0204236587e+02   4.9917469498e+01    0.1990421    0.1794858  87.41 0.0003888696    1.203    0.169
        36  -9.1675    204.8233    110.5481   5.0382937568e+01   1.8841184126e+01    0.3257196    0.1862939  36.31  0.001438522    2.454    0.593
        37  -9.1046     44.9220    107.6555   9.2506721704e+01   5.0134810849e+01    0.1923451     0.178979  10.71 0.0004983031    1.134    0.118
        38 -11.0113    244.0190    103.5021   4.3353393426e+01   1.2825722519e+01    0.3096205    0.1681009 -63.38   0.00150063    2.257    0.557
        39 -11.5225     55.9948    130.0283   9.3370967812e+01   4.3167124482e+01    0.6824353    0.2728367 -66.58   0.00233433    2.871    0.652
        40 -12.6319     31.8402    248.7585   1.1421685447e+02   1.6930248762e+01     1.508463    0.7159629  18.88  0.006829484    3.085    0.676
        41  -9.5446    184.3312     77.6383   4.6159715100e+01   2.8860201279e+01     0.252587    0.1958138  18.65 0.0009104397    1.972    0.493
        42  -8.8741     67.5981     77.7887   7.5995744675e+01   5.3662229986e+01    0.1842573      0.13507 -55.73  0.000433829    1.568    0.362
        43  -9.8485    165.8339     85.1618   5.1263058301e+01   3.1693609255e+01    0.1925286    0.1759721  13.57  0.000614788    1.330    0.248
        44 -12.7286      7.0705    249.2060   1.1922529116e+02   1.9404999777e+01     1.928348    0.9063598  21.74  0.009837845    2.752    0.637
        45  -9.7986    132.1928    240.0800   9.1070633778e+01   5.2956730423e+00    0.2253245    0.1893738  89.26 0.0008612904    1.583    0.368
        46  -9.9337     13.3376     60.0605   9.3701954365e+01   6.3862652819e+01    0.2063423    0.1711169   9.97 0.0005024039    1.270    0.212
        47  -8.3478     94.5562     46.5014   5.6539278604e+01   5.3934679283e+01    0.1341495    0.1240181  43.71 3.256823e-05    1.068    0.064
