#   1 NUMBER                 Running object number                                     
#   2 MAG_AUTO               Kron-like elliptical aperture magnitude                    [mag]
#   3 X_IMAGE                Object position along x                                    [pixel]
#   4 Y_IMAGE                Object position along y                                    [pixel]
#   5 X_WORLD                Barycenter position along world x axis                     [deg]
#   6 Y_WORLD                Barycenter position along world y axis                     [deg]
#   7 A_WORLD                Profile RMS along major axis (world units)                 [deg]
#   8 B_WORLD                Profile RMS along minor axis (world units)                 [deg]
#   9 THETA_WORLD            Position angle (CCW/world-x)                               [deg]
#  10 FWHM_WORLD             FWHM assuming a gaussian core                              [deg]
#  11 ELONGATION             A_IMAGE/B_IMAGE                                           
#  12 ELLIPTICITY            1 - B_IMAGE/A_IMAGE                                       
         1 -12.9544     75.7920     32.8926   6.4909805070e+01   6.0183045245e+01     1.155612    0.6955066  37.92  0.004993028    1.544    0.352
         2 -15.3474     68.7254     62.5858   7.8720948235e+01   5.6573226002e+01     4.295968     3.042182  -0.44   0.02165687    1.690    0.408
         3 -15.1883     12.7036     23.0858   8.8604678958e+01   7.0602384033e+01     3.222733     1.431773 -28.66   0.01655613    2.175    0.540
         4 -15.1267     35.9341     48.2449   8.6998513681e+01   6.3870276057e+01     4.166511     2.114427 -17.63   0.01183712    2.890    0.654
         5 -11.9149    217.3536     38.9483   3.9129760687e+01   2.6654100964e+01    0.3687848    0.3001714  41.37  0.001413834    1.651    0.394
         6 -12.1218    123.4111     10.7588   4.4244668967e+01   5.2224168306e+01    0.4446879    0.2819162  61.11  0.001065203    1.351    0.260
         7 -12.3041     83.2922     22.3212   5.8152042401e+01   6.0022037021e+01      0.55531    0.4024786  45.02  0.002121475    1.241    0.194
         8 -12.4592    115.4569     11.9454   4.6174230989e+01   5.3982674589e+01     1.342061    0.4635295 -42.09  0.005154667    3.580    0.721
         9 -13.0870    104.5576      5.0789   4.5896542901e+01   5.7077348670e+01     0.680784    0.6066319  58.13  0.003410725    1.077    0.072
        10 -13.0613     75.6900     13.5332   5.6757963642e+01   6.2499288961e+01    0.5756308    0.4177518  46.12 0.0009889799    1.238    0.193
        11 -14.2412     85.3969      8.0610   5.1623653412e+01   6.1025114050e+01     2.102585    0.8908166  48.00   0.01000164    1.933    0.483
        12 -11.9198    175.3621     13.9551   3.7640915329e+01   3.9403908970e+01    0.3541125    0.2942423  52.49  0.001435048    1.320    0.242
        13 -11.4791    155.4266     14.8247   4.0420650103e+01   4.4131849734e+01     0.357628    0.2098599  49.66  0.001826357    1.706    0.414
        14 -11.0966    156.5861      9.9206   3.8847788432e+01   4.4327727980e+01    0.2536507    0.2131279  78.74 0.0006687252    1.026    0.026
        15 -11.4217    150.9185      8.9184   3.9315529814e+01   4.5791339976e+01    0.3537861    0.2567936  85.19  0.001240164    1.288    0.223
        16 -12.7037    163.0677      4.4427   3.6507585072e+01   4.3270907584e+01    0.5972542    0.4797976  78.18  0.003464306    1.061    0.058
        17 -12.6116    186.1862     11.6406   3.5859188150e+01   3.7070813339e+01    0.4806543    0.3046754  73.87  0.002295455    1.392    0.282
        18 -11.6819    192.8827      5.8996   3.3798923145e+01   3.6088171416e+01    0.4031666    0.2340542 -38.79  0.002207336    1.725    0.420
        19 -12.1460    188.7193      4.4060   3.3823323675e+01   3.7200473694e+01    0.3611705    0.3135837 -32.73  0.001838567    1.374    0.272
        20 -12.4418     95.7504      3.5046   4.7214954305e+01   5.9171062107e+01    0.5402003    0.3615218  52.32  0.002205357    1.246    0.198
        21 -12.2959    138.7515      4.6256   3.9736983200e+01   4.9099617009e+01    0.6951872    0.2902594  57.30  0.002776501    1.974    0.494
        22 -10.8545      5.1021      4.0956   8.4010503855e+01   7.4136007635e+01    0.4156998    0.1934816 -19.43  0.002253057    2.264    0.558
        23 -10.3180    128.6344      5.2838   4.1511430760e+01   5.1460045862e+01    0.2388302    0.1499104  65.63 0.0006837012    1.359    0.264
        24 -11.1971     73.5239      1.5342   5.2101115274e+01   6.4020017389e+01    0.2231358    0.1265604  53.67 0.0006818557    1.543    0.352
        25  -9.8627    211.9529      1.4577   3.1196226948e+01   3.2216380479e+01    0.1757502    0.1011911  79.61  0.000532133    1.522    0.343
        26 -13.7653      9.3614     64.1665   1.0374973021e+02   6.2978368094e+01    0.7600027    0.7113011  82.40  0.004524473    1.364    0.267
        27  -9.7308    178.6594    184.6743   7.9659749140e+01   8.4526042321e+00    0.1512842    0.1092193  -2.40 0.0007051287    1.731    0.422
        28  -9.9732    249.6285     86.2439   4.5934204423e+01   1.2943256530e+01    0.1735334    0.1426733 -61.17 0.0004892217    1.111    0.100
        29  -9.6147    162.5237     90.4675   6.0941134851e+01   3.1271960414e+01    0.1524623    0.1465262 -71.62 0.0001047921    1.010    0.010
        30 -10.2477    170.4982     82.4611   5.7128951263e+01   3.0862864638e+01    0.1487926    0.1435673 -74.64 2.887704e-06    1.021    0.021
        31 -12.5467    143.5723     75.0596   6.0720607518e+01   3.8631291145e+01    0.5165434    0.4160969  83.83  0.001741473    1.435    0.303
        32 -11.6592    150.7682     73.4798   5.8652052369e+01   3.7191789768e+01    0.3175423    0.2342737 -47.51 0.0005976842    1.370    0.270
        33 -12.0999    118.6388     73.5315   6.6476986302e+01   4.4684173626e+01    0.4516229    0.3072722  22.28  0.001967934    1.933    0.483
        34 -12.8411    117.8334     65.6005   6.4149664544e+01   4.6293443798e+01    0.7111559    0.4634327 -28.89   0.00245246    1.676    0.403
        35 -11.5466    132.9325     67.4618   6.0907978893e+01   4.2488356859e+01    0.2647569    0.2491114 -11.78 0.0005679659    1.126    0.112
        36 -12.6634    128.0024     63.9451   6.1002292984e+01   4.4244272489e+01    0.6713392    0.4700419  53.24  0.003242064    1.391    0.281
        37  -9.8997    128.3470     73.6868   6.3977194092e+01   4.2450821123e+01    0.1551077    0.1196122 -82.64 0.0005658907    1.716    0.417
        38 -10.5719    170.6865     71.6559   5.4132941207e+01   3.2702736286e+01    0.3954918    0.2662124  76.48  0.001809394    1.710    0.415
        39  -9.8386    160.2952     72.3349   5.6333477835e+01   3.5095024788e+01      0.14834    0.1186152  15.61 0.0003913382    1.645    0.392
        40 -11.6877    111.5262     66.9800   6.6329965514e+01   4.7452111592e+01    0.3164226    0.2777067 -10.73 0.0006760407    1.205    0.170
        41 -10.6592    154.4687     64.5249   5.5253673590e+01   3.7818089164e+01       0.2341    0.1317532  47.08 0.0006758012    1.822    0.451
        42 -10.9103    214.4766     61.1206   4.4636283289e+01   2.4145860023e+01     0.370736    0.2187098 -37.70   0.00183687    1.615    0.381
        43 -11.0701    170.1381     62.8648   5.1799055306e+01   3.4277119991e+01    0.2776555    0.2201019  78.04 0.0002750955    1.281    0.220
        44 -10.2997    165.9956     62.9802   5.2582286568e+01   3.5264969915e+01    0.2170295    0.2013491  54.79 0.0003861807    1.120    0.107
        45  -9.6258    189.6676     59.2701   4.7625074881e+01   3.0143874015e+01    0.1455008    0.1009829 -74.01 0.0004201015    1.589    0.371
        46  -9.1757    203.4502     58.4983   4.5456407089e+01   2.7039191760e+01    0.1385381    0.1231016 -69.20 0.0001795009    1.010    0.010
        47 -12.4051    125.0866     56.9994   5.9480035519e+01   4.6066352597e+01    0.4428707    0.2704124  44.35  0.000824034    1.612    0.380
        48 -11.4906    174.4152     56.4247   4.9282929341e+01   3.4238689828e+01    0.2602391    0.2362545 -87.17  0.000253183    1.031    0.030
        49 -10.8906     34.5628    177.1289   1.1355141119e+02   3.3495673148e+01    0.2433543    0.1847299  -5.31  0.001344884    1.990    0.498
        50 -11.7076    132.3702     53.7599   5.6704433012e+01   4.4856159054e+01    0.3402106     0.241392  59.86 0.0003304852    1.377    0.274
        51  -9.9324    155.1844     52.1718   5.1475083573e+01   3.9569640196e+01    0.2017203    0.1623807 -74.38 0.0005067515    1.340    0.254
        52 -11.0199    145.5355     50.2370   5.2771191655e+01   4.2210161075e+01    0.3053961    0.2556949 -48.10 0.0007710222    1.238    0.192
        53  -9.6316    213.2277     50.5978   4.2304748990e+01   2.5972743139e+01    0.1726853    0.1191631  59.59 0.0005778712    1.538    0.350
        54 -11.7731    203.4034    171.6488   7.1936156289e+01   6.4689994172e+00    0.3220421    0.2861747 -45.88  0.001847275    1.214    0.176
        55  -9.5901    194.5092     47.9553   4.4034672194e+01   3.0660936665e+01    0.1910835    0.1286884 -39.68 0.0003470247    1.458    0.314
        56  -9.7437    132.4939     47.5271   5.4667565478e+01   4.5753525094e+01    0.1428115    0.1332182  49.04 9.005501e-05    1.035    0.034
        57 -10.3852    116.0867     45.4189   5.7829328344e+01   4.9907827599e+01    0.2096652     0.188388   0.12 0.0007763108    1.180    0.152
        58 -10.3524    204.1887     43.4870   4.1690884170e+01   2.9024577479e+01    0.2237826    0.2011519  38.95  0.001364068    1.418    0.295
        59 -10.3270    181.9049     43.3124   4.4581446190e+01   3.4310905920e+01    0.2241457    0.1759619 -56.19 0.0001798481    1.228    0.186
        60 -11.2200    157.0190     43.5815   4.8606690755e+01   4.0342600362e+01    0.3131087    0.2350928  65.81 0.0007257001    1.250    0.200
        61 -10.8453    140.3719     43.6755   5.1771811743e+01   4.4397119371e+01    0.3391863    0.2294768  82.59   0.00111847    1.769    0.435
        62 -10.7627    122.3592     43.4445   5.5628601861e+01   4.8732725709e+01    0.2404138    0.2147453  27.18 0.0005108234    1.145    0.126
        63 -12.2852    240.7765    155.7750   6.1924696314e+01   2.8320462886e+00    0.3571827    0.2822463  16.40  0.002100649    1.419    0.295
        64 -10.2182    226.0061     39.3032   3.8320991125e+01   2.4709625287e+01    0.1776373    0.1422509 -83.78 0.0004058778    1.130    0.115
        65  -9.6580    159.5770     36.4694   4.6092824984e+01   4.0654912190e+01    0.1365623    0.1260823  74.95 8.895476e-05    1.041    0.039
        66 -11.0925    140.6542     34.8313   4.8926425470e+01   4.5490278980e+01    0.4528487    0.1749419  59.13 0.0009148773    2.294    0.564
        67  -9.7916    240.4932     34.4755   3.5937126754e+01   2.2285803793e+01    0.1254493   0.09934796 -65.86 0.0003215008    1.006    0.006
        68 -10.3541    176.2123     33.2820   4.2698104662e+01   3.6997194851e+01    0.2218786    0.1714216  75.16 0.0004448663    1.189    0.159
        69 -10.3093    197.0057     41.0009   4.1963363896e+01   3.1031263413e+01    0.2090422    0.1789734 -75.75 0.0005276665    1.031    0.030
        70 -11.6630    241.7698     22.6207   3.3393466945e+01   2.3506209590e+01    0.3236719    0.1992988 -70.33  0.001140492    1.424    0.298
        71 -12.8021    247.6134    142.3912   5.8078119674e+01   3.9715767247e+00     1.014082    0.4719505 -37.64  0.004692811    1.815    0.449
        72 -11.4461    248.7450    130.6524   5.5459652549e+01   5.7662419024e+00    0.6273589      0.34076 -47.70  0.003079358    1.716    0.417
        73 -10.8873     18.7956    154.3955   1.1517891528e+02   4.0645199933e+01    0.1595062     0.128169  -0.28 0.0009323508    1.690    0.408
        74 -12.3907     49.3771    141.7898   1.0489762306e+02   4.0698659348e+01    0.6960053    0.5126363  19.71  0.003669009    1.640    0.390
        75 -10.7711    214.9807    141.4598   6.3266311162e+01   9.9958702564e+00    0.2080436    0.1429356  46.01  0.001035799    1.609    0.378
        76 -10.9298      3.7379    139.9521   1.1775760488e+02   4.5372388908e+01    0.3219541    0.1801215 -79.68  0.001732962    1.473    0.321
        77 -11.2072    141.0469     22.0069   4.4814458905e+01   4.6884225713e+01     0.521539    0.2314322  71.05  0.002168611    2.296    0.564
        78 -11.2691    149.0211     21.5051   4.3352123486e+01   4.4998056086e+01    0.3940465    0.2683006  78.45  0.002029744    1.418    0.295
        79 -11.4572    153.5940     20.0888   4.2227256549e+01   4.4034723751e+01    0.3892257    0.2653266  85.87   0.00100018    1.477    0.323
        80 -10.4236    235.2751     21.3990   3.3647603334e+01   2.4995493325e+01    0.2245441    0.1009332  69.15  0.001142564    2.160    0.537
        81 -10.5038    208.7674     18.8133   3.5359976601e+01   3.1070875956e+01    0.2202064    0.1864139 -78.00 0.0009775944    1.043    0.041
        82 -10.0189    201.9821     17.3284   3.5659579891e+01   3.2783813671e+01    0.1822739    0.1418434  87.41 0.0005233709    1.124    0.111
        83 -12.6824    197.7193    137.1265   6.5502901414e+01   1.4237345147e+01    0.4422717    0.3235524 -36.66  0.002190103    1.286    0.223
        84 -10.6360     33.8178    135.8478   1.0858774055e+02   4.3914352314e+01    0.1958209    0.1497202  76.47  0.001085143    1.365    0.267
        85 -11.7270    202.0050    128.5358   6.2702423281e+01   1.5033643907e+01    0.3724478    0.2815707  60.92  0.001865389    1.535    0.348
        86 -11.6442    210.2210    128.1677   6.1122178762e+01   1.3428600438e+01    0.2849959    0.1690095  34.42  0.001242356    2.123    0.529
        87 -12.3237    219.4043    120.8784   5.7880701691e+01   1.2940066223e+01    0.7585097    0.3952324 -51.93   0.00322273    2.035    0.509
        88 -11.1611    203.9697    120.0400   6.0353632046e+01   1.6253222306e+01    0.2375609    0.1841529  -0.17  0.001150041    1.721    0.419
        89  -9.8602    170.2886     10.3137   3.7261756825e+01   4.0986865972e+01    0.1246854   0.09095509  43.85 0.0004420475    1.586    0.370
        90 -10.6319    195.5308    113.3632   6.0300300668e+01   1.9330852924e+01    0.2793103    0.1894886  48.44  0.000993279    1.581    0.367
        91 -11.4408    112.0198    110.0368   7.9050764395e+01   3.8458146153e+01    0.2425518    0.2402257 -70.18 0.0008248072    1.026    0.025
        92 -11.1096    198.9931    108.4951   5.8487368825e+01   1.9501615237e+01    0.2880858    0.2051164 -23.46 0.0009060381    1.636    0.389
        93 -11.3271    139.6194    103.1230   6.9730497831e+01   3.4039647630e+01    0.3384744    0.2471572   8.92 0.0008150763    2.021    0.505
        94 -12.0469    140.7352     96.4624   6.7600936814e+01   3.5171741308e+01    0.4657348      0.38291 -47.90  0.002290405    1.207    0.172
        95 -14.4365     96.9737     72.2313   7.2371431321e+01   4.9542244484e+01     1.607198     1.164713  36.16  0.007964435    1.390    0.281
        96 -10.4334    246.4741    183.3282   6.6496726766e+01  -2.6117758493e+00    0.2323914    0.1077385 -34.07 0.0006654536    1.884    0.469
