#   1 NUMBER                 Running object number                                     
#   2 MAG_AUTO               Kron-like elliptical aperture magnitude                    [mag]
#   3 X_IMAGE                Object position along x                                    [pixel]
#   4 Y_IMAGE                Object position along y                                    [pixel]
#   5 X_WORLD                Barycenter position along world x axis                     [deg]
#   6 Y_WORLD                Barycenter position along world y axis                     [deg]
#   7 A_WORLD                Profile RMS along major axis (world units)                 [deg]
#   8 B_WORLD                Profile RMS along minor axis (world units)                 [deg]
#   9 THETA_WORLD            Position angle (CCW/world-x)                               [deg]
#  10 FWHM_WORLD             FWHM assuming a gaussian core                              [deg]
#  11 ELONGATION             A_IMAGE/B_IMAGE                                           
#  12 ELLIPTICITY            1 - B_IMAGE/A_IMAGE                                       
         1 -12.7709    248.5172    133.8296   8.5220059905e+01   4.2370398489e+00     1.060795    0.8579735 -25.85  0.006247417    1.125    0.111
         2 -14.2244    202.1113     17.7190   6.3357673952e+01   3.1753477203e+01     2.432882      1.40832  27.70   0.01031011    2.930    0.659
         3 -12.0416      2.2199     14.0291   1.2037747738e+02   7.2332053113e+01     1.237445    0.3655919 -27.73  0.004147483    6.187    0.838
         4 -12.9742      2.1731      5.2948   1.1664418382e+02   7.3746835388e+01     1.234149    0.4559268 -46.00  0.006803709    2.151    0.535
         5 -10.7570      8.5943      9.1946   1.1472967450e+02   7.2666187239e+01    0.1645292   0.07608467 -36.93 0.0009566278    1.715    0.417
         6 -11.4289    189.8092     15.7573   6.4240295839e+01   3.5098422662e+01    0.3173312    0.2482706  82.91 0.0009028714    1.150    0.131
         7  -9.2933    205.3335    250.3140   1.1449105971e+02  -4.7148770206e+00    0.1213227   0.07512973  16.33 0.0007045913    1.684    0.406
         8  -9.5926    189.4617    250.5307   1.1736091007e+02  -2.2698177337e+00    0.1204188   0.09190925  32.05 7.160915e-05    1.006    0.006
         9  -9.9824    184.2958    250.2531   1.1825757232e+02  -1.4166870716e+00    0.2122454    0.1299943  30.66 0.0006338051    1.367    0.268
        10 -10.7972    169.6528    248.6201   1.2071681652e+02   1.1480121047e+00    0.3015133    0.1975693  16.18 0.0008292291    1.900    0.474
        11 -12.7851    128.5234    234.3009   1.2669256306e+02   1.0058701664e+01    0.8231952    0.4015826  46.16  0.004244171    1.640    0.390
        12 -11.4563    122.3003    232.7641   1.2771962002e+02   1.1331174730e+01    0.3506445    0.3234996 -84.66  0.001465668    1.271    0.213
        13 -10.4278    136.1693    227.8376   1.2437989152e+02   9.8624434831e+00    0.3653179    0.1902763 -44.44  0.001840463    2.493    0.599
        14 -12.1036    149.9506    248.6832   1.2437526757e+02   4.3274388333e+00    0.7634155    0.3559332  54.56  0.003665775    2.374    0.579
        15 -11.1373    143.1936    249.0743   1.2567954517e+02   5.3593025477e+00    0.3856825    0.2670485  83.47  0.002179303    2.182    0.542
        16 -11.8402    135.5323    241.1898   1.2617729660e+02   7.8028354498e+00    0.4238663    0.2752882  42.25  0.001064579    1.222    0.182
        17  -9.8876    134.0074    232.7303   1.2543099518e+02   9.4131912455e+00    0.1739421    0.1611086  69.71 0.0004550829    1.194    0.163
        18 -11.1937    133.8306    249.0776   1.2742210183e+02   6.8577114965e+00    0.5205612    0.2246835  49.18  0.002607001    1.932    0.483
        19 -10.3455    123.0405    249.9986   1.2952723970e+02   8.4205366190e+00    0.3878363    0.1739689  45.16  0.002041464    1.695    0.410
        20 -10.0970    126.5270    249.0036   1.2877212621e+02   8.0270405870e+00    0.2219488    0.1996029 -78.25  0.001124584    1.368    0.269
        21 -11.9927    121.9272    244.9185   1.2918177301e+02   9.3954078984e+00     0.660866    0.2750508  44.41  0.003303872    1.845    0.458
        22 -11.6804    126.4409    240.6174   1.2784164985e+02   9.3656674944e+00    0.3809887    0.3476779  65.53  0.002236384    1.192    0.161
        23 -10.7841    114.7347    250.1770   1.3108085963e+02   9.6823722161e+00    0.4831737    0.1758441  39.51  0.002261656    2.259    0.557
        24 -11.9814    109.8325    247.7673   1.3174119456e+02   1.0820270798e+01    0.5769546     0.509359  87.19  0.003896407    1.290    0.225
        25 -11.5486     99.1326    247.4784   1.3368984381e+02   1.2485001332e+01    0.6298441    0.2849309  44.67  0.003131229    1.689    0.408
        26 -11.6361     96.7059    239.3785   1.3335791679e+02   1.4210527100e+01    0.4353928    0.2778476  82.28  0.001979647    1.807    0.447
        27 -10.2320    101.2218    240.0194   1.3256881283e+02   1.3418746886e+01    0.1915109    0.1305728  62.32 0.0004975047    1.293    0.227
        28 -10.7778    104.3497    237.9016   1.3175767166e+02   1.3300958692e+01    0.2223472    0.1830997  51.81 0.0007307167    1.103    0.093
        29 -10.0659     83.6049    242.2117   1.3607049660e+02   1.5644615983e+01    0.3480721    0.1296584 -63.09  0.001720696    3.050    0.672
        30 -11.1943     89.9432    237.8355   1.3448491601e+02   1.5483323840e+01    0.4270946    0.2613873  76.21  0.002394004    1.783    0.439
        31 -10.0954     84.3406    238.0122   1.3555546928e+02   1.6269237799e+01    0.4101871    0.1711732  34.12  0.001904203    2.667    0.625
        32 -10.1055     89.2100    250.6473   1.3578907714e+02   1.3417291432e+01     0.488829   0.09451646  39.50  0.001732102    4.241    0.764
        33 -11.0235     89.2061    247.3302   1.3549681028e+02   1.3968632026e+01    0.5114145    0.1895459  44.57  0.002563437    2.027    0.507
        34  -9.8989     81.5252    247.1047   1.3687482117e+02   1.5104886423e+01      0.30099    0.1703153 -78.46  0.001821392    2.033    0.508
        35  -9.4489     79.1798    243.1879   1.3696950949e+02   1.6104272767e+01    0.2054035     0.114771  72.97 0.0006361174    1.894    0.472
        36  -8.9760     74.5398    250.6507   1.3841754656e+02   1.5479705623e+01    0.2086851   0.08392876  41.75  0.001101311    1.979    0.495
        37  -8.9321     68.9505    250.3035   1.3938031947e+02   1.6296488760e+01    0.1985286   0.04027707  51.92 0.0007040132    4.277    0.766
        38 -11.1610     59.7818    245.1225   1.4061998662e+02   1.8394923724e+01    0.4051307    0.2523854 -72.75  0.001705595    1.740    0.425
        39  -9.5041     63.2882    249.6553   1.4032880278e+02   1.7158435227e+01     0.207807    0.1543248 -66.94  0.001021488    1.668    0.401
        40 -11.1499     67.0588    244.0984   1.3924413954e+02   1.7612130750e+01    0.4105984    0.1959696  34.91  0.002217113    2.228    0.551
        41 -15.3140      7.9658    208.7732   1.4768971657e+02   3.1030329878e+01     6.777213     1.142007 -73.00   0.02709616    4.464    0.776
        42 -13.1907     38.2084    244.2266   1.4432381012e+02   2.1221728166e+01    0.9198475    0.5772907 -77.22  0.006535485    1.628    0.386
        43 -13.4860     13.8001    238.7808   1.4815606256e+02   2.4872889544e+01    0.8773105    0.3984495  48.84  0.003156004    1.659    0.397
        44 -12.7595     40.6636    228.6208   1.4290450783e+02   2.3747332405e+01    0.3303934    0.2603115 -70.53 0.0008676187    1.521    0.342
        45 -14.5956     46.9554    219.0760   1.4104612534e+02   2.4794432671e+01      1.63667     1.320094  55.09   0.01186633    1.214    0.177
        46 -12.6550      1.4091    241.1545   1.5027584645e+02   2.5687300985e+01    0.4336302    0.1896281 -85.05 0.0003964121    1.976    0.494
        47 -11.8243    245.0988    240.8861   1.0618567592e+02  -9.5247160220e+00    0.2373435    0.1748601 -12.27  0.001692966    1.333    0.250
        48 -11.1388    172.6931    239.8775   1.1896444444e+02   1.8667427740e+00    0.2663586    0.2228089 -67.61  0.001455006    1.692    0.409
        49  -8.8048    158.2775    241.3875   1.2188496035e+02   4.0341649985e+00    0.1184791   0.08834078   9.64 0.0006999705    1.728    0.421
        50 -10.7234    115.7981    239.8387   1.2978244121e+02   1.1189501390e+01    0.2221837    0.1917351  57.01 0.0007209223    1.117    0.105
        51 -11.9685    135.4511    236.3734   1.2560501244e+02   8.5821724236e+00     0.457771    0.3634719  -1.53  0.001456336    1.871    0.466
        52 -10.6024    165.7320    235.1740   1.1962452525e+02   3.7086339710e+00    0.2515369    0.2020332  36.38 0.0009802935    1.027    0.026
        53  -9.9082    161.6372    232.7992   1.2007727714e+02   4.7556823897e+00    0.2110929    0.1432991  62.04 0.0008147071    1.791    0.442
        54 -11.0521     98.3199    231.6800   1.3226779954e+02   1.5308754635e+01    0.3384251     0.267084 -85.39 0.0006603946    1.363    0.266
        55 -10.5365     92.4461    225.9363   1.3281560465e+02   1.7236892288e+01    0.3697269    0.1671806  52.42   0.00177361    1.900    0.474
        56 -11.6670     99.3139    223.4935   1.3119132534e+02   1.6631131789e+01     0.480455    0.3293279  49.53  0.001040698    1.188    0.158
        57 -11.1711    112.7076    230.0944   1.2928531671e+02   1.3336257482e+01    0.3923142    0.3301409  -2.94  0.001852284    1.825    0.452
        58 -11.3286    105.7341    229.1298   1.3054580800e+02   1.4611295223e+01    0.5843831    0.2216656  44.25   0.00208238    2.091    0.522
        59  -9.7176     77.9368    233.1463   1.3632083042e+02   1.8050872010e+01    0.2488599    0.1576377  86.32  0.000967326    1.661    0.398
        60 -11.1552    156.4878    231.8139   1.2093496775e+02   5.7797028525e+00    0.2451003     0.201148  28.81 0.0006531301    1.179    0.152
        61  -9.0395     62.7582    233.1830   1.3917285671e+02   2.0126908845e+01    0.1393143    0.1142537  51.83 0.0003737095    1.246    0.198
        62  -8.8388     92.4504    232.5096   1.3348701082e+02   1.6049550788e+01    0.1224102   0.09606797  58.26 3.532699e-05    1.010    0.010
        63 -10.9366    142.0520    230.5406   1.2357642167e+02   8.4254011518e+00    0.2915869    0.2338593  -4.41  0.001278427    1.769    0.435
        64 -10.3705    165.8279    227.0486   1.1844383502e+02   4.9191131066e+00    0.3589083    0.2246193 -63.75  0.001805086    2.507    0.601
        65 -11.0171    160.4941    223.6478   1.1899036791e+02   6.3737181779e+00    0.3813958    0.2116117  34.95 0.0005655394    1.614    0.380
        66  -9.2883    164.6952    220.6033   1.1770892095e+02   6.1244479714e+00    0.2083144    0.1288249 -31.39 0.0006586082    2.149    0.535
        67 -10.5969     73.1433    209.6323   1.3501374280e+02   2.3186373302e+01     0.550451     0.294048  26.63  0.002595483    2.733    0.634
        68 -10.5418     84.6910    229.5801   1.3469519947e+02   1.7724853527e+01    0.2575457     0.203895  24.75 0.0007811522    1.707    0.414
        69 -11.3063     79.9548    226.3765   1.3530501211e+02   1.8999708723e+01    0.3842632    0.2879363  85.29   0.00104572    1.292    0.226
        70 -10.7917     77.4907    220.9501   1.3526473154e+02   2.0370290204e+01     0.294149    0.1773274  57.94 0.0004428051    1.397    0.284
        71 -11.0037     70.8260    220.3420   1.3652170269e+02   2.1426317008e+01    0.4736366    0.2803761 -74.03  0.002470257    1.757    0.431
        72 -10.9835     68.0599    214.6102   1.3653330616e+02   2.2915694846e+01    0.2093727    0.1564676 -87.92  0.001363862    1.279    0.218
        73  -9.6682    179.4819    228.1558   1.1597572212e+02   2.4127558517e+00    0.2693907    0.1666655  66.19  0.001030223    2.933    0.659
        74 -10.8240    165.2051    242.1332   1.2067945087e+02   2.7822621418e+00    0.2302014    0.1656487  30.55 0.0004966064    1.235    0.190
        75  -9.2527    190.8357    228.1362   1.1381989203e+02   4.9232198628e-01    0.1686773    0.1258374  19.63 0.0002503269    1.275    0.216
        76  -9.9385    197.5735    226.7592   1.1234177613e+02  -4.4597487741e-01    0.2412726     0.194653  73.28  0.001444032    1.968    0.492
        77 -10.9077    132.2241    224.7797   1.2476466860e+02   1.1044816402e+01    0.2373456    0.2275641  13.26  0.001220172    1.278    0.217
        78  -9.5793    129.5525    221.2460   1.2483746158e+02   1.2107797938e+01    0.2703276    0.1833686  75.08  0.001408709    1.874    0.466
        79 -10.1161    148.2701    223.9423   1.2145248713e+02   8.4443584917e+00    0.4448541    0.2819597   2.23  0.001077586    3.623    0.724
        80 -10.8957    117.2278    224.3205   1.2770608774e+02   1.3619568469e+01    0.2658056    0.1902122  42.14 0.0003837364    1.215    0.177
        81 -11.5535    142.0002    221.7120   1.2239403605e+02   9.8986180534e+00    0.3762378    0.2884912  35.68   0.00031205    1.198    0.165
        82 -11.2144    137.9957    214.3124   1.2216727431e+02   1.1873439549e+01    0.5370829    0.3135068  34.81   0.00133931    1.640    0.390
        83 -10.2560    105.2393    219.1272   1.2949948660e+02   1.6501136530e+01    0.3187122    0.2069852  78.51 0.0004721084    1.820    0.450
        84  -9.4976    177.3166    220.6441   1.1523995346e+02   3.9082306092e+00    0.1977111    0.1483262  65.10  0.001117293    1.749    0.428
        85  -9.9020    246.4050    218.7096   1.0228441308e+02  -7.1960148154e+00    0.2152811    0.1191201  20.95  0.001059095    1.752    0.429
        86 -10.3823    110.9092    221.2043   1.2859909123e+02   1.5207881766e+01    0.3348392    0.2048435 -58.59  0.001430837    1.900    0.474
        87  -9.1613     93.8879    217.2442   1.3158865385e+02   1.8635806497e+01    0.2132021    0.1528876  83.93 0.0008457467    1.451    0.311
        88  -8.7834     23.5005    217.5297   1.4533549600e+02   2.7778420708e+01    0.2234548   0.09528194  72.42  0.001181009    2.245    0.555
        89 -10.3230     22.6995    214.2341   1.4528326242e+02   2.8498655165e+01    0.2878721    0.2164673   3.83  0.001783086    2.634    0.620
        90  -8.8291    190.6741    215.3079   1.1179771808e+02   2.3771348001e+00    0.1228153    0.0982191  64.00 0.0006030969    1.653    0.395
        91  -9.8881     88.1726    212.9094   1.3227452392e+02   2.0339584719e+01     0.231731      0.16938 -81.63 0.0007059096    1.421    0.296
        92  -9.8451    102.0511    212.0401   1.2930586839e+02   1.8344959752e+01    0.3541395    0.1587038  55.92  0.001563246    2.291    0.564
        93  -8.7066    152.6275    212.2997   1.1887475086e+02   9.6342339520e+00     0.137421   0.09436937  64.31 0.0007029527    1.747    0.427
        94  -9.2725     33.7419    211.3982   1.4301201616e+02   2.7848455692e+01    0.1332129    0.1018204  38.48 0.0004198981    1.511    0.338
        95  -9.3210    134.6549    208.3126   1.2199517640e+02   1.3537481117e+01    0.2525226     0.188829   3.92  0.001203065    2.067    0.516
        96 -10.3437    109.0323    207.6774   1.2729695683e+02   1.8047054891e+01    0.2805929     0.191443 -69.43 0.0009906872    1.648    0.393
        97  -9.1865    119.9238    208.5359   1.2511706681e+02   1.6054113526e+01    0.2011275    0.1137534  42.21 0.0003355237    1.525    0.344
        98 -10.6694    102.5457    202.5876   1.2801640494e+02   2.0106537029e+01     0.432326    0.2354037  58.13  0.001969505    1.841    0.457
        99 -12.1582     93.5478    203.0358   1.2999809455e+02   2.1456485787e+01    0.5381844    0.4583425  87.90  0.003446884    1.159    0.137
       100 -10.2341     98.4164    196.7450   1.2814734734e+02   2.1950407046e+01    0.4495663    0.2142111  53.04  0.001256279    1.998    0.499
       101  -9.6590    102.7155    195.6819   1.2706360426e+02   2.1464531028e+01    0.1886987    0.1593162 -48.37 0.0003467118    1.446    0.308
       102 -10.2549    175.3946    205.4552   1.1316121425e+02   6.6556678971e+00    0.3144381    0.2219921  -4.07  0.001508004    1.968    0.492
       103  -9.4322    178.2922    204.6910   1.1245122162e+02   6.2503607721e+00    0.2025359    0.1656493  45.12 0.0002735935    1.153    0.133
       104 -11.3709    247.6051    205.2369   9.9698704124e+01  -5.7249616571e+00    0.3971299     0.246252  25.17  0.002330353    1.453    0.312
       105  -9.4945    125.9425    205.7376   1.2345696944e+02   1.5543068480e+01    0.1941058     0.151018  47.48  0.000466071    1.099    0.090
       106  -9.6594    166.9944    203.2423   1.1449396954e+02   8.5689227798e+00    0.1885009    0.1508338  40.81  0.001089048    1.080    0.074
       107  -9.4290    133.0730    202.8233   1.2151824545e+02   1.4832773458e+01    0.2048388    0.1660585  64.77 0.0005072352    1.228    0.186
       108 -10.3348     37.2433    202.5017   1.4166504977e+02   2.9230053503e+01    0.2688828    0.1669968  89.56 0.0009865038    1.421    0.296
       109 -13.3416      6.3122    249.0699   1.4980668051e+02   2.3845676950e+01    0.7496933    0.3951197  38.87  0.005270042    1.882    0.469
       110  -9.6885     64.0585    202.1774   1.3614282737e+02   2.5947302182e+01    0.2452711    0.1581172  34.76 0.0002873738    1.688    0.408
       111 -11.0977     32.8453    201.9214   1.4249853239e+02   2.9843776517e+01    0.1784475    0.1459571  72.36 0.0002938106    1.108    0.098
       112 -10.0655    197.0607    200.5551   1.0802963520e+02   3.4832738497e+00     0.283716    0.2059524  61.67  0.001499923    1.858    0.462
       113  -8.5359    179.6873    201.2674   1.1158516048e+02   6.5539464539e+00    0.1280143      0.10092  63.29 0.0001554163    1.545    0.353
       114  -9.4208    137.9749    201.5252   1.2027916044e+02   1.4195251840e+01    0.2015925    0.1183446  43.04 0.0002997396    1.472    0.321
       115 -10.0948    115.1193    200.3350   1.2500591943e+02   1.8450613766e+01    0.2159304    0.1832098 -86.95 0.0002448364    1.245    0.197
       116 -10.3937    120.0898    199.4041   1.2379921678e+02   1.7775159449e+01    0.3649101    0.2064199  58.61  0.001364756    1.874    0.466
       117  -9.1131    169.7190    200.2434   1.1343137660e+02   8.5747846872e+00    0.1791791    0.1457681  18.54 0.0003888632    1.285    0.222
       118  -9.9729     44.0887    199.1593   1.4000321448e+02   2.9112693160e+01    0.2668861    0.1755042  49.06 0.0009914619    1.357    0.263
       119  -9.9644     86.0180    196.8825   1.3086847538e+02   2.3872121454e+01    0.3651462    0.1754047 -65.97  0.001419034    2.212    0.548
       120 -10.4536     56.8295    194.0112   1.3685463802e+02   2.8596895991e+01    0.3104146    0.2640599  46.77  0.002087707    1.282    0.220
       121  -8.5143    149.7320    198.7166   1.1734040506e+02   1.2561541181e+01    0.1269905     0.103379  11.07 0.0001718953    1.494    0.330
       122  -9.6702    134.0985    197.8472   1.2054114542e+02   1.5587753688e+01    0.2065638    0.1674813  64.44 0.0004116913    1.231    0.188
       123 -11.5747     66.0664    194.9777   1.3497190111e+02   2.7162300879e+01    0.3918642      0.27729 -43.60  0.001468471    2.015    0.504
       124 -11.1163     76.4155    186.4422   1.3171266729e+02   2.7502251642e+01    0.3663057    0.2243407 -83.92  0.001432122    1.762    0.432
       125 -11.8603     71.5362    187.5343   1.3293656322e+02   2.7972397125e+01    0.3063512    0.2818421 -38.53 0.0008319219    1.474    0.322
       126 -10.2068    112.9841    193.8859   1.2455182307e+02   2.0097849951e+01    0.4364144    0.2492229 -63.80  0.001526295    1.986    0.497
       127 -10.9093    249.2592    194.3804   9.7421191604e+01  -4.5891386747e+00    0.3209026    0.2356124  19.07  0.002009723    1.204    0.169
       128 -11.1789    249.8128    187.6268   9.6050697405e+01  -3.7834934948e+00    0.3906427    0.2322957 -25.88   0.00216587    1.608    0.378
       129  -9.3464     31.3211    195.2331   1.4229660527e+02   3.1381298128e+01    0.2848004    0.1100031  49.04  0.001445352    2.184    0.542
       130  -9.8794     20.4607    192.4558   1.4429423564e+02   3.3088703463e+01    0.3565933    0.1537101  86.85   0.00180785    2.289    0.563
       131  -9.5508    159.8737    194.1968   1.1444266012e+02   1.1482284774e+01    0.2052743    0.1763109  57.58 0.0004334972    1.185    0.156
       132  -9.3518    133.5874    194.3117   1.2009881405e+02   1.6357941671e+01    0.2608196    0.1549493  39.35 0.0006889999    1.537    0.349
       133 -10.4831    119.9472    192.8266   1.2285920429e+02   1.9097354843e+01    0.3375763    0.3273897  23.35  0.001294485    1.219    0.179
       134  -9.8199    118.0002    190.0253   1.2286653246e+02   2.0003223642e+01    0.2257343    0.2090847  18.81 0.0003072302    1.291    0.225
       135  -8.5940     82.2241    194.3660   1.3139075168e+02   2.4967750827e+01    0.1162209   0.09641229 -44.95 0.0001551308    1.582    0.368
       136 -10.4388     38.6337    192.5119   1.4056557821e+02   3.1131143042e+01    0.2480304    0.1640571 -58.89 0.0001333829    1.722    0.419
       137  -9.4972    172.9633    192.2734   1.1137372961e+02   9.3367610652e+00    0.2341018    0.1769658 -19.42  0.001046755    1.612    0.380
       138  -9.5589     72.9453    193.0435   1.3326511543e+02   2.6604406675e+01     0.186229    0.1590336  69.55 0.0002959046    1.047    0.045
       139 -10.1712    191.3417    191.4752   1.0750333133e+02   5.9868718832e+00    0.2533186    0.2238618  24.35  0.000637091    1.016    0.015
       140 -10.6076     54.4258    198.2991   1.3778073911e+02   2.8012550147e+01    0.5756339    0.1674002  42.50  0.002459314    2.788    0.641
       141  -9.3612    135.2943    190.0640   1.1904366014e+02   1.6868598624e+01    0.1828167    0.1712979  67.71 0.0003779405    1.085    0.078
       142 -10.4417     32.6754    189.4677   1.4155758642e+02   3.2435832282e+01    0.3296602     0.221815  26.80  0.002031813    1.925    0.480
       143  -9.3202     41.0943    187.9806   1.3964723295e+02   3.1803245866e+01    0.2516595    0.1564067  75.90  0.001483781    1.460    0.315
       144 -11.2305    141.7807    182.9260   1.1640726102e+02   1.7047940554e+01     0.469343    0.3597239  38.46 0.0009424886    1.223    0.182
       145 -10.0618     29.6392    183.4954   1.4170654781e+02   3.4025877993e+01    0.3547057    0.1922413  66.39  0.001822643    1.699    0.411
       146 -10.1260     24.8792    184.2917   1.4278018394e+02   3.4349897878e+01    0.2042384    0.1496632  42.90 0.0008619732    1.433    0.302
       147  -8.7109     86.3592    183.3977   1.2906640413e+02   2.6656108475e+01    0.2467615    0.1263597  23.59 0.0009414009    3.422    0.708
       148 -10.7346    236.4254    145.9020   8.9805992544e+01   4.6805952653e+00     0.355545    0.1907075  43.74 0.0009071016    1.903    0.474
       149 -12.7649    248.1727    101.6376   7.8088580183e+01   9.2537700246e+00    0.8790768    0.5121142 -35.81  0.004323921    1.550    0.355
       150 -12.9480    248.0808    171.9118   9.3265838502e+01  -1.3274967994e+00     1.101028    0.4604126 -36.01  0.004956905    2.302    0.566
       151 -12.9264    244.9346    156.6425   9.0667168305e+01   1.4488115030e+00     1.425318    0.9119638 -57.73  0.006674576    2.554    0.608
       152 -12.0858    247.9032    142.2684   8.7141585404e+01   3.0677382481e+00    0.7519603    0.5673347  26.85  0.004277244    1.388    0.280
       153 -10.7619    193.6758    245.3979   1.1587339823e+02  -2.2856279674e+00    0.2234711    0.1931943 -20.26 0.0009280971    1.383    0.277
       154 -10.1946    175.2900    179.8833   1.0860095809e+02   1.1077396204e+01    0.3342899    0.1478067  43.75  0.001333646    2.057    0.514
       155 -10.2552    128.5446    179.4936   1.1879373227e+02   2.0234468431e+01    0.2634937    0.1290432  42.29 5.363579e-05    1.857    0.461
       156  -9.2478     47.9998    179.7325   1.3733875962e+02   3.2759391404e+01    0.1686748    0.1315248  54.85 0.0004486338    1.201    0.167
       157 -10.2393    108.8289    178.2278   1.2312464363e+02   2.4059402079e+01    0.3435943    0.2155053  55.01  0.001272807    1.537    0.349
       158 -11.4882     80.0586    175.6307   1.2947330556e+02   2.9308171659e+01    0.4741744    0.2547117  45.00  0.001406611    1.715    0.417
       159  -9.3724    115.1031    176.6785   1.2141726238e+02   2.3279257168e+01    0.2613303    0.1604673 -74.45 0.0008888789    2.090    0.521
       160 -11.6970     68.0757    173.4754   1.3200469239e+02   3.1523530617e+01    0.4730858     0.277262 -54.32  0.001087152    1.842    0.457
       161 -10.4724     68.7875    166.8890   1.3097022275e+02   3.2896390750e+01    0.2217068    0.1952087  88.31 0.0004403368    1.052    0.050
       162  -9.2528    107.6596    173.1260   1.2258188204e+02   2.5356137835e+01    0.2373085    0.1692403  55.38  0.000495856    1.320    0.242
       163  -9.3772     95.5423    172.7286   1.2539185345e+02   2.7502276134e+01    0.1792716    0.1278334 -80.17 0.0005749434    1.503    0.335
       164 -10.1612     90.9032    172.8297   1.2650998014e+02   2.8235767254e+01    0.3048693    0.2354587   9.08  0.001075021    1.959    0.490
       165  -9.6551     89.5693    160.4707   1.2491271539e+02   3.1208049426e+01    0.2092684    0.1671303  58.89 0.0005198785    1.180    0.153
       166  -9.4360     93.5046    169.4039   1.2536663917e+02   2.8569213248e+01    0.1790125    0.1274057  34.20 4.914775e-05    1.513    0.339
       167 -12.4394     87.2745    166.7040   1.2645796067e+02   3.0174080179e+01    0.8448642    0.6147123 -52.43   0.00457368    1.494    0.331
       168 -10.8528     28.4450    171.0590   1.4088980948e+02   3.6837163437e+01    0.3796468    0.1879013 -69.62  0.002066755    1.769    0.435
       169  -8.9422     31.6447    171.7580   1.4023344573e+02   3.6352947957e+01    0.1633588   0.09692649  89.97 0.0004553107    1.521    0.342
       170  -8.7512    100.5240    170.5046   1.2385588265e+02   2.7155929164e+01    0.1393476    0.1266438  68.61 -7.625412e-05    1.024    0.024
       171 -10.8302     44.5050    168.9034   1.3699320248e+02   3.5560909648e+01    0.5041909    0.2902183  34.44  0.002756828    1.872    0.466
       172  -9.5257    126.5700    167.7392   1.1718516722e+02   2.3053514026e+01    0.1907639    0.1388498 -70.42 0.0009347631    1.581    0.368
       173  -9.1477    107.2957    168.0857   1.2183618127e+02   2.6514291919e+01    0.1895531    0.1722381  87.47 0.0003458365    1.074    0.069
       174  -9.2789     58.5668    167.3180   1.3348372695e+02   3.4182250092e+01     0.165226    0.1124185 -63.04 0.0006825791    1.439    0.305
       175  -8.9110     77.2454    165.4040   1.2870808348e+02   3.2007883641e+01    0.1314538   0.09885348 -41.01 0.0006932766    1.695    0.410
       176  -9.2901     53.9491    164.7516   1.3427521078e+02   3.5350424965e+01    0.1733063    0.1453236  80.42 0.0002807418    1.023    0.022
       177 -11.1004    249.5951    150.9910   8.8723854172e+01   1.4488595992e+00    0.5186164    0.3025637 -38.24  0.002647292    1.656    0.396
       178 -12.4942     29.4590    227.6324   1.4486455735e+02   2.5220696533e+01    0.8723882    0.4281048  51.75  0.003146948    1.574    0.365
       179  -9.0322     36.8185    162.5819   1.3812354709e+02   3.7837977217e+01    0.1665854   0.09827844  50.91 0.0006080369    1.618    0.382
       180  -8.5594    154.3874    161.7091   1.0957910274e+02   1.8768148642e+01    0.1545101    0.1137214  73.63 0.0007011841    1.762    0.433
       181 -10.9827     95.9048    157.3174   1.2280397859e+02   3.0874155658e+01    0.5460802    0.2140459 -58.82  0.001831088    2.612    0.617
       182 -10.9502     99.9017    151.3278   1.2073179516e+02   3.1546067776e+01     0.456786    0.4230615  -2.02  0.002332103    1.333    0.250
       183  -9.8755    103.1440    146.0322   1.1890533746e+02   3.2177430822e+01    0.3209082     0.221119 -33.94  0.001379083    1.897    0.473
       184 -10.5729     73.6045    159.7481   1.2877874271e+02   3.3826482845e+01    0.4277796    0.2547365 -49.64  0.002031385    1.865    0.464
       185  -9.5515     72.0094    156.3254   1.2866936321e+02   3.4840344881e+01    0.3450746    0.2125831  20.47  0.001599784    2.369    0.578
       186  -9.4029     78.8857    158.8578   1.2732477138e+02   3.3246138242e+01    0.1915927     0.180352 -72.69 0.0005309464    1.154    0.133
       187  -8.9207     52.4609    158.4607   1.3385441257e+02   3.6963095193e+01    0.1281829    0.1114596  89.70 0.0002692532    1.042    0.040
       188  -9.4542    228.4467    155.1128   9.3162831560e+01   4.7648510340e+00    0.2071799    0.1285485 -32.98 0.0006141366    1.570    0.363
       189  -8.5549    175.7038    155.2513   1.0352057660e+02   1.5562313966e+01    0.1397991    0.1156856  76.29  0.000154841    1.490    0.329
       190  -9.8904     53.0107    146.2889   1.3208425215e+02   3.9697255261e+01     0.219651    0.1785578  50.30 0.0007994098    1.253    0.202
       191 -10.2024     60.2748    151.1015   1.3089050362e+02   3.7659673493e+01    0.5024599    0.2462141  82.16  0.001821877    3.622    0.724
       192 -10.9188     56.0982    150.3081   1.3185048715e+02   3.8381440921e+01    0.5368116    0.3334087 -45.65     0.002755    1.910    0.476
       193 -10.3817    113.8381    150.8434   1.1710935458e+02   2.9136887739e+01    0.3569625    0.2605057 -56.45 0.0005836108    1.407    0.289
       194  -8.9550     49.4826    150.5190   1.3357262034e+02   3.9146052271e+01    0.1288738    0.1119913 -86.62 0.0008098731    1.035    0.034
       195 -12.9773     67.4704    144.2102   1.2796405698e+02   3.8286486195e+01    0.7592719    0.5600086  80.75  0.004145555    1.416    0.294
       196 -11.8232     72.5330    139.9169   1.2589542437e+02   3.8567429462e+01    0.5110678    0.4396621  80.32  0.003001066    1.117    0.104
       197 -10.8985    133.4159    141.7342   1.1034192280e+02   2.7285023952e+01    0.8420085    0.3011184 -50.85  0.002800048    2.990    0.666
       198  -9.9435    138.7380    138.7726   1.0837989123e+02   2.6812042111e+01    0.2462334    0.2252744  16.60 0.0006327377    1.207    0.171
       199  -9.6633     40.1650    147.3683   1.3554771685e+02   4.0934536993e+01    0.1801609    0.1012873  46.99 0.0009483738    1.781    0.438
       200  -9.5936    158.9715    145.0851   1.0500443510e+02   2.1155942871e+01    0.2202016    0.2076415  53.40            0    1.036    0.035
       201  -9.2192     93.0501    145.3259   1.2139997683e+02   3.4089909546e+01    0.2048101    0.1184853  50.21 0.0007819826    1.740    0.425
       202 -12.2943     12.6553    137.1611   1.4143907664e+02   4.5829603707e+01    0.4725462    0.2025169  35.67  0.002481847    2.434    0.589
       203  -9.3069     41.5121    140.5188   1.3431067980e+02   4.2370029238e+01    0.1276881    0.1098182 -81.34 3.039013e-05    1.033    0.032
       204 -10.4123    111.0295    136.1016   1.1483614097e+02   3.2978716722e+01     0.373807    0.2926034   1.38  0.001116493    1.834    0.455
       205 -12.0099     45.3902    131.4430   1.3196732002e+02   4.4053716630e+01    0.4555722    0.3208568  82.13  0.001792685    1.480    0.325
       206 -11.0091     60.5062    137.7096   1.2878954920e+02   4.0746683627e+01    0.3191002    0.2287918 -67.25  0.001281105    1.277    0.217
       207 -12.4083     31.5040    127.1304   1.3521022680e+02   4.6499678557e+01    0.4515687    0.2604475  57.60  0.002270535    1.930    0.482
       208  -9.6166    136.0325    134.3961   1.0805706004e+02   2.8324559020e+01    0.4365805    0.1876405  35.46  0.001224822    2.854    0.650
       209  -8.8973    109.8409    129.1180   1.1363415417e+02   3.4784340676e+01    0.1944091    0.1758095 -13.44  0.001028142    1.305    0.234
       210 -11.7335     67.6437    128.1942   1.2516496686e+02   4.2010780432e+01    0.4469946       0.3504  54.40 0.0007793528    1.315    0.239
       211  -9.6649    122.9263    128.0628   1.0993307758e+02   3.2435311216e+01    0.2223534    0.2141531  66.81 0.0003067078    1.007    0.007
       212 -13.2776     23.7939    121.3815   1.3659957030e+02   4.8524177190e+01    0.7232664    0.4926434   8.28  0.004255805    2.032    0.508
       213 -10.6072      9.0343    127.5068   1.4139154152e+02   4.8279737261e+01        0.154    0.1166363  29.81  0.001035155    1.597    0.374
       214  -8.8177     85.4457    126.5770   1.1980935574e+02   3.9692236264e+01     0.141124    0.1325048 -87.18 0.0002056542    1.014    0.014
       215 -10.4626     58.7416    125.2029   1.2716737288e+02   4.3908504510e+01    0.3498628    0.1556121  33.27  0.001083091    2.432    0.589
       216 -10.6275     38.0532    121.5182   1.3252993860e+02   4.7157040139e+01     0.205998    0.1566024 -50.70 0.0006312153    1.311    0.237
       217 -10.4036     54.6543    120.7741   1.2756436460e+02   4.5461435307e+01    0.2636265    0.1970128  21.88  0.001193184    1.619    0.382
       218 -12.3197      8.8058    119.4462   1.4057423753e+02   5.0117748852e+01    0.4322006    0.2329503 -49.51   0.00244825    1.856    0.461
       219 -10.0629     86.2177    116.3175   1.1738476301e+02   4.1940381513e+01    0.3024353    0.2032824 -68.02  0.001012651    1.611    0.379
       220 -10.5033    209.8276    125.8460   8.9966280720e+01   1.3507584149e+01    0.3010001    0.2404116 -23.96  0.000478829    1.280    0.219
       221 -12.5719    245.0728    163.8599   9.2136629533e+01   3.5653670517e-01    0.6495578    0.3917739 -34.42   0.00316131    1.591    0.372
       222 -11.9871     15.1856    114.7399   1.3819391945e+02   5.0731808048e+01    0.3031996    0.1759518 -72.68  0.001052386    1.416    0.294
       223 -10.8785    168.0541    113.2524   9.5307323767e+01   2.5471613370e+01    0.3560261    0.3012182 -89.53 0.0008793382    1.392    0.282
       224  -9.7560     50.1676    112.8868   1.2746297396e+02   4.7843092993e+01    0.1954397    0.1659203 -88.84 0.0004058072    1.176    0.150
       225  -9.3198     65.8436    181.9363   1.3355743052e+02   2.9974223812e+01    0.1745448    0.1602721  89.04 0.0002655667    1.173    0.147
       226 -11.2316     57.4582    110.3462   1.2474132964e+02   4.7544168130e+01    0.4112884    0.2354109  23.52   0.00194949    2.178    0.541
       227 -10.5582     31.4643    110.9711   1.3281770381e+02   5.0245261696e+01    0.2183693    0.1902385  36.77 0.0005905771    1.322    0.244
       228 -10.8391     27.3911    106.5007   1.3334458207e+02   5.1639488501e+01    0.2305603    0.1853856  38.69  0.001489425    1.423    0.297
       229 -11.2807     18.3658    104.5666   1.3583165024e+02   5.2812577604e+01    0.2510795    0.1438526  32.46  0.001428722    1.997    0.499
       230  -9.3016    203.5225    111.5025   8.7670416263e+01   1.7445350899e+01    0.1475303    0.1442954  -5.54 0.0002668139    1.021    0.021
       231  -8.9292     77.5589    103.4511   1.1700541565e+02   4.6282896102e+01    0.1398435    0.1314689 -53.57 8.955837e-05    1.017    0.016
       232 -14.0411     27.3507    247.2747   1.4632370841e+02   2.1934273980e+01      2.09931    0.8605855  37.94   0.01227171    2.278    0.561
       233  -8.7525     85.9582     97.0012   1.1279295331e+02   4.6357417364e+01    0.1638476    0.1608283 -45.77 0.0002947175    1.023    0.023
       234  -8.6192     72.0275     90.2259   1.1545762283e+02   5.0096149353e+01    0.1654351    0.1158617  33.88 0.0008397304    1.530    0.346
       235  -9.6254     30.9669     90.4709   1.2931714306e+02   5.4972631586e+01    0.1627675    0.1256342  22.36 0.0004081618    1.519    0.342
       236 -13.2545    248.4121    114.0557   8.0860142182e+01   7.2971961589e+00     1.497429    0.9197003 -16.83  0.007067687    1.959    0.490
       237  -9.8591     24.2185     88.0069   1.3113575615e+02   5.6099827197e+01    0.1813053    0.1717397 -39.68 0.0003670028    1.156    0.135
       238  -8.5748     50.2682     83.2910   1.2105058018e+02   5.4565022325e+01    0.1302838   0.09119556 -32.02            0    1.507    0.336
       239 -12.9146     10.7784    186.5179   1.4584922270e+02   3.5241220093e+01    0.9471336    0.7151398  41.48   0.00688911    1.472    0.321
       240 -10.2412    199.9519    245.9086   1.1481345184e+02  -3.3424693964e+00     0.168983    0.1330331  55.71 0.0005651035    1.642    0.391
       241 -10.5374    222.4229    244.8650   1.1067879334e+02  -6.6698228852e+00    0.2439917    0.1188071  26.64  0.000853523    1.886    0.470
       242 -10.0502    152.4885    243.7322   1.2328099420e+02   4.6410853696e+00    0.1939319    0.1242916 -58.06  0.001139632    2.104    0.525
