#   1 NUMBER                 Running object number                                     
#   2 MAG_AUTO               Kron-like elliptical aperture magnitude                    [mag]
#   3 X_IMAGE                Object position along x                                    [pixel]
#   4 Y_IMAGE                Object position along y                                    [pixel]
#   5 X_WORLD                Barycenter position along world x axis                     [deg]
#   6 Y_WORLD                Barycenter position along world y axis                     [deg]
#   7 A_WORLD                Profile RMS along major axis (world units)                 [deg]
#   8 B_WORLD                Profile RMS along minor axis (world units)                 [deg]
#   9 THETA_WORLD            Position angle (CCW/world-x)                               [deg]
#  10 FWHM_WORLD             FWHM assuming a gaussian core                              [deg]
#  11 ELONGATION             A_IMAGE/B_IMAGE                                           
#  12 ELLIPTICITY            1 - B_IMAGE/A_IMAGE                                       
         1 -17.5435    245.7576     77.4419   4.1770861562e+01   1.5862487575e+01     6.408932     5.427062 -30.91   0.02954225    1.310    0.237
         2 -16.6281    248.0971     57.0548   3.7383369450e+01   1.8390383060e+01     5.234941      2.19895 -62.02   0.01883207    3.065    0.674
         3 -12.9474    153.4260     47.7051   4.7927455748e+01   4.0634383230e+01    0.6769952    0.4320983 -66.94  0.003117528    2.041    0.510
         4 -11.2482    153.3517     14.7022   3.8471104832e+01   4.4527693818e+01    0.5027717    0.2667144  11.56  0.001926562    4.270    0.766
         5  -8.5615     35.0192    181.0436   1.1215214671e+02   3.2242169868e+01    0.1564188    0.1350362  89.93   0.00029398    1.017    0.017
         6  -9.0395    181.6152    220.8408   8.2609684636e+01   1.6374929551e+00    0.1717362    0.1277317 -50.84 0.0005815539    1.656    0.396
         7  -9.0773    227.3248    215.4413   7.2558705348e+01  -4.1601895012e+00    0.1527892    0.1140032  33.10 0.0006083706    1.494    0.331
         8 -10.1460    148.3671    214.6404   8.8873266025e+01   8.1090650577e+00    0.2398825    0.2147753   5.14 0.0005197524    1.080    0.074
         9  -9.5867    216.0397    210.3076   7.3761555635e+01  -1.7485954553e+00    0.1828754    0.1494946  12.17 0.0005643487    1.130    0.115
        10 -10.0139    170.2008    200.8197   8.1526664001e+01   7.1996134826e+00    0.4343561    0.2256495  23.08  0.001054237    2.285    0.562
        11  -9.6253    165.1852    198.7993   8.2278321574e+01   8.4492236853e+00    0.3321823    0.2196052  62.08  0.001432663    2.438    0.590
        12 -11.4642    191.6600    192.3360   7.5278754254e+01   5.2205023921e+00    0.6176136    0.3512366 -63.48  0.002216849    3.876    0.742
        13  -9.1227     32.7810    196.8206   1.1423281803e+02   2.8681144472e+01    0.1793416    0.1576606 -73.92 0.0004907774    1.169    0.145
        14 -11.0595    248.3681    186.9703   6.3555873903e+01  -2.5472914868e+00    0.2962299    0.2378434 -62.82  0.001753725    2.024    0.506
        15 -11.1479    210.6785    188.3366   7.0646001421e+01   2.8424512766e+00    0.2922705     0.236038 -87.53    0.0014918    2.299    0.565
        16 -14.4422    227.2877     74.0757   4.3268762780e+01   1.9984948076e+01     1.084379    0.8895644 -31.09  0.002439393    1.327    0.246
        17  -9.2524    191.5836    235.8553   8.3059398792e+01  -2.3690112321e+00    0.1629359    0.1223553 -50.78 0.0009421962    1.783    0.439
        18 -12.1607    191.0906    154.1866   6.7515981422e+01   1.2763827410e+01      0.47583    0.3943691 -85.60  0.002403992    1.707    0.414
        19 -10.8734    135.4121    151.2265   7.9880341208e+01   2.4338199199e+01    0.7255996    0.3699585 -66.01  0.002258451    3.543    0.718
        20 -10.9212    133.4395    143.1623   7.8575061601e+01   2.6604117127e+01    0.9861105    0.2580981 -54.63  0.002158078    6.252    0.840
        21 -11.8251    178.5412    147.4541   6.8684688717e+01   1.6574748887e+01    0.4272894    0.3501125 -75.11  0.002102161    1.594    0.373
        22 -13.4045     20.1884    143.2798   1.1195025926e+02   4.3057446199e+01    0.8459293    0.7757641 -64.29  0.004072455    1.102    0.092
        23 -11.5804     67.8509    144.2699   9.7736244726e+01   3.7639590799e+01    0.8346623     0.486426  58.66  0.003438859    2.253    0.556
        24 -12.2513     47.2699    135.6412   1.0257913006e+02   4.2425303385e+01    0.4472674     0.421982 -16.24 0.0009533244    1.159    0.137
        25 -14.1266     59.0152    132.5325   9.8292959020e+01   4.1814910359e+01      2.17566     1.305424  10.17  0.004738674    2.241    0.554
        26 -14.1430    181.1528    138.1560   6.5991707494e+01   1.7966045285e+01     1.801322    0.6849458 -39.08  0.006198049    2.618    0.618
        27  -8.4946    121.7433    144.3058   8.1985991106e+01   2.8616742537e+01    0.1508948    0.1247321  87.33 0.0002300159    1.515    0.340
        28 -11.7312    190.3558    131.6894   6.2584462463e+01   1.7395401441e+01    0.4406657    0.3447286  64.50  0.001277158    1.552    0.356
        29 -10.2074    211.5858    230.0832   7.8118996747e+01  -4.2760354404e+00    0.2175076    0.1709659  15.81 0.0003683717    1.137    0.121
        30 -10.1430    151.3040    139.0180   7.3046472059e+01   2.3926481069e+01    0.2222012    0.2023463 -39.75 0.0004705465    1.079    0.073
        31 -13.3111    203.9857    133.0826   6.0260270667e+01   1.4403087234e+01    0.9642028    0.6598096  65.65   0.00331711    2.000    0.500
        32 -12.2929    208.0958    127.1402   5.8162775549e+01   1.4721254055e+01    0.4940286    0.3952782  46.30  0.002207591    1.372    0.271
        33 -11.4099    160.9817    128.4610   6.8185197167e+01   2.4199557607e+01    0.4482078    0.3193585 -59.84  0.002001283    1.629    0.386
        34 -13.9004    124.3224    107.5851   7.2147359650e+01   3.6577795243e+01     2.013408      1.06322  41.76  0.007923078    1.906    0.475
        35 -13.0410    185.8485    125.0718   6.1940473970e+01   1.9636960205e+01    0.8741945    0.5342858 -48.16   0.00249924    1.619    0.382
        36 -12.4027    190.7666    140.9062   6.4618549876e+01   1.5480025184e+01    0.9267402    0.4306239 -56.88  0.003043432    3.425    0.708
        37 -10.0967     32.7999    129.0613   1.0609933583e+02   4.5582158273e+01    0.2138318    0.1763119  89.10  0.001134699    1.254    0.202
        38 -11.8977    167.8593    115.4825   6.3404852561e+01   2.5419539617e+01    0.4556063    0.3116021  41.05  0.002077734    1.533    0.348
        39 -10.1480    176.9761    109.7942   6.0034403796e+01   2.4552186558e+01    0.2527246     0.212116 -42.70 0.0005195572    1.146    0.127
        40 -10.5405    139.2821     98.6795   6.5726241633e+01   3.5201122067e+01    0.3450004    0.3042475 -83.46 0.0006863583    1.314    0.239
        41 -13.2648    134.3880    107.2926   6.9344476224e+01   3.4484778112e+01     2.391033     0.476576 -46.99  0.005512236    5.553    0.820
        42 -10.1880     88.8677     94.9454   7.9406843884e+01   4.6351738110e+01    0.2268981    0.2091705  20.38 0.0002630939    1.084    0.077
        43 -10.8057    157.5405     90.4709   5.9144446741e+01   3.2651130551e+01     0.305456    0.2610406  23.74  0.001117145    1.323    0.244
        44 -11.1083    127.0781     78.2982   6.2991195474e+01   4.1904043068e+01    0.4336602    0.2876234 -46.73  0.001133953    1.597    0.374
        45 -10.0437    170.2629     75.5999   5.2510057782e+01   3.2338427184e+01    0.2909632    0.2191074 -70.18 0.0007846094    1.527    0.345
        46  -9.2870    158.4865     74.9827   5.4678920794e+01   3.5207289271e+01    0.2173569     0.196657  63.12 0.0003805851    1.084    0.077
        47  -9.1684    111.0304     72.4745   6.5618285038e+01   4.6510056137e+01    0.2410706    0.1867448 -36.41 0.0009599883    1.323    0.244
        48  -9.3965    151.4352     71.5171   5.5188369925e+01   3.7456741737e+01    0.1444233    0.1410037  67.02  4.53659e-05    1.013    0.013
        49  -9.8667    105.8683     61.5230   6.3562583463e+01   4.9539179928e+01    0.2974992    0.2163416  -1.50 0.0009705096    1.721    0.419
        50 -10.4580    183.7686     60.5396   4.6209866975e+01   3.1582913184e+01    0.2772754    0.2523162  58.55 0.0009413122    1.154    0.133
        51 -13.2353    164.5211     55.9174   4.8221390803e+01   3.6807018517e+01     0.918814    0.5581664  76.26  0.004161034    1.918    0.479
        52  -9.0217    179.2597    229.9738   8.4639146819e+01   4.1523490573e-01    0.1514094    0.1109824 -37.17 0.0002228518    1.450    0.310
        53 -11.9228    195.7093     37.6357   3.8848696689e+01   3.2003497047e+01    0.7153046    0.3073139  65.20   0.00114868    2.177    0.541
        54 -12.1183    187.3092     45.2026   4.1798224520e+01   3.2943118631e+01    0.5146448    0.4212489 -14.97  0.001283283    1.561    0.360
        55 -11.5300    179.8181     39.4210   4.1378119597e+01   3.5449209807e+01    0.3806715    0.2792833 -65.97 0.0003016823    1.381    0.276
        56 -11.3692    140.8767     51.6201   5.1581035702e+01   4.3082510497e+01     0.305407    0.1963768 -32.48  0.001108785    1.675    0.403
        57 -12.9687    137.9057     42.2114   4.9319620236e+01   4.5091433023e+01     0.539491    0.4970513 -32.95  0.002613248    1.184    0.155
        58 -12.1687    168.0704     42.3789   4.3916163721e+01   3.7845485700e+01    0.5557896    0.3449503  27.86  0.002331836    2.544    0.607
        59 -10.7290    122.9944     44.9743   5.3500349808e+01   4.8230611171e+01    0.2166216    0.2016546  49.16 0.0005969591    1.024    0.024
        60 -13.0526    182.1435     51.7722   4.4213545219e+01   3.3239810766e+01    0.8011342    0.5564613  85.24  0.001802044    1.540    0.351
        61 -11.2470    121.2279     38.0114   5.1616031510e+01   4.9565299844e+01    0.3022411    0.2408738   4.45 0.0008138957    1.468    0.319
        62  -8.7462     41.3139     36.0107   7.7961666287e+01   6.5155152198e+01     0.210168   0.08117303 -25.78 0.0007041869    4.211    0.763
        63 -10.6431    183.0667     31.7975   3.9001498447e+01   3.5636715018e+01    0.3102419    0.1784785 -38.74  0.001008504    1.756    0.430
        64 -11.5307    123.6436     32.4163   4.9215146669e+01   4.9692348215e+01    0.3313852    0.2416122  70.42  0.001145933    1.408    0.290
        65  -9.9014    192.9906     31.6602   3.7740743022e+01   3.3364138381e+01    0.2486234    0.1537775 -61.77  0.001315637    1.632    0.387
        66 -11.2565    144.2139     31.7689   4.4921035482e+01   4.4884822432e+01    0.2456167    0.1940573  -8.41 0.0007118934    1.564    0.361
        67  -8.8939     42.7470     30.9794   7.5206892772e+01   6.5745354270e+01    0.1622343   0.09806127 -33.27 0.0008928594    1.590    0.371
        68 -11.3819    151.3166     26.3383   4.2107744347e+01   4.3802612879e+01    0.2912812    0.1958871  37.50  0.001277283    1.719    0.418
        69 -10.5112    187.1854     24.0648   3.6581345303e+01   3.5584510203e+01    0.2242596    0.1765891  60.63 0.0003947388    1.291    0.225
        70 -10.6883    179.9603     24.0162   3.7433437719e+01   3.7264521996e+01    0.4115296    0.2776157  74.98  0.002332753    1.332    0.249
        71  -9.5572    180.9469    225.3186   8.3510961667e+01   9.5910380718e-01    0.1862729    0.1507245  16.65 0.0003331018    1.076    0.071
        72  -9.3049    211.2868    163.0062   6.5393092268e+01   7.3778859022e+00    0.1945312    0.1626967 -28.67 0.0002367225    1.071    0.066
        73  -9.4741    174.2982    180.6433   7.6726330295e+01   1.0517878125e+01    0.1417571    0.1199031 -89.95 0.0007035338    1.703    0.413
        74  -9.2604    205.8710    160.8131   6.5974775911e+01   8.7462720743e+00    0.1809609    0.1708669 -79.75 0.0004267239    1.337    0.252
