#   1 NUMBER                 Running object number                                     
#   2 MAG_AUTO               Kron-like elliptical aperture magnitude                    [mag]
#   3 X_IMAGE                Object position along x                                    [pixel]
#   4 Y_IMAGE                Object position along y                                    [pixel]
#   5 X_WORLD                Barycenter position along world x axis                     [deg]
#   6 Y_WORLD                Barycenter position along world y axis                     [deg]
#   7 A_WORLD                Profile RMS along major axis (world units)                 [deg]
#   8 B_WORLD                Profile RMS along minor axis (world units)                 [deg]
#   9 THETA_WORLD            Position angle (CCW/world-x)                               [deg]
#  10 FWHM_WORLD             FWHM assuming a gaussian core                              [deg]
#  11 ELONGATION             A_IMAGE/B_IMAGE                                           
#  12 ELLIPTICITY            1 - B_IMAGE/A_IMAGE                                       
         1 -11.3375     75.5767     20.0592   6.6780202901e+01   6.2099436190e+01    0.4671887       0.2783 -12.73  0.002381524    1.763    0.433
         2 -10.9617      2.0853     21.9310   1.0150804276e+02   7.0880064837e+01    0.2921418    0.1493977 -49.77 0.0009640127    1.531    0.347
         3 -11.0718     42.5976     14.7267   7.7472777857e+01   6.8155364614e+01    0.3053401    0.2327908  12.15     0.001089    1.161    0.138
         4  -9.8116     15.3998      8.7823   8.8374882344e+01   7.2116805237e+01    0.2621399    0.1243236 -14.37  0.001303466    2.516    0.602
         5 -10.8409     13.9675     16.0822   9.2621907572e+01   7.1087913335e+01    0.2565884    0.2372357   9.25  0.001075766    1.516    0.341
         6 -11.2617    234.7757     15.0971   3.6644252586e+01   2.5264939452e+01    0.2265743    0.1892027 -63.17 0.0002435414    1.036    0.035
         7 -10.9290     89.8380     13.6656   5.9383624006e+01   6.0000895377e+01    0.3990861    0.1895997 -36.04  0.001823602    2.375    0.579
         8 -11.5370     66.7403     13.5871   6.6939253803e+01   6.4483669945e+01    0.4824622    0.2596156  45.57  0.002495269    1.829    0.453
         9 -10.5001     37.1156      6.4778   7.5824015295e+01   6.9981685698e+01     0.310781    0.1801208 -35.76  0.001808374    1.812    0.448
        10  -9.8458     25.7082      2.9689   7.9679231242e+01   7.1863473949e+01    0.1700988    0.1420126  15.64 0.0006267774    1.401    0.286
        11 -11.4882     34.7035     12.6761   8.0191537395e+01   6.9471157227e+01    0.2893938    0.2433965 -10.57 0.0009771276    1.220    0.181
        12 -11.5371     30.3167      7.4393   7.9688736826e+01   7.0726438785e+01    0.4337259    0.3467178  -6.77  0.003082455    1.131    0.116
        13 -10.3012    134.9528     11.6419   4.8074479306e+01   4.9852127422e+01    0.2188118    0.1941788 -31.15 0.0003464741    1.250    0.200
        14  -9.9073     99.5774     11.7589   5.5879385026e+01   5.8107480317e+01    0.2482089    0.1661775  50.65  0.001169189    1.347    0.257
        15 -10.3444    125.9935     11.0092   4.9557645809e+01   5.2082870705e+01     0.199674    0.1744445  43.36   -0.0106749    1.023    0.023
        16  -9.6733      3.7851     10.8467   9.6019938837e+01   7.2698581480e+01    0.1338802    0.1066689 -34.27 0.0004200684    1.253    0.202
        17  -9.9330     92.9565     10.0299   5.6919176816e+01   5.9706858205e+01    0.2107161    0.1298042  27.17 0.0003256499    1.582    0.368
        18 -11.9193     57.2111      4.3295   6.5970126799e+01   6.7157751580e+01     0.651466    0.2935915 -25.50  0.002738823    2.148    0.534
        19 -10.4308     22.3291      9.5524   8.4957615360e+01   7.1328957790e+01    0.3254187     0.180583   4.01  0.001847145    1.924    0.480
        20 -10.2249     85.8672     12.1079   5.9874517911e+01   6.0981173444e+01    0.2433802     0.210947  69.72 0.0004235949    1.505    0.335
        21 -10.2334     65.0710      6.7262   6.4222706150e+01   6.5534840005e+01    0.4237632    0.1968133  54.06  0.001965656    2.551    0.608
        22 -10.3333     71.6619      7.3072   6.2194422570e+01   6.4261104790e+01    0.2505722    0.1891582  43.50  0.001115649    1.307    0.235
        23 -10.6696     70.4744      4.4910   6.1236911160e+01   6.4761241943e+01    0.4214813    0.2059674  51.04  0.001595752    1.984    0.496
        24  -9.5715    211.7145      5.6329   3.6411172370e+01   3.1538027956e+01    0.1880203    0.1379226  40.70   0.00057493    1.717    0.418
        25  -9.2937    151.3461      6.1533   4.3516482135e+01   4.6293113629e+01    0.1758813    0.1160398 -37.54 0.0001600756    1.648    0.393
        26  -9.5418      2.4482      6.5159   9.4814934575e+01   7.3489127293e+01    0.1946359   0.09713809  14.08 0.0008385809    2.073    0.518
        27  -9.5306     41.9759      4.9312   7.2726396682e+01   6.9491118187e+01    0.1923114     0.116407   3.92 0.0009933641    1.624    0.384
        28  -9.1971    107.6401      4.7716   5.1046452120e+01   5.6930771259e+01    0.1524571    0.1198593 -26.01            0    1.419    0.295
        29  -9.2654    104.4418      4.4960   5.1668379531e+01   5.7679159357e+01    0.1763741    0.1218229  69.28  8.91942e-05    1.580    0.367
        30 -10.5809    101.4782      1.9143   5.1295111628e+01   5.8554545341e+01    0.3501531    0.1542769  52.80 0.0008532059    1.858    0.462
        31  -9.5857    129.9663      3.0558   4.5928849005e+01   5.1807896954e+01    0.1596085    0.1410514  51.25 0.0005385777    1.016    0.016
        32 -10.8851     20.5344      2.0735   8.1987606014e+01   7.2562032820e+01    0.2060529    0.1474354   2.59  0.000537812    1.155    0.134
        33  -9.3101      1.3169      2.5814   9.3590264537e+01   7.4182169295e+01     0.187849   0.07901194 -44.38  0.001061437    1.935    0.483
        34  -9.4223    176.1800      2.6287   3.9207895293e+01   4.0421889734e+01    0.1875643    0.1027444  60.91 0.0004167075    1.614    0.381
        35 -11.1977     80.4117      1.7020   5.6763579225e+01   6.3068241760e+01    0.3186024    0.1536768  50.70 0.0009700333    1.806    0.446
        36 -10.3670     11.3741      1.7765   8.7068870040e+01   7.3507501328e+01     0.165517    0.1315091   6.35 0.0003479809    1.326    0.246
        37 -10.1239    244.2065      1.7635   3.3019128068e+01   2.4645023567e+01    0.1865854   0.07401749  63.25 0.0008892215    2.513    0.602
        38 -10.1327    153.8631      1.3291   4.1620547703e+01   4.6072972388e+01    0.1920695    0.1096381  68.71 0.0003782538    1.538    0.350
        39 -10.0753      6.1988    191.7547   1.2612498878e+02   3.2826039064e+01    0.1751792    0.1199021  73.84  0.001202026    1.158    0.136
        40 -11.8183     14.2162    239.0088   1.2719380625e+02   2.2701134035e+01    0.2717017    0.1252755  67.05 0.0009252448    1.763    0.433
        41 -12.5693      5.6421    240.1099   1.2865876867e+02   2.3327450832e+01     0.470238    0.2960329  41.80  0.003284862    1.576    0.366
        42 -12.1049      4.0442    232.6302   1.2860178418e+02   2.4851724030e+01    0.2519571     0.160772  67.86  0.001880117    1.137    0.120
        43 -12.5387      9.8158    227.5479   1.2738911568e+02   2.5270541090e+01    0.3887912    0.2722942 -84.13  0.001721321    1.304    0.233
        44 -11.2974      3.2686    249.3353   1.2941050955e+02   2.1906816813e+01    0.4135641    0.2211853  50.16  0.003006537    1.454    0.312
        45 -12.3656     10.0174    246.1806   1.2820868307e+02   2.1817446156e+01    0.5163745    0.2462372  60.29  0.003442028    1.559    0.359
        46  -9.6483     22.5064    179.9399   1.2192598427e+02   3.3959227120e+01    0.1757909   0.09850706 -77.37 0.0004239026    1.497    0.332
        47  -9.3490     13.4866    180.4998   1.2389730007e+02   3.4645706124e+01    0.1213257   0.08929109  79.33 5.609825e-05    1.091    0.083
        48 -11.2524      5.4842    167.3101   1.2466721515e+02   3.8241147398e+01    0.3383115    0.1646374  88.42  0.001830177    1.784    0.440
        49  -9.7382    226.6386    163.9826   7.2931307151e+01   3.8893049045e+00    0.2023734    0.1622929 -23.42 0.0008821171    1.130    0.115
        50  -9.2684     91.9784    161.0103   1.0293768886e+02   2.9789653167e+01     0.164761    0.1531586 -85.92            0    1.013    0.013
        51  -9.2002     41.2745    157.7047   1.1535405793e+02   3.7251014505e+01    0.1298754   0.08635594  73.76 0.0002832036    1.525    0.344
        52  -9.4349    247.4611    155.4570   6.7429270780e+01   1.6189621954e+00    0.1371624    0.1144238 -13.90 0.0002359467    1.015    0.015
        53  -9.6188     43.9602    153.3434   1.1413897870e+02   3.8010713355e+01    0.1707172    0.1555239  80.84  0.000352044    1.108    0.098
        54 -11.5758      2.6786    152.5075   1.2418745252e+02   4.1813617868e+01    0.3748674    0.1978928 -84.89  0.002131431    1.529    0.346
        55 -10.6407     15.7507    150.4470   1.2088363483e+02   4.1328116791e+01     0.195236    0.1130819  34.02 0.0008161127    1.941    0.485
        56  -9.5581    237.5587    149.5529   6.7830011776e+01   4.3237361144e+00    0.1400063    0.1204679 -15.76 9.755458e-05    1.003    0.003
        57 -10.2150    212.7792    133.8923   6.8731927611e+01   1.1850782090e+01    0.2914527    0.2133894  52.18 0.0008518368    1.544    0.352
        58  -9.3669     96.0354    133.9611   9.6697125908e+01   3.5642813160e+01    0.1800524    0.1681875 -62.61 0.0005250932    1.017    0.017
        59  -9.6239     23.8638    133.8252   1.1698593336e+02   4.4637806042e+01    0.1649563    0.1270021  77.79 0.0002299661    1.277    0.217
        60 -10.4299      1.8064    132.6434   1.2270039142e+02   4.6486676012e+01    0.2230786    0.1729708  89.60 0.0008379229    1.106    0.096
        61 -11.0489     11.7574    129.4771   1.1975353933e+02   4.6593966922e+01    0.3391421    0.1941152  64.30  0.001837301    1.948    0.487
        62  -9.6039     28.6832    128.2904   1.1493495802e+02   4.5572812281e+01    0.1287528   0.08798803  72.04 0.0002493593    1.596    0.373
        63 -11.9515      8.7228    121.3921   1.1967611608e+02   4.8719176700e+01    0.3626652    0.3023416 -88.20  0.001023117    1.122    0.109
        64  -9.3927     38.5433    123.4463   1.1138246321e+02   4.5854416257e+01     0.133406    0.1129332 -71.45 0.0001141877    1.018    0.018
        65 -10.2908      1.5316    122.1045   1.2174046063e+02   4.8979250836e+01    0.2964731    0.1000449 -81.83  0.001220236    2.792    0.642
        66 -11.6678     23.7412    121.1339   1.1536200703e+02   4.7717207235e+01    0.4074189     0.242634  72.55  0.001174262    2.016    0.504
        67 -10.5698     17.5449    122.0063   1.1725997544e+02   4.7975405846e+01     0.167711    0.1635719 -68.27 0.0004612507    1.231    0.187
        68  -9.6622     41.7176    117.3039   1.0941697379e+02   4.7046590135e+01    0.1309248   0.09611177  78.89 0.0006972516    1.555    0.357
        69 -10.4708     65.6083    110.6948   1.0069576932e+02   4.5895074001e+01    0.3006367    0.2371705 -88.73 0.0008208732    1.483    0.326
        70  -9.5372     44.2567    110.3876   1.0737893917e+02   4.8478381982e+01     0.145003   0.08513516 -42.88 0.0006966476    1.681    0.405
        71 -10.7676     22.7185    110.3142   1.1408995495e+02   5.0410271930e+01    0.1923711    0.1574445 -79.27 0.0002609796    1.122    0.109
        72 -10.9177     24.0182    106.6951   1.1311704883e+02   5.1182771090e+01     0.363658    0.2357373   9.93  0.002036938    2.002    0.501
        73 -11.7970      3.4064    108.8677   1.1972676132e+02   5.1996782402e+01    0.3840979    0.2366249 -19.66     0.001412    2.170    0.539
        74  -9.8521     35.4943    108.7178   1.0984053043e+02   4.9733853677e+01    0.2652447    0.1681809 -83.93   0.00134177    1.726    0.421
        75 -10.9952     57.8584    107.4404   1.0244963175e+02   4.7669151749e+01    0.2923774    0.2231752 -22.50 0.0008337138    1.521    0.343
        76  -9.7148     89.1757    105.1414   9.1973475015e+01   4.3701308227e+01     0.203949    0.1784535 -84.03 0.0005988523    1.321    0.243
        77 -10.2278    186.9209    103.0409   6.6042729222e+01   2.3308843437e+01    0.2323673    0.2236799 -36.40 0.0005429585    1.026    0.025
        78  -9.4896    246.6278    101.7014   5.5471760953e+01   1.0516764370e+01    0.1388095    0.1041511   8.81 0.0005170376    1.743    0.426
        79  -9.8292      1.5236    101.5066   1.1937786265e+02   5.3823743929e+01    0.1233225   0.09383464 -68.06 0.0008101669    1.009    0.009
        80 -11.1932     19.6790     99.7132   1.1336334647e+02   5.3170306452e+01    0.2553834    0.1635567 -42.36 0.0008143297    1.500    0.333
        81 -11.7168     10.1464     91.7053   1.1519864399e+02   5.5662899381e+01    0.5002355    0.2535061 -80.34 0.0003649357    1.983    0.496
        82 -11.6256     11.6151     86.1319   1.1376280766e+02   5.6876873481e+01    0.3829148    0.1838455 -81.12  0.001781663    2.348    0.574
        83 -11.1575     24.1557     88.2579   1.0978121206e+02   5.5554024630e+01    0.3622885    0.2148462 -53.68 0.0004125018    1.337    0.252
        84 -12.3499     20.9859     92.7995   1.1173235443e+02   5.4716691868e+01    0.3474518       0.2803 -31.72  0.000465291    1.305    0.234
        85 -10.9465     19.1198     86.8524   1.1127368791e+02   5.6239616920e+01     0.312806    0.1819557 -70.61 0.0009646978    1.538    0.350
        86 -10.5798      3.7768     94.8529   1.1776930225e+02   5.5267543213e+01    0.2236766    0.1701534 -88.26  0.001463054    1.292    0.226
        87 -11.7912    125.1891     93.3045   7.8001092210e+01   3.9443133887e+01    0.2719625    0.2627915 -21.87 0.0002242293    1.016    0.016
        88  -9.8068     78.9629     94.0457   9.2298395541e+01   4.7928816270e+01    0.2206513    0.1649375 -17.12 0.0004322977    1.563    0.360
        89 -10.0386     28.9706     92.3283   1.0891577357e+02   5.4222442234e+01    0.2074633    0.1623808 -73.47 0.0006134416    1.232    0.188
        90  -9.4323    113.2813     92.0076   8.1009044985e+01   4.2207086218e+01    0.2107327    0.1910131 -34.69            0    1.059    0.056
        91 -10.9037     57.9135     91.7286   9.8779427880e+01   5.1407494164e+01    0.2903751    0.2324611  -6.58 0.0008413263    1.422    0.297
        92 -10.2949     42.0796     88.4664   1.0351399336e+02   5.3943661476e+01    0.2890432    0.1743637  58.03  0.001336246    2.523    0.604
        93  -9.6002     64.5683     88.5145   9.5654458515e+01   5.1291574548e+01    0.1421934    0.1257109 -44.20 5.803916e-05    1.029    0.028
        94 -11.5246     55.7953     85.6852   9.7972167624e+01   5.3067321869e+01    0.3040534    0.2405234  11.97 0.0008959864    1.427    0.299
        95  -9.1268    145.7830     83.3688   6.9622780397e+01   3.6801452547e+01    0.1557841    0.1173107 -59.97 0.0006502655    1.578    0.366
        96  -9.6021     76.7873     82.7801   8.9839361334e+01   5.0808388515e+01    0.1784765    0.1669863 -77.06 0.0003700338    1.262    0.208
        97 -10.9522      3.0616     82.3819   1.1610917894e+02   5.8187480855e+01    0.3045166    0.2191434 -84.17  0.001290435    1.382    0.277
        98  -9.2852    250.3211     81.2795   5.0243991170e+01   1.2992373586e+01     0.126846    0.1034998   9.44 0.0003643301    1.584    0.369
        99  -9.6081     89.5276     81.0507   8.5051245451e+01   4.9070200678e+01    0.2250485    0.1390318 -47.55 0.0006702101    1.559    0.359
       100 -10.2502     64.9578     79.8396   9.3104070125e+01   5.3197460531e+01    0.2487258    0.2064164 -56.44 0.0008148357    1.234    0.189
       101  -9.8247    124.5013     79.0821   7.3841534081e+01   4.2493159652e+01    0.2298355    0.1496763 -39.34 0.0005875181    1.509    0.337
       102  -9.1760     24.3426     79.3212   1.0785805948e+02   5.7609909862e+01    0.2572916   0.09980994 -30.08 0.0009432379    3.804    0.737
       103 -10.1945     28.0483     77.0880   1.0597510247e+02   5.7832771198e+01    0.1877506     0.155199 -45.48 0.0003739295    1.039    0.037
       104  -9.7521    176.6949     76.9475   6.0861043365e+01   3.0509795602e+01    0.2198457    0.2016906 -39.94 0.0008910862    1.071    0.067
       105 -10.0577     55.4400     75.8749   9.5410224906e+01   5.5320935439e+01    0.2605933    0.1825309 -43.97 0.0007768301    1.231    0.188
       106 -10.3281     42.1496     75.6877   1.0031863715e+02   5.6864466654e+01    0.2478336    0.1832309 -45.94 0.0006215335    1.126    0.112
       107 -10.6674     14.9435     75.6548   1.1057182272e+02   5.9084355858e+01    0.2293161    0.1780369  54.22  0.001086878    1.684    0.406
       108 -11.2836     35.9485     73.9505   1.0221493896e+02   5.7858232252e+01     0.394742    0.3263592  52.48  0.001497382    1.573    0.364
       109  -9.0916    248.5396     74.5197   4.8905802376e+01   1.4383185397e+01    0.1365497    0.1166727 -47.40 0.0001444532    1.021    0.021
       110 -10.7408     20.9608     73.0071   1.0772146161e+02   5.9287886147e+01    0.2881128    0.1696313 -64.10 0.0007628648    1.486    0.327
       111  -9.2304     81.4142     73.5500   8.5409121616e+01   5.2043367768e+01    0.1449878     0.130069 -25.49 5.460107e-05    1.013    0.013
       112  -9.5271    216.8916     72.1593   5.2619457952e+01   2.1671500630e+01    0.1835937    0.1663209  -0.89 0.0003617007    1.261    0.207
       113 -10.8096    106.3907     71.4316   7.6611431934e+01   4.7832467312e+01    0.3427435    0.2736117  71.27  0.001570537    1.708    0.415
       114  -9.5855     91.4988     71.5513   8.1367126427e+01   5.0688902179e+01    0.2624537    0.1355844 -52.66 0.0008461424    2.283    0.562
       115 -11.2234     10.9005     68.9591   1.1070789788e+02   6.0826197582e+01    0.3656365    0.2425565 -67.38  0.002180025    1.338    0.253
       116 -11.1577      6.7741     63.8017   1.1122477889e+02   6.2184553147e+01    0.2936723    0.2359047 -54.40  0.002028219    1.069    0.065
       117 -11.3659      5.1407     68.2720   1.1279596536e+02   6.1277222603e+01    0.3294638    0.2248145  73.26  0.001775597    2.037    0.509
       118 -10.6565      1.3804     66.6866   1.1393764136e+02   6.1799106317e+01    0.1794123   0.09441812 -66.25 0.0005148893    1.511    0.338
       119  -9.1885    100.2041     70.6647   7.8270657924e+01   4.9216694397e+01    0.1394896    0.1112473 -58.50 0.0003002599    1.506    0.336
       120  -9.1823     56.3748     69.5047   9.3169995089e+01   5.6587598059e+01    0.3097048    0.1608995 -22.70  0.001218978    2.825    0.646
       121 -10.1662     46.2849     69.2316   9.6943710448e+01   5.7848322298e+01    0.3307207    0.2032314   4.96  0.001637478    2.062    0.515
       122 -10.2359     16.0451     67.4663   1.0836258915e+02   6.0852031995e+01    0.2813519    0.1937044  88.05  0.000990074    1.988    0.497
       123  -9.7292     15.6333     63.4527   1.0758003718e+02   6.1760825553e+01    0.3261931    0.1589068  20.39  0.001716441    2.417    0.586
       124  -9.9142     80.6825     67.3237   8.3615865732e+01   5.3438907798e+01    0.2048743    0.1270353 -34.31 0.0005802721    1.539    0.350
       125  -9.7003     77.6061     66.7410   8.4497880653e+01   5.4066904399e+01    0.2285945    0.2203216 -21.56  0.000503465    1.152    0.132
       126  -9.5825     34.5878     64.2751   1.0012690595e+02   6.0109870278e+01    0.2421849    0.1133568 -58.81 0.0009625784    2.006    0.501
       127  -9.5868     96.8762     64.1561   7.7113022090e+01   5.1116345257e+01    0.1957372    0.1603274   1.71            0    1.266    0.210
       128  -9.0007     72.7072     63.7403   8.5235511219e+01   5.5454246005e+01    0.1381594    0.1010251  -9.82 0.0002392965    1.497    0.332
       129  -9.9703     63.0064     62.1959   8.8307802728e+01   5.7214943468e+01     0.259383    0.1528919 -32.80    0.0012428    1.622    0.383
       130 -10.6505     39.7408     60.7355   9.6996387401e+01   6.0359383447e+01    0.4525885    0.2218894 -32.32  0.002079942    2.103    0.525
       131 -13.5244     20.3442     57.9834   1.0423460201e+02   6.2625367610e+01    0.3796301    0.2837385 -60.07  0.001250758    1.278    0.217
       132 -10.2723     49.1472     59.5972   9.2840688421e+01   5.9552567886e+01    0.2301014    0.2016904 -74.75  0.001014005    1.528    0.345
       133 -10.3309    194.0829     58.9277   5.2625567290e+01   2.9162919338e+01    0.3016659    0.2010093  68.02 0.0009112026    1.572    0.364
       134 -10.9866     83.9415     57.0009   7.8878381996e+01   5.4859675745e+01    0.3393255    0.2573104 -53.67  0.001517517    1.600    0.375
       135 -11.0891     88.4468     52.6289   7.5737489156e+01   5.4818773235e+01    0.3566844    0.2520776 -26.03  0.001187363    1.369    0.270
       136 -10.3104      9.9730     59.5417   1.0895792548e+02   6.2944430133e+01    0.1576982    0.1166187   6.43  0.000534078    1.590    0.371
       137 -11.2723      4.7569     57.4300   1.1062845488e+02   6.3667118874e+01    0.2699248    0.2372279 -26.93  0.001981648    1.229    0.186
       138 -10.2662      8.5258     56.4605   1.0882026712e+02   6.3685107364e+01    0.3074968   0.09931403  23.17  0.001395673    3.498    0.714
       139  -9.7484     71.5895     56.4303   8.3084526950e+01   5.7052678703e+01    0.2426829    0.1262237 -46.25  0.001030916    1.912    0.477
       140 -10.2833     32.8177     55.9549   9.8389680674e+01   6.2031682832e+01    0.5137811    0.2727815 -28.92    0.0025598    1.924    0.480
       141  -9.5290    104.4072     56.4683   7.2042441163e+01   5.0993201506e+01    0.2103001    0.1319903 -42.26 0.0004984445    1.653    0.395
       142 -10.3633    105.5721     52.8000   7.0363858257e+01   5.1373102089e+01    0.2472885    0.2251633  32.13 0.0003565069    1.104    0.094
       143 -11.4399    114.4789     53.8700   6.8162712388e+01   4.9274394475e+01    0.3206499    0.2850513 -18.05 0.0006569422    1.103    0.093
       144 -12.0388     65.9058     52.6383   8.3838631411e+01   5.8648775646e+01     0.473386    0.2260001  34.96  0.001413002    2.205    0.547
       145  -9.6196    121.8890     51.6491   6.5348107323e+01   4.7967872521e+01    0.1999143    0.1793932  43.43 0.0003581169    1.107    0.096
       146 -10.3128      4.4153     50.4796   1.0910705865e+02   6.5159391106e+01    0.2893778    0.1990638  -0.46  0.001902802    1.657    0.397
       147 -10.8032      9.1878     46.6404   1.0596496258e+02   6.5707517566e+01    0.4288353    0.1795822 -57.11  0.001888068    1.859    0.462
       148  -9.7539     19.8439     44.8416   1.0058271608e+02   6.5375708777e+01    0.2014446    0.1417604 -19.31 0.0005324582    1.332    0.249
       149 -10.2298     13.8844     48.6076   1.0441420737e+02   6.5022668559e+01    0.2945808    0.1646906 -49.88  0.001313828    1.361    0.265
       150 -10.9960     14.7803     42.5063   1.0217290672e+02   6.6199529500e+01    0.5213878    0.3427133  85.67  0.002530278    3.413    0.707
       151 -11.6872     77.5862     46.4691   7.7166586240e+01   5.7846710952e+01    0.4789335     0.344796  -1.90  0.001189369    1.490    0.329
       152  -8.9650    161.3021     49.7113   5.5710818237e+01   3.8711688199e+01     0.147726    0.1134226 -70.97 0.0002857278    1.563    0.360
       153 -10.0557     38.6703     48.5153   9.3449507729e+01   6.2950089631e+01    0.2076614    0.1564078 -30.31 0.0002220404    1.091    0.083
       154  -9.8860    154.7872     47.6570   5.6350937654e+01   4.0639627982e+01    0.2430478    0.1989396 -31.40 0.0004885647    1.258    0.205
       155  -9.1647    152.2623     44.6825   5.5901839341e+01   4.1693021143e+01    0.1448407    0.1113156 -63.75 0.0002171522    1.546    0.353
       156 -10.8297     56.4060     46.5942   8.5315176716e+01   6.1144078525e+01    0.3845645    0.3547258   7.01  0.001196649    1.217    0.178
       157 -10.9384     27.1238     43.8224   9.6933430249e+01   6.4985781076e+01    0.4966097    0.2059723 -42.43   0.00240303    1.910    0.477
       158  -9.5136     31.3725     46.1615   9.5828500295e+01   6.4141536832e+01    0.1870058    0.1448727 -77.40 0.0004883549    2.006    0.502
       159  -9.1272     66.8916     47.0000   8.1339882435e+01   5.9523645471e+01    0.2201377   0.07520244  37.96 0.0003138619    3.053    0.672
       160 -10.1658     35.6573     41.2702   9.2168339797e+01   6.4653328369e+01    0.3198237    0.2801584  -9.37  0.002159166    1.167    0.143
       161  -9.4338    184.9103     42.3072   4.9388587346e+01   3.3818720421e+01    0.2876616    0.1322249  71.64  0.001089439    2.496    0.599
       162 -10.7887    140.8215     41.0146   5.7083633823e+01   4.5033062874e+01    0.2943224    0.2359022 -57.70 0.0009388342    1.453    0.312
       163 -10.6314     69.2841     42.0062   7.8467922152e+01   6.0002386737e+01    0.2310818    0.1863978  22.54  0.001348619    1.213    0.175
       164 -10.8179      7.7747     34.1682   1.0284499476e+02   6.8271258247e+01    0.5700352     0.130603  27.52  0.002315475    4.667    0.786
       165 -11.0182      5.7462     39.0479   1.0536110170e+02   6.7428752702e+01     0.541455    0.1397553 -39.49  0.002264846    3.025    0.669
       166 -10.7898      3.3591     36.2756   1.0567321060e+02   6.8099892861e+01    0.2827612    0.1576818 -25.41  0.001709318    1.646    0.392
       167 -10.1539     43.0265     40.1690   8.8481493877e+01   6.4033890365e+01    0.2478816     0.158215 -40.05  0.001047826    1.374    0.272
       168  -9.0560    152.6515     39.2465   5.4057575532e+01   4.2338819682e+01    0.1435807    0.1106448 -80.80 0.0003365627    1.580    0.367
       169 -10.2595    128.1411     38.8349   5.9210879182e+01   4.8395998989e+01    0.1994449    0.1931097 -81.24 0.0003392236    1.168    0.144
       170 -11.7207    121.5422     37.5149   6.0344925133e+01   5.0128791491e+01    0.4118762    0.3586526 -32.89  0.001411405    1.223    0.182
       171 -10.0248     22.3136     38.0755   9.7155598922e+01   6.6501948756e+01    0.1778911    0.1424344  -7.69 0.0005062253    1.217    0.178
       172 -11.4197     26.9129     35.6164   9.4078331870e+01   6.6562314470e+01    0.3873207    0.1824528 -37.00   0.00148019    1.753    0.430
       173 -10.5180     90.8451     35.2590   6.8183863124e+01   5.7121645664e+01    0.3286936    0.2194792   1.52 0.0009393211    1.734    0.423
       174 -10.4749     96.9870     34.9876   6.6158485528e+01   5.5907767277e+01    0.2136154    0.1806995  12.76 -0.007547014    1.087    0.080
       175 -11.5500     39.0966     32.8621   8.7313327018e+01   6.5785682103e+01    0.4899494    0.3267243 -42.28  0.002090308    1.438    0.304
       176  -8.9766    212.6563     34.3038   4.3471773489e+01   2.8074036612e+01    0.1460978   0.09280577 -66.14 0.0004925195    1.685    0.406
       177  -9.6332    133.6838     34.6574   5.6453286115e+01   4.7617721549e+01    0.1539429    0.1033426  25.51 0.0007048399    1.712    0.416
       178 -10.4174     72.8763     33.2163   7.3504844031e+01   6.0790477891e+01    0.2882189    0.2603084  33.35   0.00179139    1.285    0.222
       179 -10.0454     16.5092     32.9905   9.8128974958e+01   6.7915310748e+01    0.2142566    0.1353431 -15.15 0.0006191328    1.519    0.342
       180 -10.1302     20.3646     31.3153   9.5605828032e+01   6.7921986204e+01    0.2779965    0.1623515 -10.99 0.0008722313    1.794    0.443
       181 -10.8560    128.0661     30.5544   5.6251806848e+01   4.9486887022e+01    0.3533992    0.2950643 -44.20 0.0009717717    1.342    0.255
       182  -9.4361    119.5769     29.8209   5.7979713788e+01   5.1584034127e+01    0.1826618    0.1289285 -39.22 0.0004712497    1.563    0.360
       183 -11.3778     45.2934     27.5246   8.2231840253e+01   6.5901120778e+01    0.4795828    0.3619357  10.56  0.003016846    1.232    0.188
       184 -10.7492      7.8327     28.3064   1.0080358299e+02   6.9377311816e+01    0.3410083    0.2786461  67.50  0.002263625    2.166    0.538
       185 -10.5673     69.1975     27.0586   7.2208451750e+01   6.2323267898e+01     0.388775    0.2251551 -43.94  0.001247173    2.137    0.532
       186 -11.1458    113.8312     26.3256   5.8074536156e+01   5.3335666863e+01    0.2869917    0.2185563 -35.92  0.000691565    1.442    0.306
       187  -9.9241    100.6548     26.4230   6.1631858744e+01   5.6257815188e+01    0.2391148    0.1582717   5.40  0.001006892    1.736    0.424
       188 -10.1470     77.0611     26.5337   6.9131076437e+01   6.0988368824e+01    0.2854792    0.1594434 -24.31  0.001401384    1.772    0.436
       189  -9.7539    229.6678    248.0241   8.8050078256e+01  -8.7298626806e+00    0.1570323    0.1223956   2.38 0.0006492912    1.121    0.108
       190  -9.0668    147.0324     26.2722   5.0851613921e+01   4.5348121417e+01    0.1688127    0.1155087  59.45 0.0001761611    1.345    0.256
       191  -9.0218     18.5188     25.5800   9.4271892621e+01   6.9100502736e+01    0.2367038   0.09744713 -30.53  0.001124821    2.314    0.568
       192 -10.8567     13.8742     21.8749   9.5167119849e+01   7.0116928994e+01    0.4567366    0.2122216  15.29   0.00248806    2.350    0.575
       193  -9.2710      1.2988     26.3543   1.0350771154e+02   7.0107320806e+01    0.1267978   0.05838789 -34.98 0.0007036168    1.698    0.411
       194  -9.8864    225.0947    247.3181   8.8752607015e+01  -8.0143412281e+00    0.2010316    0.1375624 -10.38  0.001314008    1.411    0.291
       195  -9.7204     59.0125     23.4994   7.4571786608e+01   6.4511444953e+01    0.2051158     0.147517 -20.76 0.0006987418    1.251    0.200
       196 -10.0074     58.7664     19.8134   7.2964467590e+01   6.5057103821e+01    0.1925476    0.1638777  -0.26 0.0005249954    1.104    0.094
       197  -9.8343     90.9405     22.8161   6.2990593988e+01   5.8745519750e+01    0.2185666    0.1632794  19.46  0.001217688    1.263    0.208
       198 -10.8836     83.6795     21.6717   6.4778584721e+01   6.0346972277e+01    0.5485394    0.1873114  33.55  0.001772038    4.109    0.757
       199  -9.9485     86.4770     19.0137   6.2730464456e+01   6.0104195962e+01    0.2206123    0.1587934  21.10 0.0006451225    1.301    0.231
       200 -10.2500     35.0267     22.1676   8.4577279222e+01   6.8021141349e+01    0.2009223    0.1447474 -28.00 0.0002726236    1.184    0.155
       201 -11.1712     41.3296     20.1230   8.0658467294e+01   6.7555106685e+01     0.359967    0.2284091  21.54  0.001602244    1.526    0.345
       202  -8.8474     36.3444     18.7055   8.2335732394e+01   6.8395211426e+01    0.1681003    0.1407559  28.82 0.0004373006    1.503    0.335
       203  -9.4987     57.9884    248.2397   1.2018290866e+02   1.6158984329e+01    0.1411658   0.07686786  42.79  0.000359611    1.543    0.352
       204 -10.7293     30.1668     21.1627   8.6488445340e+01   6.8727403969e+01    0.2557015    0.1704054  17.95  0.001475306    1.492    0.330
       205  -9.4653    170.9511    247.0248   9.8764205142e+01   3.6313521689e-02    0.1899249    0.1312975   9.83 0.0009326017    1.666    0.400
       206 -10.6258     20.4833     17.4981   8.9765919018e+01   7.0289639327e+01    0.2373733     0.193495 -16.07  0.001192255    1.150    0.131
       207 -11.4379     24.6403    246.0282   1.2580019465e+02   2.0364321831e+01    0.2377068    0.1178729  74.78  0.001102059    1.754    0.430
       208 -10.0344    114.7660     17.3904   5.4393954553e+01   5.4113364528e+01    0.2338041    0.1416322  49.53  0.000244998    1.453    0.312
       209  -8.9915    136.3262    245.6942   1.0525742191e+02   5.5858723604e+00    0.1230616   0.08272859  59.93 0.0002831569    1.649    0.393
       210  -9.3360     40.6257    244.3277   1.2297533658e+02   1.8919843823e+01    0.1238711   0.05811045  62.43 0.0004708813    1.831    0.454
       211 -10.3829     82.8905     16.0206   6.2538743472e+01   6.1162501590e+01    0.1987758    0.1702893  14.74 0.0003362447    1.033    0.032
       212  -9.4875    154.1891     15.1626   4.5975391953e+01   4.4744675752e+01    0.1808485     0.151249 -81.11 0.0003454591    1.274    0.215
       213  -9.1125     74.2744    243.6928   1.1687438979e+02   1.4893571409e+01    0.1178313   0.07048639  64.96 0.0003280368    1.547    0.354
       214  -9.4849    202.4517    240.4753   9.1823699433e+01  -3.8597766925e+00    0.1237905   0.09730109  18.14 0.0001207332    1.014    0.014
       215  -9.2108     49.6834    240.6374   1.2112977939e+02   1.8538586320e+01   0.09772193   0.08589543 -41.91 0.0007041492    1.765    0.434
       216  -9.3752    117.7015    239.3281   1.0812983639e+02   9.4882289764e+00     0.124673   0.08286583  64.08 0.0003871059    1.637    0.389
       217  -9.6078     91.1481    237.0764   1.1306900454e+02   1.3783133403e+01    0.1674293    0.1265621 -38.20 0.0008280849    1.937    0.484
       218  -8.8579    164.7263     12.6838   4.3622628499e+01   4.2346498864e+01    0.1356038   0.09585272  36.53 0.0002368727    1.563    0.360
       219 -11.8065     25.9638    235.6634   1.2501548153e+02   2.2122893729e+01    0.2519862    0.2395413  32.08  0.001080068    1.590    0.371
       220  -9.7929    249.3242    233.9890   8.2300016674e+01  -9.7247056860e+00    0.1609222    0.1196285  -0.80 0.0004208993    1.074    0.069
       221 -11.7405     17.8221    249.2138   1.2708098985e+02   2.0502967243e+01    0.2566876     0.230934  29.64  0.002155749    1.706    0.414
       222  -9.0963    243.3364    230.2818   8.2705460940e+01  -8.4644241235e+00    0.1243767    0.0742998   7.40  0.000617224    1.620    0.383
       223  -9.3144    104.4534     10.4441   5.4101417562e+01   5.7150519626e+01    0.1329655    0.1161305  35.01 0.0001031528    1.027    0.026
       224  -8.9742     48.2271    230.0148   1.2063541238e+02   2.0709163141e+01    0.1341502   0.08365124 -79.79 0.0003921591    1.537    0.349
       225  -9.7008    209.5257    229.5136   8.8727567299e+01  -3.4321373342e+00    0.1261815    0.1016403  15.39 6.104415e-05    1.015    0.015
       226 -10.4139    140.6078    228.6318   1.0219817543e+02   7.7553859812e+00    0.2502934    0.1240468 -49.64  0.001222812    2.351    0.575
       227  -9.6010     57.5055    228.5051   1.1876914977e+02   1.9876429740e+01     0.117719   0.09361398  67.05 -5.198138e-06    1.013    0.013
       228 -10.1731    223.4620    226.4169   8.5609223139e+01  -5.1150927454e+00    0.2497069    0.1438206  -1.90 0.0008307949    2.133    0.531
       229 -11.1912      1.5340    225.2160   1.2870057948e+02   2.6477079493e+01    0.3202742    0.1015405 -81.95  0.001078329    2.711    0.631
       230 -11.2935      2.6820    220.5150   1.2829095931e+02   2.7278876387e+01    0.2910523    0.1292552  77.40  0.001706066    1.910    0.476
       231  -9.4350    123.3457    222.2852   1.0488693177e+02   1.1659888670e+01    0.1241134   0.09835941   8.07 0.0002946775    1.647    0.393
       232 -10.4279      9.4601    217.8654   1.2696592597e+02   2.7181140675e+01    0.1855967    0.1612072 -64.19  0.001465965    1.555    0.357
       233  -9.4115    137.5030    215.4757   1.0097371837e+02   1.0616928979e+01    0.1326528    0.1171009  36.51 0.0001220284    1.043    0.041
       234  -9.9305    205.7957    212.6372   8.6537275177e+01  -3.8239529209e-01    0.2147868    0.1611825 -11.95 0.0007261273    1.320    0.242
       235 -10.5661      4.4347    212.2491   1.2758216805e+02   2.8750532154e+01     0.358243   0.07387724  54.84  0.001454184    4.018    0.751
       236  -9.9138     15.2025    213.4124   1.2567901830e+02   2.7527755710e+01    0.1481942   0.07954908  51.66 0.0002653856    1.565    0.361
       237  -9.2171    224.3203    210.3417   8.2600369499e+01  -3.0022388896e+00    0.1368074   0.08652278   2.94 0.0007049985    1.720    0.419
       238 -10.2936     20.2058    209.8723   1.2452952331e+02   2.7761473827e+01    0.1821681    0.1143737  68.03 0.0008088277    1.293    0.227
       239  -9.0649    249.3492    211.3156   7.8278054604e+01  -6.8818307637e+00    0.1319794   0.07900542   3.75 0.0007047344    1.727    0.421
       240  -9.8135     10.2945    203.6271   1.2603252915e+02   2.9978983986e+01     0.123446   0.06135937  68.51 0.0007025942    1.734    0.423
       241  -8.8909    193.3401    201.7147   8.7027184212e+01   3.4521342904e+00    0.1264816    0.1071715  63.83 0.0003723736    1.635    0.388
       242  -9.1667    123.2670    198.6258   1.0153872672e+02   1.6282140558e+01    0.1384603    0.1020331  76.74 0.0006990556    1.673    0.402
       243 -10.2416     23.5227    196.8584   1.2300551159e+02   3.0158207685e+01    0.1997143    0.1693062 -57.49  0.000959649    1.492    0.330
       244 -11.0535     13.7831    192.6087   1.2467115075e+02   3.1983236397e+01    0.2236884    0.1420628  69.40 0.0005775482    1.316    0.240
