#   1 NUMBER                 Running object number                                     
#   2 MAG_AUTO               Kron-like elliptical aperture magnitude                    [mag]
#   3 X_IMAGE                Object position along x                                    [pixel]
#   4 Y_IMAGE                Object position along y                                    [pixel]
#   5 X_WORLD                Barycenter position along world x axis                     [deg]
#   6 Y_WORLD                Barycenter position along world y axis                     [deg]
#   7 A_WORLD                Profile RMS along major axis (world units)                 [deg]
#   8 B_WORLD                Profile RMS along minor axis (world units)                 [deg]
#   9 THETA_WORLD            Position angle (CCW/world-x)                               [deg]
#  10 FWHM_WORLD             FWHM assuming a gaussian core                              [deg]
#  11 ELONGATION             A_IMAGE/B_IMAGE                                           
#  12 ELLIPTICITY            1 - B_IMAGE/A_IMAGE                                       
         1 -10.4959     81.5198     10.4173   1.0893026872e+01   6.3285442003e+01    0.1354124    0.1243931  51.29 0.0001073871    1.014    0.014
         2 -14.9254    190.9995    157.6135   3.1617349810e+01   1.3945213773e+01     1.425596     1.032978 -56.55  0.007759314    1.838    0.456
         3 -17.5527    161.1406    118.9248   2.9044571208e+01   2.6330082396e+01     6.855184     3.211555  50.32     0.020894    2.390    0.582
         4 -13.1475    171.5679    230.0885   4.7482185645e+01   5.2142495219e+00    0.2797598    0.1675827  10.05  0.001390776    1.676    0.403
         5  -9.7621    214.4933    177.5186   3.1271058764e+01   7.3599208796e+00    0.1193332    0.1010758 -14.89 -3.083666e-05    1.120    0.107
         6 -10.1225    210.3611    177.2389   3.1915598437e+01   7.9641907791e+00    0.1513563    0.1022271 -39.42 0.0005521895    1.498    0.333
         7 -13.1528    215.0486    168.4362   2.9507984454e+01   8.6318889818e+00    0.9679773    0.6275266  68.30  0.003777616    5.513    0.819
         8 -13.6044    175.4495    231.7411   4.6981325519e+01   4.5130099855e+00    0.4132848    0.1871766 -27.92  0.002073104    2.693    0.629
         9 -11.7918    180.9747    217.6922   4.3932409867e+01   5.8358928798e+00    0.1714258    0.1316126  14.95  0.001157739    1.098    0.089
        10 -13.5833    191.8284    193.6944   3.8090779690e+01   8.0035585980e+00     0.793996    0.4259806 -58.91  0.003027349    4.959    0.798
        11 -10.4659    203.6742    161.8405   3.0178531999e+01   1.1299067783e+01    0.1150174   0.08146285  14.69 -0.000430966    1.493    0.330
        12 -10.2089    225.2315    160.5778   2.6392881999e+01   8.3732073585e+00    0.1165876   0.08381216 -47.92 0.0004545063    1.707    0.414
        13 -15.8471    133.9736    147.5542   4.1702784944e+01   2.5583893035e+01     2.610853    0.8072267 -53.39  0.005518937    3.882    0.742
        14 -11.9039    181.9084    212.3020   4.2941237278e+01   6.5080949972e+00    0.3482628    0.2123682  40.53  0.002019968    1.835    0.455
        15 -12.5282    124.8598    189.5872   5.1371180303e+01   1.8380801654e+01    0.3469726    0.2259149 -74.78  0.001658799    2.351    0.575
        16 -13.6434     68.0289    144.4801   5.9437703743e+01   3.7073262578e+01     0.818053    0.4529117  61.31  0.002886391    2.269    0.559
        17 -11.2034     86.1116    146.1007   5.4289553702e+01   3.4004938221e+01    0.2156974     0.207045  60.72 0.0004227912    1.014    0.014
        18 -14.6629     58.2587    104.1126   5.5181806150e+01   4.8949717327e+01    0.7878472     0.696068 -71.45 0.0007492933    1.085    0.079
        19 -15.0684     73.1797    109.0303   5.0912199877e+01   4.5410693157e+01     1.382008     1.169899 -24.77  0.002885201    1.354    0.262
        20 -14.3010     65.7893    104.8127   5.2561462434e+01   4.7655455506e+01    0.8340863    0.6127743 -37.44  0.002842342    1.498    0.332
        21 -11.4791    192.6508    111.3254   2.1270448239e+01   2.1592621460e+01    0.2759256    0.2154779  36.43  0.001542675    1.443    0.307
        22 -11.2450     98.9813    109.0159   4.2460857842e+01   4.0868497034e+01     0.233577    0.2287466 -28.01 0.0004775547    1.057    0.054
        23 -15.2339     36.4862    102.1102   6.3224376123e+01   5.2202110198e+01     1.076445    0.9189716 -72.96  0.003409816    1.081    0.075
        24 -11.2323    191.3576    106.7551   2.0404303306e+01   2.2618051611e+01     0.428597    0.2111885  52.42  0.001896031    2.324    0.570
        25 -11.0744    195.1441    102.4828   1.8758849648e+01   2.2606905708e+01    0.2836069    0.1662892 -29.38  0.000685153    1.658    0.397
        26 -11.3010    102.4085    102.6848   3.9763403418e+01   4.1701911472e+01    0.2622987    0.2462222  56.22 0.0007169549    1.090    0.083
        27 -12.9534    152.5337    185.5746   4.4532198478e+01   1.5002926001e+01    0.3464385    0.3107987   7.83  0.002188869    1.012    0.012
        28 -13.0411    151.0736    180.6467   4.4005264371e+01   1.6130653847e+01    0.3735176    0.2834515  -3.91 0.0002897179    1.432    0.301
        29 -12.9518      3.4428     95.5374   7.5872283197e+01   5.6581666130e+01     0.429602     0.250378  -1.61  0.002102095    2.124    0.529
        30 -11.4768    185.8970     92.6104   1.7836482224e+01   2.6103257328e+01    0.3825398    0.2143089 -27.68  0.001510144    1.889    0.471
        31 -10.4565    186.0436     89.0000   1.6896063200e+01   2.6678294009e+01    0.2989759     0.180233  58.18  0.001337796    1.886    0.470
        32 -17.9353    234.4690     21.0038   3.5493171009e+02   2.6128795700e+01     5.242648     3.794949 -55.05   0.02675647    1.109    0.098
        33 -10.4927    229.3517     87.7111   1.0570784759e+01   1.8551108668e+01    0.1980931    0.1637032 -66.42  0.001271543    1.363    0.266
        34  -9.9845    226.6654     86.6730   1.0656428143e+01   1.9178293087e+01    0.1667682    0.1226067  30.87 0.0009665053    1.798    0.444
        35 -13.7053      7.0049     82.5828   7.2736049534e+01   5.9837825363e+01    0.8060995      0.12851 -71.08  0.002347352    4.280    0.766
        36 -10.2673    233.6578     85.2652   9.5265449142e+00   1.8144442794e+01    0.1227992   0.08389921 -58.75 0.0006979003    1.600    0.375
        37  -9.8071    191.2948    212.3112   4.1208071466e+01   5.3177801956e+00    0.1203978   0.07704224  -4.15 0.0002114362    1.593    0.372
        38 -17.8822    202.0043    131.1286   2.4166874770e+01   1.6573906182e+01     7.151705     4.519204  19.69   0.03525537    2.137    0.532
        39 -11.1972    230.3956     80.2444   8.7697028503e+00   1.9428379423e+01     0.207828   0.09713378  50.75  0.001010501    2.611    0.617
        40 -11.7844    143.0116     79.7014   2.2460592098e+01   3.7770696861e+01    0.2051164    0.1947179  66.60 0.0004196891    1.093    0.085
        41 -12.6291    183.6197     78.2385   1.4491369382e+01   2.8958107216e+01    0.2932965    0.2363356 -14.60 0.0008979985    1.416    0.294
        42 -12.0380    208.2390    186.7103   3.3966400060e+01   6.8478368030e+00    0.3258827    0.3121224  -6.07  0.002368256    1.412    0.292
        43 -11.1021    173.8174     77.9449   1.6010138427e+01   3.1135186716e+01    0.2028264    0.1804359 -22.65            0    1.180    0.152
        44 -12.9854    166.3506     75.7470   1.6697846888e+01   3.3165298392e+01    0.5415242     0.370575 -24.57  0.001756083    1.610    0.379
        45 -12.1904    172.5060     71.8052   1.4539924964e+01   3.2438651206e+01    0.3847213    0.2599664 -88.46 0.0003625178    1.984    0.496
        46 -10.2935    138.3143     75.3018   2.2178615330e+01   3.9669659598e+01    0.1488389    0.1201537  11.56 0.0003220575    1.614    0.380
        47 -12.2255    148.5896     68.2830   1.7858194363e+01   3.8526258974e+01    0.3731813    0.2349164 -44.93   0.00156829    1.509    0.337
        48 -12.6751    145.3784     64.4842   1.7330696309e+01   3.9933285167e+01    0.3392667    0.2720568 -43.49  0.001559748    1.186    0.157
        49 -10.2853    196.2058     67.7939   9.9414851854e+00   2.7904385623e+01     0.162877    0.1430845   5.13 0.0003632611    1.396    0.284
        50 -11.5418    200.5849    182.3343   3.4531620072e+01   8.5422551660e+00    0.1849583    0.1631401  61.28   0.00119278    1.785    0.440
        51 -10.5325    119.0469     58.5262   2.1269230302e+01   4.7254730942e+01    0.2129633    0.1473147  55.98 0.0001096061    1.459    0.314
        52 -11.9449    152.0441     48.2100   1.0967032723e+01   4.0914607197e+01    0.2613916    0.2037129 -37.87 0.0007567923    1.237    0.192
        53 -17.2811    237.2576    224.8699   3.5443919206e+01  -1.5311307743e+00     5.892455     2.771087 -25.91   0.01941911    1.847    0.459
        54 -16.8140    154.8803    153.6775   3.8112224607e+01   2.0668031799e+01     3.724278     1.570261  34.00   0.01103157    2.586    0.613
