#   1 NUMBER                 Running object number                                     
#   2 MAG_AUTO               Kron-like elliptical aperture magnitude                    [mag]
#   3 X_IMAGE                Object position along x                                    [pixel]
#   4 Y_IMAGE                Object position along y                                    [pixel]
#   5 X_WORLD                Barycenter position along world x axis                     [deg]
#   6 Y_WORLD                Barycenter position along world y axis                     [deg]
#   7 A_WORLD                Profile RMS along major axis (world units)                 [deg]
#   8 B_WORLD                Profile RMS along minor axis (world units)                 [deg]
#   9 THETA_WORLD            Position angle (CCW/world-x)                               [deg]
#  10 FWHM_WORLD             FWHM assuming a gaussian core                              [deg]
#  11 ELONGATION             A_IMAGE/B_IMAGE                                           
#  12 ELLIPTICITY            1 - B_IMAGE/A_IMAGE                                       
         1 -10.4357     32.4825     10.0807   3.8863979213e+01   7.3294429829e+01    0.2175611    0.1702345 -21.79  0.001088903    1.253    0.202
         2 -12.9188     23.9302     16.6976   4.8390279000e+01   7.3396952145e+01    0.6874384    0.4942398  12.74  0.002799847    1.310    0.236
         3 -10.5480     35.1640     13.6937   3.9276092080e+01   7.2337651835e+01    0.2571299    0.1968807 -17.99  0.001164309    1.288    0.223
         4 -11.0920    109.3869     19.1580   1.3376616063e+01   5.5658051769e+01    0.4684088    0.2710164 -76.45  0.001932713    2.556    0.609
         5 -11.0057      6.7476     15.4822   6.0939462846e+01   7.5273800326e+01    0.2997161    0.1814195 -80.47  0.001465547    2.856    0.650
         6 -10.6012    182.9507     14.7997   1.0367193106e+00   3.7464958903e+01     1.092983    0.2407236 -48.19  0.003396841    3.971    0.748
         7 -11.4331    178.9696      1.4428   3.5785548353e+02   3.9829340436e+01    0.5067897     0.258541 -18.17 4.294515e-07    2.703    0.630
         8 -11.7273    174.3784      3.8388   3.5888919644e+02   4.0709038880e+01     0.462126    0.2539043 -55.47  0.002108998    1.656    0.396
         9 -11.5346    170.5130      3.4971   3.5914318534e+02   4.1692378550e+01     0.319118    0.2880586  50.17  0.001224581    1.390    0.280
        10 -11.3662     49.6891     14.2661   3.1460884323e+01   6.9775493735e+01    0.3089553    0.2541967  29.29 0.0007606794    1.076    0.070
        11 -10.4410     45.3223     12.0682   3.2491109408e+01   7.0876143740e+01    0.2497367    0.1890187  34.10 0.0007195126    1.180    0.153
        12 -10.6451    120.5218     12.2073   8.4584729363e+00   5.3576297118e+01    0.2531018    0.2371612 -30.56   0.00142959    1.241    0.194
        13 -10.1552    162.0473     11.7444   2.3564983178e+00   4.2959042988e+01    0.1976461    0.1545222  87.60 0.0007997692    1.097    0.088
        14 -10.5106    241.4047      9.7573   3.5563431016e+02   2.5209069587e+01    0.1502541    0.1022184 -29.25 0.0009539025    1.682    0.405
        15 -11.5208    129.2393      8.8278   5.7693332336e+00   5.1669292323e+01    0.2829692    0.2212797  79.08 0.0003174914    1.105    0.095
        16 -11.4254    123.8989      6.5905   5.8170025391e+00   5.3264698564e+01    0.4078424    0.2514946  89.56  0.001233493    1.629    0.386
        17 -10.1120     69.1559      9.3606   2.0441507984e+01   6.6399539723e+01    0.2177099    0.1741413   2.58 0.0007613534    1.388    0.280
        18  -9.7814    115.1759      8.8681   8.1811867898e+00   5.5287063223e+01    0.2020688    0.1657963  89.23 0.0005217837    1.157    0.136
        19 -11.6088     99.0211      7.1096   1.0783070921e+01   5.9547635908e+01    0.4673292    0.3943953  88.50  0.002679254    1.196    0.164
        20 -11.8310     86.3347      6.9289   1.3845956021e+01   6.2676071569e+01    0.4521434    0.2471501  53.06  0.001243787    1.553    0.356
        21 -10.0145    236.4233      7.3388   3.5541069024e+02   2.6460473743e+01    0.2228854    0.1254935  81.28  0.001345016    1.729    0.422
        22 -10.6690     79.3918     11.8598   1.8221240219e+01   6.3799891994e+01    0.2398551    0.1987353  88.02 0.0006452232    1.404    0.288
        23  -9.2499     40.2956      8.3193   3.3065276524e+01   7.2272003095e+01    0.1291389     0.088159  10.74  0.000356185    1.612    0.380
        24 -11.2576     32.9805     18.7400   4.3418993257e+01   7.1853719174e+01    0.3692381    0.2492554 -44.16  0.002058603    1.581    0.368
        25 -10.9746     15.5564      4.5071   4.7783514777e+01   7.6410179397e+01     0.277344    0.1889487  18.78     0.000871    1.341    0.254
        26 -11.3855     11.4245      3.3086   5.0532331925e+01   7.7047711932e+01    0.3729804    0.2590065  40.19   0.00185994    1.810    0.448
        27 -11.3085    113.7414      1.7780   5.7008147533e+00   5.6310984953e+01    0.4297373    0.1687771  65.07 0.0007282314    2.055    0.513
        28 -10.1957      4.0728      3.9428   5.7533694585e+01   7.7592796723e+01    0.1838694    0.1428847 -17.95 0.0009466087    1.052    0.049
        29 -10.6223    183.6165      2.9938   3.5788750584e+02   3.8558637905e+01    0.2514733    0.1455587 -89.55   0.00106799    1.524    0.344
        30  -9.2749    131.4408      3.4669   3.5706607956e+00   5.1610888771e+01    0.1359303    0.1155297  78.02 0.0002651951    1.040    0.038
        31  -9.1500    214.3513      2.1839   3.5556285508e+02   3.1617129402e+01    0.1736752   0.08316388 -45.48 0.0007073864    1.690    0.408
        32  -9.2440     70.5278     18.4483   2.4513089485e+01   6.4998692303e+01    0.1353851    0.1210798  41.41 0.0002862383    1.021    0.021
        33  -9.3833     28.5418     99.4647   7.0732806808e+01   5.4048563136e+01    0.1398831    0.1289857 -67.99 -3.250019e-05    1.018    0.017
        34 -10.4905    103.1654     95.8332   4.1591377071e+01   4.3332212391e+01    0.3682007     0.241397 -58.92  0.001089668    1.649    0.394
        35 -11.1211     64.7180     96.1737   5.5345948415e+01   5.0417198381e+01    0.3349561    0.2819904  49.05 0.0007407991    1.206    0.171
        36 -11.0097    236.7440     95.2691   1.4004461172e+01   1.4569015845e+01    0.2424076    0.1336231 -41.02  0.001067657    1.499    0.333
        37  -9.3634    143.3891     96.2421   3.0509307650e+01   3.4206561052e+01     0.209663    0.1444254 -53.85 0.0006012264    1.494    0.331
        38  -9.6161      4.7812     95.9164   8.0115306462e+01   5.6629705668e+01    0.2153076     0.151512 -49.61 0.0009795293    1.365    0.267
        39 -10.0826     16.0622     94.6035   7.5220854075e+01   5.6309834819e+01    0.2636107       0.1961 -43.93  0.001453073    1.339    0.253
        40  -9.5791     89.9473     94.2534   4.5538595265e+01   4.6404004349e+01    0.2208084    0.1979881  39.96 0.0006170364    1.112    0.101
        41  -9.3275     37.2445     89.9930   6.5277006452e+01   5.5652332688e+01    0.1849418    0.1151895 -65.62 0.0002315968    1.523    0.343
        42  -9.8514    210.1976     99.7997   1.8603464111e+01   1.8855160635e+01    0.2380128    0.1360993 -69.23 0.0009577012    2.869    0.651
        43 -10.2843     96.8567     86.3631   4.0936135778e+01   4.6833127861e+01    0.2505628    0.2411882 -41.60  0.000304945    1.086    0.079
        44 -10.7178    249.3318     83.6582   1.0169783810e+01   1.4088902701e+01    0.2662535   0.07857095 -42.58  0.001100668    2.594    0.614
        45  -9.4776    163.3549     86.7079   2.3540615529e+01   3.1413545080e+01    0.1571308    0.1141369 -81.02 0.0007029496    1.684    0.406
        46 -10.4880     11.8822     85.8362   7.5786661749e+01   5.8838463722e+01    0.2148501    0.1874594 -61.11 0.0002935991    1.038    0.036
        47 -11.7344    238.9105     82.8496   1.1138778054e+01   1.6061612819e+01    0.3916063    0.1361352 -48.51   0.00160748    2.659    0.624
        48  -9.2871    160.1306     81.1333   2.2689016240e+01   3.3212712626e+01    0.2086707    0.1693613 -72.59 0.0004337307    1.282    0.220
        49 -11.1457     54.3819     78.5364   5.4993638447e+01   5.6355993384e+01    0.3535292     0.274476  69.92 0.0006345846    1.579    0.367
        50  -9.5333    242.6707     78.3239   9.7785736317e+00   1.6046977669e+01    0.1313912   0.07977559 -61.15  0.000619446    1.698    0.411
        51  -9.0679     78.0034     77.9867   4.5141573923e+01   5.2515519966e+01    0.1776265    0.1680501  40.74 0.0009485636    1.042    0.041
        52  -9.1102     72.5165     78.3727   4.7393426646e+01   5.3437914268e+01    0.1481131    0.1420214  39.86 0.0001038808    1.035    0.034
        53  -9.4717    144.1694     77.1981   2.5001385074e+01   3.7795053298e+01    0.2113039    0.1752728 -86.91 0.0006971004    1.277    0.217
        54  -9.6896    152.5055     76.4771   2.2970081030e+01   3.5905609439e+01    0.1519576    0.1428533 -86.54 0.0008102031    1.010    0.010
        55  -9.7597     61.0796     76.0677   5.1398020855e+01   5.5922363812e+01     0.219692    0.2192986 -26.62 0.0007628233    1.022    0.022
        56 -11.3375     64.0857     69.5445   4.8105535435e+01   5.6936253028e+01    0.2510267    0.2257885 -46.31 0.0002631742    1.114    0.102
        57 -10.3835      7.7429     68.5816   7.5045251659e+01   6.3400616449e+01    0.2337651    0.2024454 -60.99  0.000447114    1.030    0.029
        58  -9.5950     83.2749     68.0607   3.9952765350e+01   5.3671661604e+01     0.197789    0.1928947 -57.36 0.0002474502    1.057    0.054
        59  -9.9339    151.8589     66.6644   2.0285101495e+01   3.7823433880e+01    0.2516212    0.2084407 -32.43 0.0007753538    1.338    0.252
        60  -8.9840     46.6413     67.7124   5.5391107860e+01   6.0022407216e+01    0.1486347    0.1053555 -18.97 0.0007024058    1.683    0.406
        61  -9.9075     19.6790     66.9385   6.8611495521e+01   6.3053288499e+01    0.2633149    0.1769866 -32.91 0.0008007774    1.495    0.331
        62 -10.9958     21.8758     61.8905   6.6280319975e+01   6.4098262443e+01    0.4854167    0.2763889  15.91  0.002391196    1.872    0.466
        63 -10.3510     22.2875     58.0428   6.5076105523e+01   6.4975231097e+01    0.2369137    0.1774734 -56.06  0.000366886    1.229    0.187
        64  -9.6977    204.6555     66.0464   1.1508462858e+01   2.5495023353e+01    0.2286478     0.141593 -53.81  0.001152118    1.486    0.327
        65  -9.0540    192.2387     65.9675   1.3185601958e+01   2.8277099587e+01    0.1744701    0.1087861 -41.02 0.0003258077    1.492    0.330
        66 -11.1265     75.1003     63.1192   4.1403844740e+01   5.6338977014e+01    0.4914975    0.3850545  45.96  0.002496609    1.260    0.207
        67 -10.0938     85.4131     62.8985   3.7394195611e+01   5.4303262719e+01    0.4573021    0.2402747 -33.13 0.0009170476    2.407    0.585
        68 -10.5223      4.6085     63.5322   7.5803999407e+01   6.4782508822e+01    0.2491017    0.1922874 -54.01 0.0006041838    1.123    0.110
        69 -10.8818      3.4444     58.4870   7.5545022346e+01   6.6048193512e+01    0.3996832    0.2385149 -59.67  0.002079144    1.414    0.293
        70 -10.2421     99.6238     61.8405   3.2153980865e+01   5.1396152765e+01     0.340872    0.2562288 -71.93   0.00156793    1.670    0.401
        71  -9.5064     44.3048     62.9631   5.5067311512e+01   6.1436935478e+01     0.198504    0.1806433 -41.93 0.0007469061    1.062    0.058
        72 -11.8728    248.8811     56.5757   4.6825983191e+00   1.7982990553e+01    0.7291274    0.1927382 -43.84  0.003040701    2.724    0.633
        73 -11.3296    231.0565     60.3010   7.1479340989e+00   2.0854158749e+01    0.2738912    0.1792725 -77.96  0.000843188    1.659    0.397
        74  -9.7559    114.0951     60.9655   2.7512426702e+01   4.8160185648e+01    0.2315719    0.2135589  54.55 0.0004268413    1.057    0.054
        75  -9.2600    124.6369     59.8171   2.4329559400e+01   4.5791440065e+01    0.2079799    0.1376157 -50.69 0.0004664612    1.591    0.371
        76 -11.3332     36.0321     58.6769   5.7914009042e+01   6.3450013033e+01    0.4216458    0.3074584 -23.83  0.001353926    1.457    0.314
        77  -9.9523     66.2330     57.9930   4.3250630006e+01   5.9075171574e+01    0.3139334     0.180656  61.21  0.001198226    2.756    0.637
        78  -9.1567     17.3518     57.3031   6.7602969826e+01   6.5537295853e+01    0.1436408   0.08467488 -33.07 0.0007040005    1.703    0.413
        79  -9.9680     99.1803     55.3610   3.0009195365e+01   5.2717727823e+01    0.2314404    0.2052478 -23.89 0.0004325281    1.254    0.202
        80  -9.4110     78.1884     55.8152   3.7563752893e+01   5.7214083697e+01    0.2030179    0.1716886   7.96 0.0003758153    1.342    0.255
        81 -10.5202     69.9079     55.6419   4.0833767291e+01   5.8876802287e+01    0.2429538    0.2012886 -29.59  0.000758233    1.272    0.214
        82 -10.0076     46.1887     56.6993   5.2096189169e+01   6.2590097458e+01    0.3491543    0.1042363  39.64  0.001163756    3.416    0.707
        83  -9.0289    133.1865     55.4147   2.0851598432e+01   4.4416972343e+01    0.2043908    0.1390112  72.37 0.0003806165    1.531    0.347
        84 -10.0668     11.7693     51.8366   6.9432087954e+01   6.7192282387e+01     0.276649    0.1657785 -76.47  0.001418494    1.796    0.443
        85  -9.6906     85.6716     57.5657   3.5398795421e+01   5.5310672857e+01    0.3074642    0.1772324  42.09  0.001321164    1.687    0.407
        86 -10.1618     73.1800     50.9980   3.7729789085e+01   5.9157985344e+01    0.2525883    0.2033037 -46.47 0.0008580328    1.310    0.236
        87 -10.2320     15.7503     51.7536   6.7099033400e+01   6.6947785879e+01    0.2080426    0.1356402  58.66  0.001055779    2.069    0.517
        88 -11.9861    146.9840     44.8008   1.4642416187e+01   4.2595726857e+01    0.6277571    0.4825431   0.41  0.003058669    1.915    0.478
        89 -11.3469     94.1405     47.4566   2.8706586801e+01   5.5288450774e+01    0.6202757    0.2414106 -33.64  0.002131547    3.126    0.680
        90 -10.0256     95.9546     38.0843   2.4486110855e+01   5.6401693633e+01    0.2302733    0.2140562  14.29 0.0003633223    1.172    0.147
        91 -10.5446     51.2526     46.1348   4.5687842609e+01   6.4056554437e+01    0.3226937     0.235099  37.26  0.001383116    1.357    0.263
        92  -8.6555      4.6881     47.2918   7.2570938400e+01   6.8623216518e+01    0.1191089   0.09197843  56.52 0.0002779974    1.589    0.371
        93 -10.6244     39.1676     43.7881   5.1091357531e+01   6.6308298079e+01    0.3141947    0.2594321  11.06  0.001261982    1.185    0.156
        94  -9.0166      7.3079     45.3361   7.0506371436e+01   6.8941826706e+01    0.1395282   0.07553658 -38.11 0.0007042168    1.676    0.403
        95 -10.6201    248.8993     43.7126   2.0560368513e+00   1.9683891211e+01     0.223916    0.1596299 -62.84  0.001476712    1.169    0.145
        96 -10.7466    118.9639     42.3734   1.9797733088e+01   5.0097138310e+01    0.3461589    0.2209102 -35.03 0.0007387761    1.698    0.411
        97  -9.9194      1.4560     41.3002   7.3212692388e+01   7.0126021035e+01    0.2410282   0.09654628 -62.87  0.001129468    2.051    0.513
        98  -9.6106    185.8064     41.2574   7.6966057755e+00   3.3459728631e+01    0.1706453    0.1602283  50.11 0.0004713286    1.322    0.244
        99 -11.7342     16.6525     38.3014   6.2557214243e+01   6.9884638545e+01    0.4666717    0.4199683  53.10   0.00272048    1.369    0.270
       100  -9.7105    158.7767     39.8079   1.1099565102e+01   4.0321929447e+01    0.2994972    0.1678754 -67.86 0.0006063803    2.154    0.536
       101  -9.6123    157.2246     35.4948   1.0056718679e+01   4.1311266867e+01    0.2845744    0.2023921  31.92 0.0009006967    1.986    0.496
       102 -10.2548     89.9612     39.1658   2.6829693427e+01   5.7631191551e+01    0.2283157    0.2068882   8.12 0.0002624914    1.212    0.175
       103  -9.1301     57.2712     39.3417   3.9960644666e+01   6.4345515544e+01    0.1396381    0.1040372  -5.79 0.0001760104    1.610    0.379
       104  -9.4148     64.7855     38.3981   3.6128038219e+01   6.3120359731e+01    0.2050788    0.1244231  34.40  0.000955348    1.650    0.394
       105 -11.5748     26.8149     35.2880   5.4993838278e+01   6.9552321686e+01    0.5519079    0.3093152 -39.10  0.002802109    1.704    0.413
       106 -10.5021    129.8642     36.1224   1.5165867020e+01   4.8241015939e+01    0.2364996    0.2124338 -84.99 0.0002919403    1.069    0.064
       107 -10.7304    119.2046     35.1186   1.7145127395e+01   5.1105514180e+01    0.2482662    0.2112447  52.55  0.000345951    1.150    0.131
       108 -10.2056    102.7412     36.6123   2.1911239213e+01   5.4994006600e+01    0.2884631     0.125237  53.52  0.001125611    2.065    0.516
       109  -9.6653     46.9870     35.7155   4.3526818493e+01   6.6748161658e+01    0.2123794    0.1877885 -48.38 0.0003708574    1.264    0.209
       110  -9.5787     51.9914     33.0000   3.9730249993e+01   6.6409740226e+01    0.1944308    0.1512701   7.69 0.0004685256    1.373    0.272
       111 -10.2188     48.5994     32.1946   4.1096607222e+01   6.7125770839e+01    0.2311673    0.1633479 -29.22 0.0003833703    1.471    0.320
       112 -10.8295     39.9428     35.5989   4.7317525828e+01   6.7832897334e+01    0.4597947    0.2074712  39.52  0.002013055    2.257    0.557
       113  -9.3588    174.1732     34.8789   7.4651736852e+00   3.7148609769e+01     0.174784    0.1621233  58.63  0.000903803    1.269    0.212
       114 -10.8126      4.2767     31.5082   6.8721896159e+01   7.2156183214e+01    0.3280853    0.1949132  39.33   0.00118356    2.061    0.515
       115  -9.4424    153.3067     31.9761   9.5994850210e+00   4.2779442490e+01    0.1902723    0.1726349 -67.09  0.000401998    1.101    0.092
       116 -11.8008     92.5015     31.1342   2.2727819876e+01   5.8259098842e+01      0.25554    0.2354578  56.67 0.0002820493    1.020    0.020
       117 -10.5617     88.6249     25.6468   2.1603220820e+01   5.9939962249e+01    0.4131958    0.2289606 -50.38  0.001809346    2.269    0.559
       118 -10.3988     17.1415     31.0722   5.9644127235e+01   7.1363670715e+01    0.2963977    0.1775659  31.44  0.001057404    1.767    0.434
       119  -9.9282     81.3599     30.7995   2.6257200318e+01   6.0879549731e+01    0.1847973    0.1341789 -18.80 0.0003812701    1.626    0.385
       120  -9.4787     75.3031     29.9631   2.8100275858e+01   6.2340179079e+01    0.1906353    0.1797089  24.95 0.0007065818    1.049    0.046
       121 -11.0143     59.2961     28.5294   3.4127937364e+01   6.5833207734e+01    0.4754492     0.310905 -16.56  0.002323242    1.931    0.482
       122 -10.3862     40.0135     28.6462   4.4136934394e+01   6.9112644641e+01    0.3847552    0.1448259  35.41  0.001570763    2.559    0.609
       123  -9.9406    104.0127     28.1392   1.8239162987e+01   5.5881629205e+01    0.2127046    0.1893176  63.92 0.0003499194    1.018    0.018
       124 -10.7192    161.1121     26.8738   6.9238739990e+00   4.1446950416e+01    0.3466818    0.2249988  75.05   0.00076562    1.408    0.290
       125  -9.5025    153.2312     27.5881   8.2651566310e+00   4.3363300836e+01    0.1867615    0.1195991  61.22 0.0002800234    1.473    0.321
       126  -9.2830    118.6629     27.2726   1.4405735749e+01   5.2303321080e+01    0.1460497    0.1041672 -79.29 0.0002274555    1.603    0.376
       127 -10.9019     47.2456     26.4675   3.9091766586e+01   6.8339719268e+01    0.3125868    0.2249094  -1.78  0.000463093    1.620    0.383
       128 -10.7416    136.8669     23.3912   9.5268486362e+00   4.8095593534e+01    0.3249756    0.2050132  38.95  0.001304651    1.985    0.496
       129 -10.4997     83.1807     26.0159   2.3526122812e+01   6.1154579600e+01    0.2468366    0.1930194  52.44 0.0009167364    1.162    0.139
       130  -9.9582    239.7077     24.0883   3.5868195300e+02   2.3891983513e+01    0.2200296    0.1396764  82.19  0.001371256    1.590    0.371
       131 -10.0811    128.9048     24.0064   1.1160410737e+01   5.0079499200e+01    0.2089867    0.1877488  76.59 0.0003319083    1.034    0.033
       132 -10.3090    111.0768     24.5163   1.5075988125e+01   5.4582173661e+01    0.2273999     0.129951  65.79   0.00103169    1.611    0.379
       133 -10.6637     98.5735     22.7451   1.7491928618e+01   5.7922947284e+01    0.2593338    0.2248984  60.05 0.0007150396    1.032    0.031
       134 -10.4906     38.3987     22.6626   4.2143948959e+01   7.0396762431e+01    0.2170977    0.1833383  25.00 0.0002786507    1.126    0.112
       135  -8.7435    196.3006     22.7014   1.7995888867e+00   3.3384311291e+01    0.1387288   0.08073092 -64.39 0.0003375003    1.580    0.367
       136  -9.1890      1.2095    181.0770   8.6909659732e+01   3.5219341072e+01    0.1607755   0.08811755 -85.15 0.0004177779    1.648    0.393
       137  -9.2500    243.7856    179.9858   2.9475680488e+01   5.5041857452e-01    0.1599901   0.07992802 -35.08 0.0008740404    1.713    0.416
       138  -9.5899     25.5161    175.4673   8.0104231569e+01   3.4467773648e+01    0.1361668    0.1136398  66.04 8.623346e-05    1.009    0.009
       139 -10.0938     20.9461    174.9941   8.1332287242e+01   3.5021244083e+01    0.2069883    0.1709376  65.46 0.0005225705    1.017    0.017
       140  -9.1423    159.4074     20.4688   5.2517053047e+00   4.2652646047e+01    0.1392043    0.1172788 -79.75 0.0001489714    1.038    0.037
       141  -9.3544     84.9683     20.4416   2.0451473523e+01   6.1479037980e+01    0.2089841    0.1247518  57.75 0.0005568115    1.520    0.342
       142  -9.5110     66.5220     20.5699   2.7131887968e+01   6.5569951549e+01    0.1355096    0.1204518  36.04 5.816738e-05    1.011    0.011
       143 -10.9205    178.3419     18.2360   2.4152067788e+00   3.8192421006e+01    0.3850595    0.2033767  63.14   0.00188094    1.825    0.452
       144 -10.6733    148.7582     18.6638   6.1407032871e+00   4.5581428909e+01     0.467884    0.1388674  67.50  0.001656224    2.881    0.653
       145  -9.2825     48.5378     19.4856   3.4864948180e+01   6.9228792996e+01    0.1305409    0.1167073  18.67  0.000104106    1.029    0.028
       146  -9.5535    224.0000    172.9933   3.1388270534e+01   4.2990140448e+00    0.2021704   0.06284144 -39.50 0.0007981948    2.913    0.657
       147 -10.3310     85.1333     15.8944   1.8335187674e+01   6.1994315793e+01    0.3872826    0.1805697  57.95  0.001691322    1.887    0.470
       148  -9.7467     65.9934     16.2556   2.5186541394e+01   6.6256737704e+01    0.1920955    0.1622607  41.86 0.0003737274    1.056    0.053
       149 -10.3023     21.5161    170.0062   8.0832454835e+01   3.6205215608e+01    0.2139049    0.1873634   4.22 0.0005716223    1.429    0.300
       150  -8.8988     63.3286    162.7395   6.7888760409e+01   3.3250627870e+01    0.1539135   0.09813679  57.79 0.0003072167    1.564    0.361
       151  -9.0865      3.3054    156.3374   8.5198194264e+01   4.1115741414e+01    0.1296186   0.08894781 -51.18 0.0003651063    1.673    0.402
       152  -9.8497     40.1016    148.0334   7.3230476802e+01   3.9970393224e+01    0.2635193    0.1817403 -84.29  0.001319874    1.400    0.286
       153  -9.9979     25.4208    146.2805   7.7729123615e+01   4.1922082413e+01    0.2445952    0.1805844  28.72 0.0007717249    1.416    0.294
       154  -9.0819     74.9639    144.0248   6.1512507352e+01   3.6379575536e+01    0.1798392     0.165278  56.96 0.0003157386    1.032    0.031
       155  -9.9610    112.5555     13.9978   1.0675691533e+01   5.5429749188e+01    0.3454783    0.1416558  60.49  0.001423555    2.032    0.508
       156  -9.5921      6.3266    143.3856   8.3527844804e+01   4.4201664830e+01     0.207247    0.1398705 -46.27   0.00111123    1.702    0.412
       157  -9.3583     28.4932    138.4582   7.5943709902e+01   4.3694725136e+01    0.1409127    0.1254104  78.77 0.0001243809    1.009    0.009
       158  -9.0898     40.2892     11.3819   3.4882669673e+01   7.1849293119e+01    0.1332629   0.08973987   4.20 0.0007015592    1.743    0.426
       159 -10.0970     26.3099    134.0227   7.6199670819e+01   4.5072712256e+01    0.2024764    0.1670397 -85.80 0.0005811765    1.105    0.095
       160  -9.7864     11.3346    133.9748   8.1230647986e+01   4.6295220740e+01    0.1909803    0.1548818 -89.82 0.0006904346    1.085    0.078
       161  -9.9899     17.7668    132.2868   7.8923800952e+01   4.6257101842e+01    0.2767504    0.1641133  48.86  0.001192862    1.640    0.390
       162  -9.7750    235.2335    131.7507   2.1693868544e+01   9.0987261405e+00    0.2045502   0.09023822 -29.62 0.0008795977    2.419    0.587
       163  -9.7639     12.5604    129.5456   8.0446360523e+01   4.7368638618e+01    0.2572222     0.139156 -49.68  0.001203797    1.958    0.489
       164  -9.9645    250.4646    127.9433   1.8858962154e+01   7.3043999161e+00    0.1771935   0.08445491 -52.36 0.0008091964    2.585    0.613
       165 -10.2622    134.9407    124.6379   3.9830312867e+01   2.9915909758e+01    0.2620987    0.2156511 -38.66 0.0004216483    1.283    0.220
       166  -9.9747    245.3170    119.6802   1.7906570492e+01   9.3587391158e+00    0.1224266   0.08615825 -59.72 0.0005316731    1.659    0.397
       167 -10.1172     14.7907    115.3803   7.8283450415e+01   5.0943575292e+01    0.4959304    0.1208002 -57.79  0.001685493    3.301    0.697
       168  -9.9300     91.6694    116.1431   5.0510358222e+01   4.0700048844e+01    0.2508756    0.2062865  51.81 0.0003964985    1.200    0.167
       169  -9.8089     96.1275    111.7013   4.7997942709e+01   4.0956221925e+01     0.212584    0.2021907  30.43 0.0004990426    1.102    0.092
       170  -9.1577     79.4338    110.7745   5.3404440525e+01   4.4265442792e+01    0.2091257    0.1433063 -46.48 0.0008886693    1.523    0.343
       171  -9.1176    102.7274    105.7547   4.4389025389e+01   4.1085234921e+01    0.2629685    0.1201167  50.85 0.0008956342    2.397    0.583
       172  -9.4291     12.8044    105.5783   7.7955787696e+01   5.3657413727e+01    0.1819321    0.1144255  38.63 0.0004194714    1.651    0.394
       173 -10.0714      2.1477    104.4721   8.2012006499e+01   5.4544863754e+01    0.2702753    0.1663569 -52.87  0.001422477    1.546    0.353
       174 -12.1814    247.5094    100.1722   1.3722626943e+01   1.1958641291e+01    0.3578634    0.2840975 -15.81  0.002292144    1.462    0.316
       175  -9.6014    231.3763    102.6943   1.6251809501e+01   1.4373162760e+01    0.1327226   0.09069606 -66.69 0.0007028826    1.773    0.436
       176 -10.5698    116.5480    100.6231   3.8829876919e+01   3.9348411000e+01    0.4373606    0.2992476 -75.55  0.001343583    1.987    0.497
