#   1 NUMBER                 Running object number                                     
#   2 MAG_AUTO               Kron-like elliptical aperture magnitude                    [mag]
#   3 X_IMAGE                Object position along x                                    [pixel]
#   4 Y_IMAGE                Object position along y                                    [pixel]
#   5 X_WORLD                Barycenter position along world x axis                     [deg]
#   6 Y_WORLD                Barycenter position along world y axis                     [deg]
#   7 A_WORLD                Profile RMS along major axis (world units)                 [deg]
#   8 B_WORLD                Profile RMS along minor axis (world units)                 [deg]
#   9 THETA_WORLD            Position angle (CCW/world-x)                               [deg]
#  10 FWHM_WORLD             FWHM assuming a gaussian core                              [deg]
#  11 ELONGATION             A_IMAGE/B_IMAGE                                           
#  12 ELLIPTICITY            1 - B_IMAGE/A_IMAGE                                       
         1 -14.2368    157.7383     52.9307   8.1584606747e+01   3.9298757589e+01     1.555301     1.169552  24.61  0.005241579    1.604    0.377
         2 -14.2946    169.9775     37.6154   7.4452992118e+01   3.8306058303e+01     1.071262    0.9728295   5.01  0.003661823    1.250    0.200
         3 -14.0677    185.9666      6.2394   6.2795078248e+01   3.7694944997e+01     1.008276    0.8393466 -84.76  0.004807611    1.101    0.092
         4 -10.1704     21.3811    235.4419   1.4762312049e+02   2.4526122905e+01    0.1024232   0.07571596  73.46  0.000793422    1.106    0.096
         5 -18.9879     72.5741    242.6352   1.3922747141e+02   1.7057892555e+01     6.428131     5.134558  67.78   0.03950588    1.111    0.100
         6 -11.9362    163.4261    203.8779   1.1689263638e+02   9.2479553320e+00    0.2665145    0.2409289 -58.35  0.001041925    1.299    0.230
         7 -12.1628    161.1842    198.4684   1.1646320907e+02   1.0600857795e+01    0.3455435     0.236154  70.11  0.001218154    2.036    0.509
         8 -10.8127    198.8722    222.6951   1.1305724376e+02   9.2804748195e-02    0.1787584    0.1347905  35.14 0.0004584455    1.114    0.102
         9 -13.7942    137.6879    198.6898   1.2139902771e+02   1.4848346933e+01    0.7398959    0.4244566  57.90  0.003495036    1.881    0.468
        10 -12.7132    155.1266    196.9211   1.1746101132e+02   1.1996741742e+01    0.4019124    0.2814784 -88.65   0.00193899    2.254    0.556
        11 -11.6482    207.7823    196.1677   1.0683759523e+02   2.4122972279e+00    0.2381542    0.1689112  46.33  0.001321467    1.424    0.298
        12 -18.9408     55.4101     99.9894   1.2474979573e+02   5.0258500673e+01     17.87926    0.8893815 -59.65   0.02548594   18.739    0.947
        13 -10.8041    180.0483    192.4731   1.1158042404e+02   8.1184201063e+00    0.2340367    0.1979896 -71.88 0.0007386294    1.552    0.356
        14 -12.4822    167.4916    190.8506   1.1385839540e+02   1.0773273019e+01     0.414089     0.294091  20.64  0.001656144    1.651    0.394
        15 -10.7522     10.7202    214.8609   1.4842824683e+02   2.9420730976e+01    0.2159876    0.1234022 -56.36  0.001359544    2.434    0.589
        16 -10.8200     25.7964    232.3315   1.4671772429e+02   2.4614173482e+01    0.1292238    0.1014273  67.20 0.0005710141    1.186    0.157
        17 -11.1482    176.5950    187.8276   1.1144226214e+02   9.5750124106e+00    0.2297185    0.1771016 -50.86  0.000879567    1.500    0.333
        18 -11.6341    178.3392    226.4647   1.1748767930e+02   3.0217083184e+00     0.214119    0.1903397  14.04 0.0007364615    1.168    0.144
        19 -12.5569     41.3152    183.5462   1.4033753893e+02   3.2581785055e+01    0.3364896    0.2431204  61.78 0.0006598062    1.197    0.164
        20  -9.5660     33.0420    211.4882   1.4417264862e+02   2.7758606931e+01    0.1573603    0.0900613  47.93  0.000992524    1.504    0.335
        21 -12.2764    205.5090    180.4814   1.0429826533e+02   5.2937650793e+00    0.5345585    0.3159299  43.76  0.002049786    1.603    0.376
        22 -12.0973    208.6834    178.6641   1.0333288683e+02   4.9869761413e+00    0.4268754    0.3167701  23.36  0.002325525    1.323    0.244
        23 -10.4466     34.7008    206.0045   1.4347929963e+02   2.8661157553e+01    0.1757096    0.1286701  48.95 0.0007731551    1.333    0.250
        24 -12.5840    195.8828    171.1879   1.0433010611e+02   8.7155824098e+00    0.7790921    0.4143537 -49.04  0.003017864    2.253    0.556
        25 -11.1721     25.3167    165.7401   1.4225185743e+02   3.8167059608e+01    0.2174208    0.1864915  14.78 0.0007757274    1.678    0.404
        26 -12.7405    144.2402    167.9883   1.1471994629e+02   1.9669252793e+01    0.5988469    0.3767493  80.71  0.002315785    2.891    0.654
        27 -10.6972    223.7630    163.8855   9.7507057707e+01   4.4900703628e+00    0.2343491    0.1833601 -50.19 0.0005283183    1.550    0.355
        28 -10.7527     29.0431    206.3464   1.4458309669e+02   2.9213503918e+01    0.1320885    0.1029789  21.32  0.000894245    1.960    0.490
        29 -10.8204    237.5254    159.4748   9.4146049090e+01   2.5917371512e+00    0.1351568     0.120037  -2.45 0.0001084505    1.011    0.010
        30 -12.0966    158.6571    204.4824   1.1795821975e+02   1.0009968198e+01    0.3527189    0.2229544  61.99  0.001724645    1.948    0.487
        31 -11.8681    162.2614    154.1545   1.0787616615e+02   1.8810930938e+01    0.3800293    0.2994668  69.53  0.001874747    1.482    0.325
        32 -13.8267    133.3796    145.5304   1.1277966129e+02   2.6605623496e+01      1.10479    0.5513188 -58.36  0.004246117    2.341    0.573
        33 -11.5817     15.9082    150.3690   1.4305874530e+02   4.2453227890e+01    0.2579784    0.2139811 -10.71 0.0009665024    1.826    0.452
        34 -10.9859    174.6675    148.9508   1.0402234339e+02   1.7204691781e+01     0.273689    0.2393757  88.60  0.000822919    1.362    0.266
        35 -12.6092    144.8528    145.8002   1.1008315278e+02   2.4192311600e+01    0.4525149    0.3475127 -87.55  0.002129247    1.671    0.401
        36 -10.7135     14.5501    146.5089   1.4303539864e+02   4.3435528153e+01    0.1203045   0.09249309  89.77 -2.840733e-06    1.020    0.020
        37 -12.9149      4.7012    139.6832   1.4481536141e+02   4.5721424741e+01       0.7275    0.4655486 -67.79  0.001752452    1.342    0.255
        38 -13.4691      2.8278    125.3227   1.4401014477e+02   4.9082306689e+01     1.202145    0.4386937 -76.76  0.005832254    2.154    0.536
        39 -12.6869    115.2937    138.1312   1.1574377054e+02   3.1810270508e+01    0.5293794    0.3391023 -39.08   0.00235894    1.821    0.451
        40 -11.9885     20.1177    141.2818   1.4116931663e+02   4.4158301282e+01    0.2086699    0.1721312 -83.35 0.0007473546    1.070    0.065
        41 -10.3797    171.7942    137.8311   1.0212575545e+02   2.0023799533e+01    0.2093794    0.1824909  83.72 0.0005544508    1.333    0.250
        42 -12.4333    106.0605    130.7657   1.1659664142e+02   3.5224348343e+01    0.4238398    0.3489211 -73.33  0.001239275    1.236    0.191
        43 -11.5235    108.5715    125.1603   1.1468750935e+02   3.6051599042e+01    0.3121541    0.2593238 -32.77  0.001101618    1.371    0.271
        44 -12.4516    119.5415    129.6169   1.1278543799e+02   3.2921235882e+01    0.4168147     0.379718 -59.43   0.00124984    1.090    0.082
        45 -12.5616    125.4487    127.1272   1.1068211468e+02   3.2296881866e+01    0.6904208    0.4193063  80.63  0.002331194    3.383    0.704
        46 -12.6410    135.8822    122.3021   1.0686544162e+02   3.1180440711e+01    0.6768098    0.3146845 -53.63  0.002443008    2.389    0.581
        47 -11.9329      2.8608    112.6560   1.4273162587e+02   5.1950208998e+01    0.2712284    0.2364367 -32.37  0.001493734    1.444    0.307
        48 -11.4681    113.9583    118.6409   1.1171120428e+02   3.6509063977e+01    0.2801913    0.2675084 -87.16 0.0004931743    1.027    0.026
        49 -11.0137    115.8560    115.1381   1.1034320974e+02   3.6926355693e+01    0.2795122    0.2049117  62.58 0.0009685492    1.541    0.351
        50 -11.0371    167.8880    113.2377   9.6940213773e+01   2.5835175454e+01    0.4316157     0.300925 -80.89   0.00136492    2.217    0.549
        51 -11.4342    160.5208    127.8182   1.0227733710e+02   2.4571009360e+01    0.4013948    0.2571787 -54.35  0.001415111    1.729    0.422
        52 -10.6908    205.5078    110.1710   8.8502886613e+01   1.7563091507e+01    0.3314756    0.2157121  43.00 0.0009926592    1.609    0.379
        53 -12.1156      9.2395    111.3714   1.4078172056e+02   5.1845198574e+01    0.4196849    0.2159518  -3.27  0.002074635    3.404    0.706
        54 -12.1859     84.9183    110.4039   1.1799801249e+02   4.3628218515e+01    0.3565634    0.2199149  51.52  0.001642186    1.804    0.446
        55 -12.9229    105.4228    138.3769   1.1835354805e+02   3.3581734816e+01    0.5305783    0.3448725  65.08 0.0007056107    1.846    0.458
        56 -10.7388     95.5959     79.9206   1.0659027140e+02   4.8568680097e+01     0.268342    0.2062796  49.40 0.0006009659    1.401    0.286
        57 -10.2224     13.5042     59.9026   1.3072927290e+02   6.3082255960e+01    0.1662911    0.1379004 -48.76 0.0004429837    1.060    0.057
        58 -11.0252     13.4726    244.6464   1.4933340267e+02   2.3731101610e+01     0.266037   0.06686582 -71.98  0.001340394    3.599    0.722
        59 -12.3983    168.1671    233.4148   1.2041187062e+02   3.7097126812e+00    0.3615769    0.2279735  54.71  0.001053003    1.663    0.399
        60 -12.7009    173.9090     30.1235   7.1496133700e+01   3.8231710001e+01    0.4204572    0.3711121  -7.78  0.000997312    1.301    0.232
        61 -10.5122    134.4930     29.9816   7.8693158014e+01   4.8402354646e+01    0.2657723    0.1956783  78.63 0.0006072912    1.551    0.355
