#   1 NUMBER                 Running object number                                     
#   2 MAG_AUTO               Kron-like elliptical aperture magnitude                    [mag]
#   3 X_IMAGE                Object position along x                                    [pixel]
#   4 Y_IMAGE                Object position along y                                    [pixel]
#   5 X_WORLD                Barycenter position along world x axis                     [deg]
#   6 Y_WORLD                Barycenter position along world y axis                     [deg]
#   7 A_WORLD                Profile RMS along major axis (world units)                 [deg]
#   8 B_WORLD                Profile RMS along minor axis (world units)                 [deg]
#   9 THETA_WORLD            Position angle (CCW/world-x)                               [deg]
#  10 FWHM_WORLD             FWHM assuming a gaussian core                              [deg]
#  11 ELONGATION             A_IMAGE/B_IMAGE                                           
#  12 ELLIPTICITY            1 - B_IMAGE/A_IMAGE                                       
         1 -12.9931     44.7887     22.6609   5.4377546771e+01   7.1070010101e+01     1.257402    0.8791244 -58.62  0.006273334    1.729    0.422
         2 -11.7691    178.5653     23.8514   2.2571536967e+01   3.7308872544e+01    0.4859556    0.3743441 -46.53  0.002772491    1.123    0.110
         3 -11.4697     75.9806     25.1905   4.1796221430e+01   6.3726287756e+01    0.3600152    0.3284906 -56.38  0.002009525    1.117    0.105
         4 -11.3226    227.1480     16.1046   1.7134362801e+01   2.7430626052e+01    0.4702612    0.3267585 -55.46  0.002552292    1.140    0.123
         5 -12.0843     78.0706     13.3835   3.4640931414e+01   6.4808578944e+01    0.4429193    0.3456912  -8.39  0.002321715    1.490    0.329
         6 -11.6906    144.0204      4.0286   1.9268538166e+01   4.8198622776e+01    0.6847589    0.4537213 -84.72  0.003523846    1.395    0.283
         7 -11.7678    164.8116     11.9554   2.0124242628e+01   4.2044359266e+01     0.488115     0.343256 -48.17   0.00214215    1.231    0.187
         8 -13.7226    169.5042      5.2138   1.7629821004e+01   4.1555511372e+01     1.767678    0.8882268  82.53  0.008317837    1.927    0.481
         9 -12.5534    158.3253      3.9034   1.8028686368e+01   4.4499098829e+01     1.015478    0.4669645  69.19  0.004528145    2.102    0.524
        10  -9.8274    130.2124     12.3405   2.3910023099e+01   5.1046566561e+01    0.1907758    0.1843459 -84.26 0.0008986104    1.130    0.115
        11 -10.4984    116.5658     16.9997   2.7843358533e+01   5.4206081013e+01     0.446786    0.1842076 -49.22  0.001659743    2.512    0.602
        12 -10.9395    231.9348      9.2541   1.5290884161e+01   2.7199829430e+01    0.4049588    0.2218729 -56.60  0.002388471    1.451    0.311
        13 -10.7824     39.5194      8.0067   4.7239059238e+01   7.4477055846e+01    0.3158336    0.2439803 -20.07  0.001469466    1.355    0.262
        14 -11.3753     71.2795      6.0994   3.2334253482e+01   6.7347772119e+01    0.5301726    0.2299254  71.79  0.002071315    2.443    0.591
        15 -11.1876    223.3979      5.0959   1.4669354269e+01   2.9331440401e+01    0.4106449    0.1337863 -47.37  0.001924138    2.116    0.528
        16 -11.1570    131.1424      3.9775   2.0522149609e+01   5.1623244409e+01    0.7437054    0.2622914  62.29  0.002829689    2.598    0.615
        17 -11.0829    121.4150      4.1764   2.1719504086e+01   5.4220392494e+01    0.5450441    0.4001155  88.12  0.002882007    1.253    0.202
        18 -10.5225    106.6440      5.1137   2.4180311979e+01   5.8124704922e+01    0.4913394    0.2103513 -71.09  0.001674178    3.286    0.696
        19 -11.9417     83.8016      3.6978   2.7707784997e+01   6.4354428692e+01     0.871137    0.3668759  72.11  0.003419289    2.263    0.558
        20 -10.9282    204.2290      4.6190   1.5420892921e+01   3.3452492960e+01    0.2936125    0.1602741  78.98   0.00148779    1.903    0.474
        21 -10.4057    208.2983      4.1612   1.5106813491e+01   3.2606600693e+01     0.249072    0.1761673 -44.43  0.001014003    1.131    0.116
        22 -12.2003    156.1236     11.6016   2.0784869420e+01   4.4294737473e+01    0.6194775    0.4106281  84.32  0.002783816    1.438    0.304
        23 -10.3851     61.9534      1.6046   3.2302752733e+01   7.0125258049e+01    0.4288673    0.1033885  62.05  0.001413092    3.379    0.704
        24  -9.0097     17.5118      1.5477   5.8674668631e+01   7.9445173128e+01    0.1256174    0.1131375  -1.26 0.0002935058    1.010    0.010
        25  -9.2189     10.3288    176.3293   1.0184025226e+02   3.5665038404e+01    0.1217579   0.09493498 -44.25 0.0007051311    1.710    0.415
        26 -10.5537    174.0041    159.8890   5.7798467239e+01   1.5996242591e+01     0.350121    0.2732711  87.19  0.001844131    2.235    0.553
        27 -10.1000     14.6995    160.1608   9.9853796109e+01   3.9247166159e+01    0.2291697    0.1406098  69.11  0.001051231    1.420    0.296
        28 -11.0508    219.7766    156.0867   4.9208899491e+01   9.6208029732e+00    0.3342317    0.2807924  64.74  0.002211525    1.878    0.467
        29 -10.1261     20.4978    155.6380   9.7827955910e+01   3.9877164995e+01    0.2242677    0.1229073  25.11 0.0009880738    1.831    0.454
        30 -10.4948    163.3424    152.3175   5.8451661934e+01   1.9113464765e+01    0.2471667    0.2048793  -3.59   0.00142042    1.271    0.213
        31  -9.9432     53.6628    143.4641   8.6115701707e+01   3.9350486498e+01      0.27466    0.2215026  88.94  0.001199064    1.190    0.159
        32 -12.3563     10.8934    140.0565   9.9950173302e+01   4.4749286213e+01      0.58916    0.2665816  63.72  0.002543736    2.030    0.507
        33 -13.3659    241.0448    125.2631   4.0279951715e+01   1.0853036374e+01     1.003717    0.9447201  65.78  0.007587205    1.466    0.318
        34 -13.7032    244.5515    110.5798   3.6895941356e+01   1.2318361970e+01     1.704574    0.8024536 -39.25  0.009207473    1.700    0.412
        35 -10.7123      4.6489    124.6374   1.0125158034e+02   4.9320046460e+01    0.3102776    0.1374871  56.08  0.001330383    2.033    0.508
        36 -11.7379     10.7866    122.1333   9.8835928380e+01   4.9575726431e+01    0.4291883    0.2550063  38.00  0.002117486    1.591    0.372
        37  -9.3384    208.7846    123.3782   4.4307217424e+01   1.6204324987e+01    0.1612088    0.1178049  31.55 0.0006108921    1.574    0.365
        38 -10.2468    154.4131    120.8198   5.3526627737e+01   2.6782073285e+01    0.2081477    0.1336851 -32.96 0.0008803172    1.648    0.393
        39 -11.3973    190.1864    114.0713   4.5181161385e+01   2.1032639260e+01    0.8437206    0.4081194 -21.23   0.00301536    3.479    0.713
        40 -11.0554    212.5292    112.8963   4.1479896418e+01   1.7180345990e+01      0.47392    0.2806359 -37.69  0.002542722    1.426    0.299
        41 -11.2800    223.0120    108.2704   3.9039715359e+01   1.6081253563e+01    0.5008265    0.3772762 -44.64  0.003121436    1.236    0.191
        42 -10.0196    148.5366    110.8668   5.2387028504e+01   2.9969029962e+01    0.3659186    0.1390997 -45.32   0.00126396    2.530    0.605
        43 -10.7916     17.3858    104.4141   9.4634363947e+01   5.3963581443e+01    0.4121008     0.232951  38.97  0.001913241    1.714    0.416
        44 -10.1468     30.3628    102.1545   8.8852728838e+01   5.3396799520e+01    0.3483839    0.2151045 -47.37  0.001575536    1.768    0.435
        45  -9.4560    208.9923     94.2837   3.7743210131e+01   2.0673995466e+01    0.1833988    0.1604611 -35.76  0.000694118    1.041    0.039
        46  -9.6986    178.9442     92.9533   4.1935022071e+01   2.6882240327e+01    0.2339041    0.1650388 -66.49  0.001141116    1.693    0.409
        47 -11.0155     12.6559     89.8734   9.5061244163e+01   5.8368133552e+01    0.2729454    0.2044172  36.28  0.001204172    1.381    0.276
        48 -11.4205      2.4710     85.9694   9.9493515425e+01   6.0052684320e+01    0.9834255    0.2531402 -82.22  0.003154669    3.471    0.712
        49 -12.4437      4.9363     76.0597   9.7263066635e+01   6.2652019713e+01    0.8836162    0.4250737  62.95  0.003739234    2.233    0.552
        50 -13.0809     14.8559     73.3037   9.1596566405e+01   6.2786406091e+01     1.091863    0.7306023  40.94  0.005525691    1.546    0.353
        51 -12.4709     41.6171     82.1990   7.9967933906e+01   5.7582139809e+01    0.9720629    0.8710946  21.92  0.005256112    1.238    0.193
        52 -11.1240     47.0005     76.0191   7.5842739894e+01   5.8483436976e+01    0.5542562    0.3570916  55.47   0.00246062    1.719    0.418
        53 -10.0232     20.0000     88.9585   9.1486301326e+01   5.8055651149e+01    0.2465357   0.07585779 -74.69 0.0008043124    2.955    0.662
        54 -10.8629     18.1717    127.8264   9.6570560951e+01   4.7438690837e+01     0.230817    0.1695708  63.86 0.0008037345    1.214    0.176
        55 -10.1076    193.3717     86.9181   3.8149651776e+01   2.4891062859e+01    0.3090054    0.2045725  76.33  0.001403677    1.977    0.494
        56  -9.6696    100.5229     83.9305   5.7433495716e+01   4.6351138896e+01    0.2477757    0.1535482 -48.73  0.001030452    1.586    0.370
        57  -9.1359    145.5837     81.1913   4.4970371185e+01   3.6474792656e+01    0.2137114    0.1441563 -29.57 0.0009432031    1.654    0.395
        58  -9.7518    215.2042     79.9136   3.3564581507e+01   2.1644244717e+01    0.2118466    0.1519977 -51.78  0.000921877    1.293    0.226
        59  -9.9968    220.7064     77.6414   3.2394558764e+01   2.0931092729e+01    0.2938595    0.1405205 -55.10  0.001311418    2.416    0.586
        60  -9.8660    169.6172     76.4907   3.9106804908e+01   3.1751126638e+01    0.2904276    0.2379332 -73.21  0.001547466    1.273    0.215
        61  -9.9630    227.2227     72.0471   3.0393395041e+01   2.0500713001e+01     0.264871     0.140277 -46.29  0.001383344    1.597    0.374
        62 -10.6487     75.4208     69.1161   6.1307611454e+01   5.5175573397e+01    0.4734688     0.367783  12.43  0.002140854    1.802    0.445
        63 -11.8428    214.8865     67.2554   3.0556874368e+01   2.3518132755e+01    0.4647443    0.1789218 -33.59  0.001995889    2.140    0.533
        64 -10.9346     25.5980     65.0756   8.3963458559e+01   6.4069348633e+01    0.4467961    0.2668155 -74.58  0.002044474    1.636    0.389
        65  -9.5048    179.1743     66.3835   3.4805466806e+01   3.1235149406e+01    0.1979028    0.1336255  83.16 0.0009552938    1.750    0.429
        66 -10.6669    233.0635     64.1104   2.7998133148e+01   2.0494835774e+01    0.2660973    0.1669747  51.87  0.001536141    2.040    0.510
        67  -9.2819    132.3678     63.7904   4.2391441715e+01   4.2932037853e+01    0.2136514    0.1458668 -29.74 0.0009376367    1.630    0.386
        68  -9.3919    200.4384     63.5134   3.1254541050e+01   2.7004725319e+01    0.1378753     0.114561 -47.03 0.0001489369    1.008    0.008
        69  -9.9900     83.6817     68.7640   5.8076306925e+01   5.3514906194e+01    0.2742886    0.2538815 -16.29  0.001166602    1.268    0.211
        70 -10.9272    209.8630     60.2493   2.9367552996e+01   2.5508396090e+01    0.3603157    0.1748278 -41.58  0.001728124    1.654    0.395
        71 -10.4619    229.2163     60.3961   2.7492547303e+01   2.1695124141e+01       0.1566    0.1127667 -81.18 0.0006465066    1.618    0.382
        72  -9.3189     76.0000     59.0033   5.7349844054e+01   5.7355890545e+01    0.2603934   0.08671253 -46.90 0.0008061689    2.968    0.663
        73  -9.2891    138.3192     56.3167   3.8650554500e+01   4.2758264998e+01    0.1493777    0.1214143  22.21 0.0007040514    1.657    0.397
        74 -10.5476    198.8379     52.2639   2.8497489027e+01   2.8946749397e+01    0.3804845     0.186876 -29.68  0.001721068    1.908    0.476
        75  -9.7814    164.7008     53.8621   3.3306797563e+01   3.6593954342e+01    0.2287308    0.1872968 -14.56  0.001189812    1.478    0.323
        76  -9.7743     35.1523     52.8602   7.4780367097e+01   6.6092228473e+01    0.2248884     0.197323  75.12  0.001089384    1.233    0.189
        77 -11.2969    215.1940     50.8838   2.6499979574e+01   2.5690605165e+01    0.2907708    0.2697742  -5.37  0.001920044    1.344    0.256
        78 -11.5955     81.5369     39.8001   4.7090394018e+01   5.9956171614e+01    0.8504676    0.3911392 -45.53  0.003243796    2.213    0.548
        79 -11.0053     85.1422     47.7639   4.9367938133e+01   5.7613971595e+01    0.5719039    0.3880945  52.99  0.002617662    1.463    0.316
        80 -11.3956      3.2568     41.1919   9.2754118425e+01   7.2005724735e+01    0.5326977    0.4161134  57.69  0.002832638    1.408    0.290
        81 -10.9031      5.9435     35.4077   8.9173779575e+01   7.3320750169e+01    0.3655413    0.2271207  21.05  0.001915694    1.718    0.418
        82 -11.6036     39.9945     29.7856   6.1455109049e+01   7.0594222822e+01     0.564564    0.3009935 -47.96  0.002265965    1.850    0.460
        83 -10.9092    159.3675    231.9098   7.1887034320e+01   6.7684585274e+00    0.2007508      0.13073  33.24  0.001322067    1.351    0.260
        84 -10.5352    190.7399     36.5043   2.5056525292e+01   3.2870604060e+01     0.319367     0.114035 -42.43  0.001291556    2.204    0.546
        85  -9.4743     97.2027     36.5845   4.0717923578e+01   5.6622590079e+01    0.2168825    0.1349009  50.29 0.0006704081    1.630    0.387
        86 -10.4760     86.2665     31.3036   4.1506764401e+01   6.0235389580e+01     0.372431    0.2328306  39.47  0.001458822    1.864    0.464
        87  -9.9911     90.3581     28.3064   3.8842273015e+01   5.9659828405e+01    0.3292458    0.2416357 -42.98  0.001619283    1.369    0.270
        88 -11.4748     49.4469     36.5412   5.9560496589e+01   6.7513436182e+01    0.9026954    0.5581038 -88.33  0.002980634    4.241    0.764
        89 -10.1574    145.3918     27.9660   2.7659544213e+01   4.5177718646e+01    0.4583911    0.1914458 -66.54  0.001450524    3.633    0.725
        90 -11.8663    240.9933    229.3148   5.7976000808e+01  -1.8243451747e+00    0.4138347    0.2396871  26.92  0.003115831    1.646    0.392
        91 -11.4875    173.1761     20.9410   2.2190256405e+01   3.8963853421e+01    0.3666354    0.2373402  85.19  0.001247997    1.533    0.348
        92  -9.7587    168.6730     26.6922   2.4411931125e+01   3.9389315913e+01    0.1342022    0.1071625  35.79 0.0007037924    1.655    0.396
        93  -9.3611    103.1148     25.8442   3.4406428714e+01   5.6690141751e+01    0.2077029    0.1725958  42.78  0.001070702    1.324    0.244
        94 -11.6155    248.5813    224.5091   5.6219460329e+01  -2.0524471140e+00    0.4566561    0.2353978 -21.73  0.003261562    1.596    0.373
        95  -9.7681    224.2979     22.8400   1.8912225751e+01   2.7264643914e+01    0.2188897    0.1431814 -66.76  0.001316517    1.400    0.286
        96  -9.9224    186.9933     19.5008   2.0587009501e+01   3.5804900860e+01    0.1983831    0.1250111  82.69  0.001039754    1.610    0.379
        97 -10.3870    128.5187     18.4399   2.6540319229e+01   5.0823680347e+01    0.3584195     0.257172  82.68  0.001805187    1.328    0.247
        98 -10.8681      3.8931    230.1753   1.0489928537e+02   2.4698153573e+01    0.2536969    0.1736223  17.23  0.001682061    1.659    0.397
        99  -9.9056     94.4717     17.1831   3.2344015668e+01   6.0093934153e+01     0.327989    0.1995774 -68.61  0.001361105    1.999    0.500
       100  -9.7691    247.6880     16.3556   1.6210288751e+01   2.3479000990e+01    0.1316316   0.05666509 -51.09 0.0007044155    1.734    0.423
       101  -9.4673    111.4901    228.5150   8.1096042789e+01   1.3219156284e+01    0.1204847   0.09678432  29.12 0.0001425438    1.019    0.019
       102 -10.0019     20.3356     15.1814   6.7050748922e+01   7.6559003692e+01    0.2792859    0.1935892  -6.39  0.001452373    1.796    0.443
       103  -9.9399     31.7832    227.3620   9.8660921116e+01   2.2651738488e+01    0.1613813   0.09811296  21.15 0.0007435479    1.683    0.406
       104 -12.5989    208.1940    216.0919   6.1098764367e+01   3.0842466431e+00    0.3828183    0.2996959  -8.55  0.002946441    1.115    0.103
       105 -11.3202    158.7358    225.5516   7.1196602536e+01   7.7380641333e+00    0.1995618    0.1892525  18.01  0.001349176    1.316    0.240
       106 -13.5225    184.0323    215.3531   6.5119355709e+01   6.0358083243e+00    0.9728006    0.4958661 -27.08  0.005462485    2.144    0.534
       107 -10.2996     76.8549    220.3121   8.7945993155e+01   1.8973131952e+01    0.3168245    0.1384059  24.71  0.001463342    2.230    0.552
       108 -10.4162     67.3287    217.2431   8.9887950507e+01   2.0704898834e+01    0.2752718    0.1311883  38.90  0.001419043    1.612    0.380
       109 -12.3813    247.6536    184.6862   5.0223074143e+01   2.4143827540e+00    0.9072718    0.3388498 -38.34  0.004852323    2.546    0.607
       110 -12.4849    243.9261    200.5536   5.3289130099e+01   9.8766664145e-01    0.7124735    0.4809159 -22.87  0.004714891    1.242    0.195
       111 -11.1092    247.4554    192.5995   5.1536831325e+01   1.5173674546e+00    0.3211621    0.2935821  -7.63  0.002053718    1.555    0.357
       112 -10.1511    141.3435    206.5400   7.2124148600e+01   1.2937172291e+01    0.2268485    0.1528656 -43.20  0.001349719    1.658    0.397
       113 -11.2674     50.5463    218.4638   9.3887398856e+01   2.2400359796e+01    0.3526023    0.1998863  32.41  0.001992537    1.442    0.307
       114  -9.3913    146.3119    202.6702   7.0548184586e+01   1.2892506225e+01    0.1182222   0.09312285  58.72 0.0007042965    1.671    0.401
       115 -10.0658     24.8135    198.6775   9.9006459773e+01   2.9228133945e+01    0.3414811          nan  33.90  0.001100875    4.115    0.757
       116  -9.7315    202.8436    197.1572   5.9085878037e+01   6.1637811561e+00      0.16339    0.1454821  -1.88 0.0009363665    1.240    0.194
       117 -10.9696    204.5293    192.3774   5.8032008019e+01   6.5992546627e+00    0.3839865     0.177917  24.83  0.001978967    2.324    0.570
       118 -10.1642     37.3401    185.4655   9.4991760160e+01   3.0908168629e+01    0.2221984    0.1907361   7.51  0.001359164    1.445    0.308
       119 -11.7179    195.9001    184.9559   5.8271176011e+01   8.7789028130e+00    0.3616523      0.26851 -44.82  0.002318306    1.606    0.377
       120  -9.9142     26.4892    180.4995   9.7611344167e+01   3.3191050499e+01    0.1344506    0.1088104  57.41 0.0008105978    1.002    0.002
