#   1 NUMBER                 Running object number                                     
#   2 MAG_AUTO               Kron-like elliptical aperture magnitude                    [mag]
#   3 X_IMAGE                Object position along x                                    [pixel]
#   4 Y_IMAGE                Object position along y                                    [pixel]
#   5 X_WORLD                Barycenter position along world x axis                     [deg]
#   6 Y_WORLD                Barycenter position along world y axis                     [deg]
#   7 A_WORLD                Profile RMS along major axis (world units)                 [deg]
#   8 B_WORLD                Profile RMS along minor axis (world units)                 [deg]
#   9 THETA_WORLD            Position angle (CCW/world-x)                               [deg]
#  10 FWHM_WORLD             FWHM assuming a gaussian core                              [deg]
#  11 ELONGATION             A_IMAGE/B_IMAGE                                           
#  12 ELLIPTICITY            1 - B_IMAGE/A_IMAGE                                       
         1 -14.4822    244.3679    139.2642   9.4784023501e+01   7.1006598169e+00     3.205557     1.794713 -23.79   0.01592457    1.760    0.432
         2 -13.0490    172.6076     54.9138   8.5345386242e+01   3.4804881687e+01     1.784542     1.098719  77.23  0.007306527    2.194    0.544
         3 -11.7550    246.7557     35.1003   6.9033893479e+01   1.8871319992e+01     2.077403    0.7500033 -25.09  0.008002382    2.431    0.589
         4 -11.8102    215.8236     20.7458   6.8280777418e+01   2.8004777220e+01     1.007649    0.7498254 -37.62  0.003144868    1.283    0.221
         5 -12.8578    218.9279     10.2338   6.4820582815e+01   2.8270859345e+01     1.764508    0.5749514 -47.54  0.005758389    3.475    0.712
         6 -11.4454    232.4567     33.1353   7.0021349600e+01   2.2498871502e+01    0.7736652    0.5222791  35.55  0.002573604    1.663    0.399
         7 -13.5545    179.3898      4.2274   6.7277516436e+01   3.9268713442e+01     4.758839     1.941675  82.30   0.01597792    3.251    0.692
         8 -12.5515    247.1914      2.9764   6.0353137686e+01   2.1957889767e+01    0.7527502    0.5023196 -41.99  0.001512944    1.362    0.266
         9 -13.6950    216.0223     38.8612   7.3637000619e+01   2.5919586267e+01     1.833979     1.377075 -69.66  0.009123715    1.571    0.364
        10 -12.3355    224.8211     29.8897   6.9954222341e+01   2.4741010853e+01    0.7044865    0.4026825  37.13  0.001513724    2.047    0.511
        11 -13.6234    201.1575     56.9797   8.1103917152e+01   2.7343810056e+01     4.169666     1.853726  66.61   0.01422256    2.669    0.625
        12 -14.6809     21.1916     12.1063   1.1528054603e+02   7.0648615140e+01     2.752975     1.599452  25.95   0.01684351    2.126    0.530
        13 -11.6702    232.2554     17.0805   6.5506986397e+01   2.4241643068e+01    0.4968341    0.2960495 -52.25 0.0007285755    1.756    0.431
        14 -13.4522    239.8188     13.9547   6.3934653103e+01   2.2699344889e+01     1.164357    0.6193569 -65.93  0.001641863    2.355    0.575
        15  -9.4365    116.2486     12.4640   8.1419297595e+01   5.4597319651e+01    0.3106408    0.2118113  37.17  0.001296257    1.499    0.333
        16 -11.0091    120.4815      8.9445   7.8936803146e+01   5.4014156994e+01    0.4264961    0.3440973 -28.98  0.001174576    1.222    0.181
        17 -10.9297    134.9802      9.0082   7.5991844497e+01   5.0447633739e+01    0.4207621    0.1688981  53.00  0.001544734    2.297    0.565
        18 -11.0224    139.9715      2.2466   7.2316906814e+01   4.9874318406e+01    0.6596127    0.2986887  62.58  0.002675462    2.110    0.526
        19 -12.6182    237.2312      3.3651   6.1225592352e+01   2.4324187186e+01    0.8617926    0.4575939 -66.69  0.001352478    2.228    0.551
        20 -10.4750    179.4249     23.7361   7.3952246770e+01   3.7210188478e+01    0.6045572    0.4028323  56.55  0.002828844    1.475    0.322
        21  -8.4498    129.7256    123.0420   1.1249486236e+02   3.2282750512e+01    0.1770457    0.1657487 -72.07 0.0002271814    1.078    0.072
        22  -9.1389    205.5213    122.0133   9.7326840150e+01   1.7001602612e+01    0.1992791    0.1322677 -29.69  0.000615504    1.544    0.352
        23  -9.3699    218.2495    118.1584   9.4302362597e+01   1.4875709377e+01    0.2561291    0.1866864  84.82  0.001235603    2.275    0.560
        24 -10.3720    167.6875    113.3805   1.0238595575e+02   2.6384464742e+01     0.328356    0.2686784 -71.35 0.0007410156    1.496    0.331
        25 -10.4797    187.2511    112.7929   9.8477372641e+01   2.2272549191e+01    0.3404804    0.1605125 -40.91  0.001417851    2.214    0.548
        26  -9.5430    204.7404    110.3512   9.4759817626e+01   1.8843601453e+01    0.3955742    0.2045124  36.53  0.001684443    2.102    0.524
        27  -9.2199    135.0000    108.9802   1.0828957328e+02   3.3928522419e+01    0.2278512    0.0783841 -45.27 0.0006038556    2.950    0.661
        28  -8.9732    179.6743    105.6708   9.8195921191e+01   2.5061238907e+01    0.1832638    0.1626656 -83.04  0.001003834    1.340    0.254
        29 -10.0485    188.8796    105.0754   9.6318488853e+01   2.3119338238e+01    0.2096341    0.1966969 -75.88 0.0004472605    1.225    0.184
        30  -8.8832    170.6843     97.3993   9.7881406847e+01   2.8424029715e+01    0.2196294    0.1730616 -79.67 0.0007609999    1.671    0.402
        31 -12.3087    134.3209     38.6578   8.7682473179e+01   4.6691804942e+01     2.040115     0.775162  67.41  0.005657222    4.918    0.797
        32 -13.0513      8.2682    216.7348   1.4576722895e+02   3.1491705360e+01    0.6638371    0.4319675  73.29  0.003973641    1.094    0.086
        33 -11.7443    175.1161     72.7552   9.0272252807e+01   3.1433803118e+01    0.8359309    0.6453151 -13.53  0.001405448    1.414    0.293
        34  -9.9216    148.2778     95.6272   1.0210419169e+02   3.3666138212e+01    0.3432887    0.2526733  26.30  0.001008868    1.655    0.396
        35  -9.3551    134.5828     93.1194   1.0453760595e+02   3.7022665645e+01    0.2307423    0.1933618  70.33 0.0007067311    1.286    0.222
        36 -10.3980    220.2459     91.5826   8.7562089385e+01   1.8055008812e+01     0.336857    0.2413278  89.63  0.001275799    2.172    0.540
        37 -10.0826    157.4952     87.9944   9.8112030772e+01   3.2999936137e+01    0.3678708    0.2640545  -8.06  0.001689313    1.875    0.467
        38 -10.3430    160.4621     85.4971   9.6809991968e+01   3.2761802546e+01    0.3969649    0.2875148 -52.73  0.001069246    1.510    0.338
        39 -10.5400    142.2308     84.2413   1.0042469672e+02   3.7055531488e+01    0.3237168    0.2939192 -66.86 0.0006936323    1.153    0.133
        40 -10.1002    188.3923    191.1114   1.1322096154e+02   1.0928529775e+01    0.2660325    0.1499681  49.11  0.000271726    1.561    0.359
        41  -8.4177    203.0125     80.4970   8.7452540080e+01   2.3580249721e+01    0.1879729     0.130571 -85.09 0.0007009801    2.246    0.555
        42 -10.5674    140.2063     78.4679   9.9266206384e+01   3.8554441496e+01    0.2738071    0.2063393 -39.96 0.0007814281    1.305    0.234
        43 -11.5004    156.9156     75.0194   9.4591348469e+01   3.5378285982e+01     0.361897    0.2739034 -20.91 0.0008429746    1.440    0.306
        44  -9.6501    221.1097     73.5723   8.2719663942e+01   2.0277521686e+01    0.3679607    0.2655403  16.74  0.001078899    1.566    0.361
        45 -14.1103     39.0961    191.1107   1.3952056377e+02   3.2620040409e+01     1.027555    0.8562495  17.86   0.00327025    2.047    0.511
        46 -13.5588     51.2099    180.4431   1.3659592189e+02   3.3133742363e+01    0.8993327    0.6483569  58.96  0.003277236    1.150    0.130
        47  -9.8786    216.3096    168.9003   1.0494634387e+02   8.7649187029e+00    0.2830617    0.1782955  58.43 0.0008523893    1.973    0.493
        48  -8.6989    211.6157    166.2717   1.0524210585e+02   9.9233241921e+00    0.2022638    0.1415924  61.25 0.0007804426    1.815    0.449
        49  -9.2583     67.9597    245.0141   1.3817661461e+02   2.1196107804e+01    0.1403053   0.09502745  59.37 0.0003135647    1.013    0.013
        50 -10.1331     69.9859    145.4893   1.2937351781e+02   3.7378805788e+01    0.3109299     0.204456  71.61  0.001299066    1.455    0.313
        51 -10.3557     66.4027    144.2233   1.2999354440e+02   3.8091110375e+01    0.4225998    0.2309042 -83.71  0.001634803    1.945    0.486
        52 -10.2973    145.0461     60.2762   9.2660919097e+01   4.0661312895e+01    0.4547512    0.2748706 -59.30  0.001700149    2.244    0.554
        53  -9.0754    244.1910     59.4410   7.5816717232e+01   1.6708382759e+01    0.2690871    0.1985058 -59.55  0.001390939    1.633    0.388
        54  -9.0435     32.1390     52.5124   1.2376234326e+02   6.1467638867e+01    0.1954959    0.1352204 -70.02 0.0003787025    1.289    0.224
        55 -11.1355    242.9774    118.3735   9.0481314123e+01   9.8145807465e+00    0.3614245    0.3108505 -24.05 0.0007776702    1.207    0.172
        56  -9.2355    136.1718     46.5845   9.0089695595e+01   4.5008012537e+01    0.2638384    0.1973306 -32.07 0.0002626549    1.294    0.227
        57  -8.7093    186.1207     35.9619   7.6972281066e+01   3.3962447261e+01    0.4210416     0.157682 -40.65  0.001447675    2.668    0.625
        58  -9.5909    191.5039     44.4880   7.8837015360e+01   3.1465742346e+01     0.392571     0.295687  65.28  0.001783093    1.388    0.280
        59  -9.8859    188.3459     41.6647   7.8447478928e+01   3.2650025872e+01    0.4027695     0.247423 -41.75  0.001776787    1.639    0.390
        60  -8.6299    192.1748    144.2109   1.0439649764e+02   1.6524927216e+01    0.1645586    0.1500194  70.25  0.000389626    1.285    0.222
        61 -11.8602    182.8593     80.6165   9.1043796840e+01   2.8341749586e+01     1.745554    0.4424568 -41.03  0.005037962    4.007    0.750
        62 -10.9981    181.7589     66.0895   8.7078112719e+01   3.0850310821e+01    0.4448772    0.3133186 -47.65  0.001112465    1.517    0.341
        63 -10.0314    129.6338     72.4768   1.0000823073e+02   4.1953276271e+01    0.3016725    0.1759136 -44.84  0.001338352    1.674    0.403
        64  -8.2896    164.2499     35.9368   8.0631329982e+01   3.9641072153e+01    0.1903936    0.1252704 -28.88 0.0003079957    1.479    0.324
        65  -9.6550    200.6881     32.2517   7.3673794826e+01   3.0626340268e+01     0.409225    0.2365289 -47.76 0.0006633329    1.854    0.461
        66  -9.0124    132.6707    138.7049   1.1488001272e+02   2.8841016091e+01    0.2575098     0.120481 -52.52 0.0009957794    2.314    0.568
        67  -8.3442    162.3802     28.1721   7.8255720828e+01   4.1144582821e+01     0.213174    0.1285148 -37.77 0.0004480076    1.637    0.389
        68 -13.1249    243.5331    102.0953   8.6637178630e+01   1.1676508289e+01     1.549965     1.070228 -30.21  0.007409118    1.398    0.285
        69  -9.9874    196.9277    127.7594   1.0011275316e+02   1.7958711813e+01    0.2137467    0.1698692  21.17 0.0005984883    1.285    0.222
        70  -8.6223    160.3055    127.6430   1.0702876960e+02   2.5492244810e+01     0.137813    0.1068405 -86.25 0.0007040509    1.721    0.419
        71  -9.2117    136.1396    126.4290   1.1179054286e+02   3.0442800147e+01    0.2605008    0.1735335 -68.74 0.0006843728    1.894    0.472
        72 -10.2284    201.6811    125.9439   9.8873021191e+01   1.7238834160e+01    0.1888388    0.1712274 -14.52 0.0005687479    1.120    0.107
        73  -8.9975    183.4153    124.1930   1.0179809403e+02   2.1306523694e+01     0.441876    0.2612846  78.83  0.001517189    4.232    0.764
        74  -9.5619     91.5029     66.1018   1.0819722835e+02   5.0635659102e+01    0.4678711    0.2312502 -66.28    0.0015844    3.829    0.739
        75 -12.8863    240.9732     83.1498   8.2360852315e+01   1.4554063504e+01     1.543137     1.223874 -68.30  0.006717218    1.693    0.409
        76 -10.3817    144.8054     23.7142   7.9883111227e+01   4.6221564195e+01    0.3662031    0.2491274 -11.35   0.00169625    1.583    0.368
