#   1 NUMBER                 Running object number                                     
#   2 MAG_AUTO               Kron-like elliptical aperture magnitude                    [mag]
#   3 X_IMAGE                Object position along x                                    [pixel]
#   4 Y_IMAGE                Object position along y                                    [pixel]
#   5 X_WORLD                Barycenter position along world x axis                     [deg]
#   6 Y_WORLD                Barycenter position along world y axis                     [deg]
#   7 A_WORLD                Profile RMS along major axis (world units)                 [deg]
#   8 B_WORLD                Profile RMS along minor axis (world units)                 [deg]
#   9 THETA_WORLD            Position angle (CCW/world-x)                               [deg]
#  10 FWHM_WORLD             FWHM assuming a gaussian core                              [deg]
#  11 ELONGATION             A_IMAGE/B_IMAGE                                           
#  12 ELLIPTICITY            1 - B_IMAGE/A_IMAGE                                       
         1 -10.1841    250.3676     26.9714   1.7379517800e+00   2.1651548985e+01     0.364922    0.0829083 -29.87  0.001475761    3.212    0.689
         2  -9.5039     91.7746     25.9897   2.1628427680e+01   5.8946292737e+01    0.4106826    0.1888475 -45.27  0.001079192    2.450    0.592
         3 -11.5443    246.3730      4.8459   3.5717614973e+02   2.4581178707e+01    0.5842379    0.4185479 -44.66  0.004182951    1.053    0.050
         4  -8.6371     55.8735     10.0592   2.5258291895e+01   6.9598754625e+01    0.2024387    0.1840568 -66.75  0.000584293    1.332    0.249
         5 -10.3197    238.2994      8.8473   3.5838641934e+02   2.5699724355e+01    0.2440664    0.1212479 -48.20   0.00118481    1.518    0.341
         6  -8.4958      6.9617      8.4846   5.8633948442e+01   7.8171604348e+01    0.1779543   0.09213842  44.30 0.0008096428    2.723    0.633
         7  -8.5476     70.6234      6.2965   1.7507870872e+01   6.6534136748e+01    0.2118269    0.1557366 -63.54  0.001082331    1.698    0.411
         8  -8.6589     79.3529      3.9412   1.3698487091e+01   6.4572764757e+01    0.2897487     0.142718 -34.91  0.001227482    2.125    0.529
         9  -8.2943     33.5369      5.0607   3.3470322361e+01   7.4880884838e+01    0.1786012    0.1081793 -53.41 0.0008089716    2.574    0.611
        10  -8.7048     91.0363      9.0060   1.3548864297e+01   6.1100401274e+01    0.2269074    0.1581734 -61.52 0.0006534706    1.664    0.399
        11  -7.8114    115.6015      2.2862   6.0370456278e+00   5.5211983036e+01    0.1524539    0.0927478 -65.54   0.00069965    1.779    0.438
        12  -8.1303     62.5087      1.4423   1.7119838253e+01   6.8971877413e+01    0.1352383    0.1229991  46.75 9.722079e-05    1.025    0.025
        13  -7.9761     76.6864    247.3444   7.5361712014e+01   1.4496242657e+01     0.120845   0.06718476  51.06 0.0003459599    1.710    0.415
        14  -9.0494    249.1022    249.1333   4.3743496118e+01  -4.6122732417e+00    0.2855667    0.1329992 -12.26  0.001895105    1.936    0.484
        15 -10.4876    248.7626    241.3692   4.2710641253e+01  -3.8368136704e+00    0.4497071    0.1665058 -30.54  0.002182395    2.418    0.586
        16 -10.1549    246.5727    228.2166   4.1128685001e+01  -2.3080434259e+00    0.4168217    0.1610147 -26.03  0.002459897    2.258    0.557
        17  -9.7149    210.9499    246.7263   4.9363232917e+01  -7.0947075336e-01    0.3337857    0.2196154 -50.15   0.00192762    3.265    0.694
        18  -8.3036     35.0718    247.7812   8.4096673768e+01   1.8748788598e+01    0.1539646   0.06887958  30.89 0.0008717231    1.687    0.407
        19  -9.3388    224.4944    245.5058   4.6998801062e+01  -1.9440493118e+00    0.2004063    0.1335599 -12.25 0.0008884188    1.242    0.195
        20  -9.6820    223.6677    242.3415   4.6692150527e+01  -1.5290510957e+00    0.1890048    0.1651476   4.89  0.001166976    1.656    0.396
        21  -9.9854    146.7982    245.5621   6.0828674508e+01   6.5872017762e+00     0.237707    0.1608031  49.72   0.00144513    2.001    0.500
        22  -8.1910     67.4219    244.7924   7.7134861015e+01   1.5938208834e+01    0.1347343    0.1059069 -51.01 0.0009032924    1.657    0.397
        23  -8.9256    201.8125    242.9772   5.0392153211e+01   6.6786419188e-01    0.1995153    0.1301512 -35.55 0.0009601359    1.835    0.455
        24  -8.3821    139.3216    244.6473   6.2195407139e+01   7.6003344201e+00    0.1108374   0.07781697  48.21 0.0007047453    1.752    0.429
        25  -7.7154     46.6908    244.3596   8.1500791797e+01   1.8192999011e+01    0.1237885   0.06120741  52.37 0.0007041379    1.738    0.425
        26  -8.5060    168.9989    243.0165   5.6271149450e+01   4.3283059409e+00    0.1553412    0.1222028  40.65 0.0005532785    1.647    0.393
        27  -8.5036     77.4347    242.9112   7.4866159931e+01   1.5145358617e+01    0.1530306   0.08325738  67.11 0.0008063582    2.540    0.606
        28  -8.9368    213.9217    241.6450   4.8176594439e+01  -4.5984152718e-01    0.1857264    0.1324563   8.26 0.0009480042    1.079    0.073
        29  -8.5125     88.1657    242.1554   7.2517356095e+01   1.4046635341e+01    0.1567747    0.1145719  51.33   0.00087561    1.353    0.261
        30  -8.8307      3.5987    240.9147   9.0339831865e+01   2.2756801339e+01    0.2595591    0.1033444  56.63  0.001143977    1.916    0.478
        31  -8.8020    178.5455    241.4908   5.4308783748e+01   3.4242962248e+00    0.1933006   0.08695114  28.17 0.0009043602    1.782    0.439
        32  -9.1036    182.4326    239.3379   5.3315262405e+01   3.2494990455e+00    0.2509566    0.2208089  49.48  0.001263954    1.923    0.480
        33  -9.4965    159.9180    239.9404   5.7602152721e+01   5.7986465757e+00    0.2138712    0.1994235  80.87 0.0009473109    1.811    0.448
        34  -8.1954    153.2172    241.2568   5.9061533378e+01   6.4169136379e+00    0.1416004   0.09539898 -58.72 0.0008746475    2.402    0.584
        35  -9.0502     30.2351    241.4287   8.4832492488e+01   2.0318933530e+01    0.1729432   0.07035412  38.31 0.0009532291    1.704    0.413
        36  -9.4861    242.1692    236.9960   4.3066801025e+01  -2.7850195758e+00    0.4388865    0.1619295 -15.79  0.001997078    4.010    0.751
        37  -8.6117    193.9724    239.3274   5.1253045512e+01   1.9503530178e+00    0.1557243    0.1080949  15.80 0.0006705195    1.114    0.103
        38  -7.7444    145.6887    239.2737   6.0300043790e+01   7.5978038897e+00    0.1083691   0.07720593  42.36 0.0002135679    1.554    0.356
        39  -8.3816     53.4170    239.2336   7.9770057593e+01   1.8395006765e+01    0.1475211   0.09705793  72.57 0.0009418833    1.668    0.400
        40  -9.3425    230.8515    236.2461   4.4694456574e+01  -1.6013933869e+00    0.3027196    0.1849128 -21.96  0.001479736    1.441    0.306
        41  -8.1540    209.0000    237.9450   4.8479674371e+01   4.7322923058e-01    0.1489193   0.05398156 -36.18 0.0004522422    2.837    0.648
        42  -8.8363    135.2288    238.2631   6.2281451893e+01   9.0157674432e+00    0.1515356    0.1180937  39.99 0.0007203797    1.348    0.258
        43  -9.2373    129.1278    238.1615   6.3516345673e+01   9.7762565998e+00    0.1585778    0.1200342  40.78 0.0006569392    1.340    0.254
        44  -8.1747     84.5325    238.5471   7.2988545112e+01   1.5067317395e+01    0.1198722   0.09200313  35.95 0.0001752411    1.032    0.031
        45  -8.9898     71.7312    238.4422   7.5750645562e+01   1.6544589692e+01    0.2409937   0.08273572  33.08  0.001143007    2.105    0.525
        46  -8.7107     14.9300    238.0000   8.7922801627e+01   2.2325208923e+01    0.3009076   0.05091455  24.74  0.001047162    4.896    0.796
        47  -9.2001    216.7007    235.3727   4.6836963000e+01  -5.3517923283e-02    0.2021701    0.1770698  18.27  0.001169087    1.672    0.402
        48  -9.3914    213.6714    231.6710   4.6805316232e+01   6.8992348692e-01    0.2097253      0.19728  -6.21  0.001016106    1.794    0.443
        49  -9.7486    175.6134    233.0723   5.3724990613e+01   4.8479040819e+00    0.3504222    0.2197016 -51.87  0.002114336    2.514    0.602
        50  -8.9209    203.0593    234.5218   4.9006492960e+01   1.5159801791e+00    0.1776064    0.1422067 -33.85 0.0009221802    1.703    0.413
        51  -7.8553    170.2685    235.6171   5.5070739442e+01   5.1468649866e+00    0.0985167   0.08549944  45.56 0.0006990219    1.696    0.410
        52  -9.9811    108.8875    234.3485   6.7347880736e+01   1.2854897912e+01    0.2905992     0.183549  57.19  0.001402854    2.023    0.506
        53  -8.2517    122.8615    234.0079   6.4347764878e+01   1.1185783279e+01    0.1771905    0.1284058  64.09   0.00107631    2.024    0.506
        54  -8.6061     99.7763    234.1903   6.9292709567e+01   1.3990862561e+01    0.2030828    0.1005052  55.94 0.0009540927    2.816    0.645
        55  -8.4598     93.4921    234.0215   7.0640462852e+01   1.4775932606e+01    0.1559922    0.0899621 -31.86 0.0008104331    2.581    0.613
        56  -8.7319     78.1900    233.9072   7.3980381250e+01   1.6597276125e+01    0.1897366    0.1401051  84.42  0.001233953    1.694    0.410
        57  -8.8083    132.4869    232.4723   6.2161717237e+01   1.0225669315e+01    0.1643938    0.1206315 -70.61 0.0008731768    2.165    0.538
        58  -9.4906     68.2489    232.1220   7.6034113951e+01   1.8046975608e+01    0.3937053    0.1273356  50.68  0.001597518    3.337    0.700
        59  -8.4735    194.3246    232.2180   5.0203124143e+01   2.7747461404e+00    0.1687214    0.1110645 -10.37 0.0005611095    1.368    0.269
        60  -9.3750    186.3898    230.4261   5.1372774649e+01   3.9184414206e+00    0.2402724    0.2036115 -72.75  0.001586798    2.599    0.615
        61  -8.6650    156.4080    232.0006   5.7266338862e+01   7.3216251619e+00    0.3590426    0.1242052  27.41  0.001615584    2.550    0.608
        62  -9.3669    236.1230    229.6568   4.2918347290e+01  -1.4279214221e+00      0.37177    0.1263031 -28.63  0.001977864    2.712    0.631
        63  -9.2845    140.1906    230.0718   6.0280222821e+01   9.6253097358e+00    0.2198129    0.1258717  45.74 0.0008628825    2.002    0.501
        64  -7.8621      1.3532    230.6742   9.0581378394e+01   2.4808496117e+01    0.1272051    0.0514848  50.95 0.0007047164    1.765    0.433
        65 -10.0779    149.1734    225.6483   5.7878004749e+01   9.1539662153e+00    0.4593847    0.3426973  85.32  0.002526473    3.012    0.668
        66  -8.2065    229.4959    228.0026   4.3705473278e+01  -5.7199089441e-01    0.1511285   0.08519222 -25.71 0.0006722153    1.580    0.367
        67  -8.8313    162.0579    227.4660   5.5553609538e+01   7.2652047545e+00    0.2137771    0.1658962  50.93  0.001387561    1.867    0.464
        68  -9.1307    127.8774    226.9876   6.2469489236e+01   1.1665529133e+01    0.2316234    0.1620573  51.21  0.001197986    1.715    0.417
        69  -8.1532    120.0112    227.4984   6.4208254133e+01   1.2583794773e+01    0.1715319   0.07922173  46.18 0.0005773023    2.370    0.578
        70  -8.7903    206.0272    225.4694   4.7188643573e+01   2.2694062262e+00    0.2140501     0.137169 -37.65 0.0008836075    1.852    0.460
        71  -8.6399    199.8914    225.9179   4.8316816477e+01   2.9159362766e+00    0.1824763    0.1331587 -25.86 0.0007571875    1.417    0.294
        72  -8.6454      6.9592    225.9974   8.9269490673e+01   2.5237045970e+01    0.1966945   0.08733709  49.98 0.0008041425    1.655    0.396
        73  -8.8081    216.3854    223.4173   4.5138484933e+01   1.3548624607e+00     0.191771    0.1657607 -14.73 0.0008317484    1.507    0.336
        74  -8.7229    180.1651    223.7648   5.1570420056e+01   5.5402951148e+00    0.1665654     0.142817 -19.95 0.0004601548    1.347    0.257
        75  -8.7710    104.7664    223.6500   6.7105825242e+01   1.5164541123e+01     0.218307     0.146772  68.74  0.001213379    2.149    0.535
        76  -8.5492    173.0093    222.7937   5.2783269834e+01   6.5572213652e+00    0.1720724    0.1529719 -46.13 0.0007072605    1.641    0.391
        77  -9.2830    238.8668    221.1057   4.1217088681e+01  -7.8168280659e-01    0.2361331     0.139232 -24.28  0.001060141    1.456    0.313
        78  -9.3894    225.3886    221.2962   4.3351912953e+01   6.1756268223e-01    0.2128133    0.1331296 -21.20 0.0007246715    1.375    0.273
        79  -9.2886    192.2605    221.1097   4.8961834964e+01   4.4258548048e+00    0.2172618    0.2137447 -46.22  0.001174698    1.771    0.435
        80  -9.0188    158.8992    220.2094   5.5176557350e+01   8.7185638186e+00    0.2145848    0.1404673  38.48 0.0008599526    1.550    0.355
        81  -8.2862     19.0071    221.0034   8.6444781024e+01   2.5168604011e+01    0.2311799   0.05592549  43.50  0.001013992    2.589    0.614
        82  -8.2817    202.5329    220.0279   4.6979731573e+01   3.3454946825e+00    0.1535947   0.09751768 -28.31 0.0004639001    1.527    0.345
        83  -9.2643    120.0269    218.8928   6.3178819784e+01   1.4014555701e+01    0.3293624    0.1952933  55.33  0.001619837    2.305    0.566
        84  -8.3665     82.6730    220.2962   7.1761451237e+01   1.8514273671e+01    0.2019868     0.116561  53.97  0.001081508    1.813    0.448
        85  -8.0498     44.0285    220.5250   8.0713402970e+01   2.2846123563e+01    0.1848842   0.05839303  45.25 0.0007613606    2.423    0.587
        86  -8.4052    210.1824    219.1421   4.5530822847e+01   2.5681524736e+00    0.1371662    0.1171922   0.98 0.0004828574    1.344    0.256
        87  -8.9519     94.2614    224.0568   6.9496726670e+01   1.6408787964e+01    0.3531096    0.1556555  54.11  0.001506441    3.105    0.678
        88  -9.6417    233.5597    246.4077   4.5703689226e+01  -2.9156381001e+00    0.4870171    0.1876895 -27.46  0.002255687    2.401    0.583
        89  -9.5888    246.8770    213.9781   3.8918305799e+01  -8.2394201331e-01     0.460581    0.1960249  -0.97   0.00188986    4.692    0.787
        90  -8.7314    169.4189    216.1171   5.2509372428e+01   7.9622487869e+00    0.2188113    0.1972456 -83.89 0.0009611343    1.942    0.485
        91  -8.2820     61.5115    216.9894   7.6392932086e+01   2.1636283094e+01    0.1664542   0.08675952  66.45 0.0006275632    2.343    0.573
        92  -9.5492    132.8743    215.7546   5.9979112120e+01   1.2841067481e+01    0.4334472    0.2702076  69.12  0.001867123    3.913    0.744
        93  -8.3045    142.6802    216.1127   5.7937129904e+01   1.1475955618e+01    0.1612693    0.1558597  77.24 0.0005574707    1.434    0.302
        94  -8.9032    232.2820    214.2543   4.1175707943e+01   6.8171108757e-01    0.2129358    0.1548161 -24.13  0.001084378    1.395    0.283
        95  -8.3014    185.4833    213.9866   4.9129448787e+01   6.2144628847e+00    0.1581122    0.1081667 -34.86 0.0008573382    1.574    0.365
        96  -8.7076     92.9436    213.6331   6.8706816449e+01   1.8473785455e+01    0.2852797    0.1383688  54.03  0.001170196    2.547    0.607
        97  -9.3057    213.9035    211.9859   4.3794967348e+01   3.0217602294e+00    0.2670704    0.2038501  43.36  0.001711483    2.054    0.513
        98  -8.3817    161.5128    212.1155   5.3486861617e+01   9.5929016704e+00    0.1806037    0.1525583  35.24 0.0009349685    1.352    0.260
        99  -7.4635    106.3516    212.6878   6.5499935519e+01   1.6905820448e+01    0.1319466   0.08503956  52.65 0.0007045438    1.725    0.420
       100  -9.2719     72.1240    210.9758   7.3359381366e+01   2.1573871324e+01    0.4145495    0.1519182  53.41    0.0015738    3.432    0.709
       101  -8.9666    204.0797    210.6231   4.5259670164e+01   4.3645133189e+00    0.1861751    0.1430125 -34.11 0.0006575095    1.556    0.357
       102  -9.4576    175.0729    209.7378   5.0452203351e+01   8.1556776093e+00    0.2878127    0.2421491  71.47   0.00151856    2.259    0.557
       103  -8.8041    148.0391    210.5044   5.6022472509e+01   1.1656113264e+01    0.2301052    0.1908962  68.69  0.001420323    1.878    0.467
       104  -8.7663    116.1571    210.0217   6.2933965706e+01   1.6077206877e+01    0.2884535    0.1707458  59.29  0.001061722    2.533    0.605
       105  -8.2632    192.3608    210.2185   4.7282689019e+01   5.8656996220e+00    0.1470191    0.1038139 -39.99 0.0005269567    1.703    0.413
       106  -9.0776    100.7330    209.6552   6.6441882183e+01   1.8206309370e+01    0.2271648    0.1927546 -34.64   0.00068876    1.370    0.270
       107  -9.1296     99.2980    205.9579   6.6342045300e+01   1.9095029814e+01    0.2867404    0.2018271  82.20  0.000960392    2.025    0.506
       108  -9.2138    236.3981    207.6358   3.9491732838e+01   9.9837100007e-01    0.3089164    0.1545576 -37.63  0.001410357    2.163    0.538
       109  -8.2342     85.3721    208.6451   6.9958566599e+01   2.0390685408e+01    0.2135456    0.1160218 -88.49 0.0008256985    3.107    0.678
       110  -9.1742    246.5997    206.8302   3.7830786461e+01  -4.9249060232e-03    0.2304018    0.1371177 -21.83 0.0007792801    1.343    0.255
       111  -9.3705    250.1868    201.9319   3.6519822421e+01   1.6607487159e-01    0.3067553    0.1300795 -26.29  0.001275911    1.959    0.490
       112  -8.1712    139.0136    207.9588   5.7582197322e+01   1.3309250029e+01     0.187301    0.1462188  57.74  0.000701539    1.727    0.421
       113  -8.7946     51.6897    217.5313   7.8735857614e+01   2.2619639132e+01    0.2151956     0.123337  64.63  0.001179373    1.827    0.453
       114  -7.7702    156.3131    207.6553   5.3882706236e+01   1.0984795267e+01     0.115334   0.09516571  55.42 0.0007046856    1.709    0.415
       115  -9.7584     14.2743    205.0823   8.6915806293e+01   2.8811352138e+01     0.285711    0.2202725  40.32  0.001920634    1.132    0.116
       116  -8.2974     56.3456    205.1727   7.6679978480e+01   2.4593592162e+01    0.1713343    0.1093786  82.97 0.0008202704    1.796    0.443
       117  -9.2739    194.6620    203.2988   4.5763014498e+01   6.5242130609e+00    0.3385037     0.185239 -33.12  0.001241964    1.778    0.438
       118  -9.3947    192.4651    196.9246   4.5116759766e+01   7.7094764957e+00    0.3092796     0.218485 -41.52  0.001105829    1.682    0.405
       119  -9.0407    183.6084    203.7176   4.7876205167e+01   7.9064984923e+00    0.2288052    0.1958649  39.03  0.001072465    1.536    0.349
       120  -9.6974    163.6904    202.8570   5.1640649277e+01   1.0728660345e+01    0.3523066    0.2439526  51.66   0.00119061    2.069    0.517
       121  -8.5367    131.1810    204.0204   5.8743177656e+01   1.5073206479e+01    0.2407001    0.1464625  51.30  0.001214859    2.055    0.513
       122  -7.8339    108.5570    204.5552   6.3989111658e+01   1.8111327700e+01    0.1304214    0.1094587  36.00 6.388234e-05    1.079    0.073
       123  -9.0966    243.2807    200.3926   3.7280061409e+01   1.0847632595e+00    0.2679697    0.1226759 -32.54  0.001117817    1.925    0.480
       124  -8.5033    210.9771    201.7375   4.2642236085e+01   4.6798375121e+00    0.1813819    0.1389826 -37.17 0.0008068517    1.627    0.385
       125  -8.7490    140.1190    200.4878   5.6252737983e+01   1.4427006413e+01     0.252911    0.1861697  62.65  0.001017956    2.057    0.514
       126  -9.2688    149.5983    198.5161   5.3899418811e+01   1.3412393973e+01    0.3321306    0.2575113  77.03  0.001344755    2.345    0.574
       127  -8.6497    123.9054    199.1621   5.9699860803e+01   1.6971198694e+01    0.2158077     0.178369  76.49 0.0008748434    1.668    0.401
       128  -9.1187    237.1221    198.1391   3.7835215466e+01   2.0359419448e+00      0.26221    0.1255007 -33.98  0.001007557    1.918    0.479
       129  -8.4310    176.9546    198.7364   4.8347173441e+01   9.5388531293e+00    0.1859993    0.1541703 -44.73 0.0004586949    1.563    0.360
       130  -9.1376    112.8485    198.2743   6.2153202105e+01   1.8702754488e+01    0.3676609     0.216809  56.71   0.00173781    2.271    0.560
       131  -8.7785     88.7908    198.5367   6.8001685391e+01   2.1951440877e+01    0.2800744    0.1739175  82.76  0.001335885    2.436    0.590
       132  -8.4735    202.2765    197.7254   4.3485230242e+01   6.3127746842e+00    0.1908712    0.1750317 -33.85  0.001211939    1.573    0.364
       133  -8.7677     60.8066    196.5426   7.4812107022e+01   2.5890932592e+01    0.2531839    0.1519959  75.54  0.001274718    1.992    0.498
       134  -9.4957    245.8400    193.5714   3.5774761163e+01   1.5972220616e+00    0.2827668    0.2026906 -50.65   0.00171146    2.814    0.645
       135  -8.8198    215.9404    195.4332   4.0757986132e+01   4.8906945709e+00    0.2001853    0.1478927 -39.24  0.001054845    1.692    0.409
       136  -8.9389    185.1293    194.6780   4.6108095362e+01   9.0272359848e+00    0.2006433     0.185706 -53.30 0.0006884548    1.627    0.385
       137  -8.3799    230.9548    193.7671   3.8055270912e+01   3.2821462549e+00    0.1873485    0.1224251 -34.34 0.0006823281    1.595    0.373
       138  -8.9077    224.4662    193.3609   3.9013413823e+01   4.1108504307e+00    0.2512112   0.09621931 -36.88  0.001258898    2.469    0.595
       139  -8.7138    160.6478    193.7162   5.0805247072e+01   1.2624996817e+01    0.2184678    0.1799232  71.09 0.0009799943    2.024    0.506
       140  -8.6412     76.8194    193.9431   7.0474168234e+01   2.4466081395e+01    0.2057108    0.1524847  53.20 0.0005262507    1.292    0.226
       141  -8.5724      6.7662    194.0307   8.8326581954e+01   3.1795187562e+01    0.1536188   0.09104931  89.03 0.0006208654    1.622    0.384
       142  -8.4172     43.3024    192.5227   7.8963215714e+01   2.8735696625e+01    0.3098271    0.1157634 -84.40  0.001199166    3.441    0.709
       143 -10.4682     16.9863    191.5990   8.5664798032e+01   3.1484919310e+01    0.4284858    0.1648577  44.69  0.002034576    2.014    0.503
       144  -8.1490    198.8221    191.3685   4.3025097704e+01   7.6540583063e+00    0.1582505    0.1315508 -14.05 0.0005221348    1.165    0.141
       145  -8.3420    179.3563    191.2563   4.6637193621e+01   1.0346581717e+01    0.1582251     0.112618 -43.12 0.0003677721    1.631    0.387
       146  -9.0639    139.4378    190.1577   5.4811927953e+01   1.6348772360e+01    0.3151904    0.2337968  74.68  0.001239716    2.346    0.574
       147 -10.1301     92.3348    188.9380   6.5933234310e+01   2.3441977658e+01    0.8984742    0.1720515  40.29  0.002704503    4.196    0.762
       148  -9.0466    216.5621    187.7917   3.9347649364e+01   5.8238412155e+00    0.2217531    0.1816511 -37.49 0.0007726155    1.580    0.367
       149  -8.3368    148.4864    188.9859   5.2619987744e+01   1.5210360869e+01    0.1798299    0.1289589 -46.04 0.0008191269    1.565    0.361
       150  -8.6306    129.0950    188.3656   5.6892820510e+01   1.8220476318e+01    0.2200373    0.1841628  76.84 0.0008268663    1.648    0.393
       151  -8.3948    237.4540    188.1255   3.6098247899e+01   3.2119648530e+00    0.1669217   0.08957887 -28.64 0.0006925844    1.564    0.361
       152  -8.6558    191.2990    187.0626   4.3651167184e+01   9.3071235052e+00    0.1988579    0.1858642 -71.24  0.001128175    1.751    0.429
       153  -9.2325    155.8967    187.2109   5.0727011568e+01   1.4413124040e+01    0.2804219    0.2183978 -66.09  0.000970607    1.942    0.485
       154  -7.9823     50.5261    188.4969   7.6747202173e+01   2.8836202184e+01    0.1358359    0.1095598  52.66 0.0008087222    1.084    0.077
       155  -8.2766     34.4727    187.9986   8.0933960528e+01   3.0658390521e+01    0.1927916   0.08479062  68.68 0.0008094798    2.607    0.616
       156  -8.4460    230.6023    187.3338   3.7012217313e+01   4.1310196428e+00    0.1488733    0.1299868 -34.53  0.001085726    1.639    0.390
       157  -8.6017    164.7984    186.5224   4.8743342646e+01   1.3206512994e+01    0.2133048    0.1707271 -60.26 0.0007387912    1.802    0.445
       158  -9.2682    120.3285    185.5898   5.8535043652e+01   2.0064922375e+01     0.367273    0.2314991 -70.57  0.001738934    2.360    0.576
       159  -8.9655    109.4909    185.8454   6.1212416183e+01   2.1623504089e+01    0.3282357    0.2102913  59.45  0.001116612    2.032    0.508
       160  -8.6462     54.5046    186.5318   7.5517212061e+01   2.8820459985e+01    0.3026567    0.1436681  68.22  0.001234692    2.802    0.643
       161  -9.4262    249.1028    185.2185   3.3890639174e+01   2.2158247132e+00    0.2250772    0.1259947 -31.30 0.0008202428    1.550    0.355
       162  -8.7919    202.8736    184.4219   4.1096885696e+01   8.0977608351e+00    0.2069611    0.1589601 -41.83   0.00090804    1.612    0.380
       163  -8.6437    182.9893    184.5871   4.4784479005e+01   1.0859606738e+01    0.2129386     0.169713 -47.29 0.0008787475    1.616    0.381
       164  -8.7271     66.5583    184.5375   7.2110753443e+01   2.7810709095e+01    0.3035854    0.1539375  58.29 0.0007666601    2.272    0.560
       165  -8.5436    224.2362    183.4496   3.7339228269e+01   5.4222910412e+00    0.2051071    0.1302494 -26.76 0.0005663998    1.354    0.261
       166  -8.6870    210.1670    183.8395   3.9730339613e+01   7.1978547560e+00    0.1942162    0.1405313 -31.83   0.00062222    1.379    0.275
       167  -8.9061    174.1618    183.5285   4.6325181748e+01   1.2313025975e+01    0.2204891     0.196651 -66.08 0.0007346019    1.684    0.406
       168  -8.3091    172.5163    191.5572   4.8032712767e+01   1.1269771132e+01    0.1927173    0.1203647 -51.11 0.0008777598    2.131    0.531
       169  -8.8807     44.1615    182.2441   7.7906702625e+01   3.0955974176e+01    0.2711155    0.1397084  46.90  0.001158704    1.699    0.411
       170  -7.8013    235.2589    181.6211   3.5302340434e+01   4.2866765015e+00    0.1023185   0.08124028 -38.65 0.0006973908    1.666    0.400
       171  -9.0507    147.5838    180.3134   5.1362021145e+01   1.6891859686e+01    0.2963575    0.2323721  79.33  0.001199431    2.158    0.537
       172  -9.5555     26.0035    179.6157   8.2633610734e+01   3.3397059576e+01     0.509401    0.1689128  66.82  0.001736882    4.001    0.750
       173  -9.2693    191.2499    178.1490   4.2074419491e+01   1.0657744423e+01    0.2275958    0.1964223 -30.90 0.0004747027    1.310    0.237
       174  -8.4749    137.6539    179.1385   5.3408578275e+01   1.8652695705e+01    0.1977082    0.1752356  87.39  0.001155631    1.532    0.347
       175  -8.8251    250.5087    172.8102   3.1529920407e+01   3.5454132973e+00    0.2270556     0.123151 -28.25 0.0006847263    1.468    0.319
       176  -9.2318    249.0285    177.2067   3.2512852495e+01   3.1854229882e+00     0.225579    0.1799635 -28.28  0.001191022    1.422    0.297
       177  -8.6371    247.3136    173.6745   3.2131659127e+01   3.8200371748e+00    0.1826248   0.09229476 -31.22 0.0004456791    1.628    0.386
       178  -8.6620    205.0163    177.4455   3.9471579481e+01   8.8057105449e+00    0.2119448    0.1582544 -40.15  0.000632509    1.545    0.353
       179  -8.1855    197.1512    183.2218   4.1905004591e+01   9.0595432758e+00    0.1522295    0.1421476 -17.56 0.0004770007    1.374    0.272
       180  -9.1496     36.9948    178.2345   7.9532781451e+01   3.2642413189e+01    0.3816992    0.1458316  66.18  0.001366294    3.509    0.715
       181  -8.4985    231.1288    176.5063   3.5025529017e+01   5.4571234089e+00    0.2466653    0.1244542 -35.49  0.001007894    1.807    0.447
       182  -8.4732    217.4555    177.0278   3.7292139123e+01   7.1675656291e+00    0.1751675    0.1011063 -32.75  0.000519175    1.562    0.360
       183  -9.0369    182.9734    175.8594   4.3221187349e+01   1.2233255937e+01    0.2495345    0.1795344 -43.67 0.0007075593    1.578    0.366
       184  -8.5377    129.0791    177.0347   5.5064761014e+01   2.0398341635e+01    0.2098482    0.1651567  67.51 0.0007678956    1.722    0.419
       185  -8.0762     97.4990    177.4636   6.3028473127e+01   2.5136998391e+01    0.1383542     0.126144  22.40 2.746942e-05    1.067    0.063
       186  -7.8954    211.6998    176.3171   3.8120917681e+01   8.0443335331e+00     0.104055   0.09591001 -46.01 0.0004113685    1.617    0.381
       187  -9.1747    158.9064    174.9901   4.7952566086e+01   1.6076322307e+01    0.3144573    0.2390105  76.62 0.0009749274    2.479    0.597
       188  -8.2705     88.6669    176.3703   6.5198880949e+01   2.6656394580e+01    0.2177841    0.1456747  59.53 0.0006421566    1.694    0.410
       189  -8.9292     58.4753    174.9896   7.3274352036e+01   3.0987500576e+01    0.4104153    0.2025173  65.56   0.00166143    2.645    0.622
       190  -8.9529     56.0091    170.7704   7.3508352412e+01   3.2278806134e+01    0.3513654    0.1605396  60.11  0.001366247    2.709    0.631
       191  -9.0046    103.8231    174.3878   6.0923519788e+01   2.4852303652e+01    0.4111234    0.1984668  53.69  0.001511558    2.802    0.643
       192 -10.3669     75.8466    170.7710   6.7925761070e+01   2.9717830486e+01     1.022058    0.4526802 -84.33  0.003134819    4.885    0.795
       193  -8.5144    224.4751    174.0200   3.5614490548e+01   6.6461785761e+00    0.1757235   0.09829441 -31.04 0.0005092416    1.549    0.354
       194  -9.2215    175.6225    172.2664   4.3998013116e+01   1.3934670106e+01    0.2733543    0.2049824 -38.43 0.0007158398    1.387    0.279
       195  -8.2037    143.1638    172.7239   5.1026116198e+01   1.8991026687e+01    0.2057922    0.1449202  71.88 0.0007415505    2.612    0.617
       196  -8.2667    134.9285    171.9399   5.2799632799e+01   2.0464611870e+01    0.2110629     0.166636  64.64 0.0008818791    1.696    0.410
       197  -9.1273     45.3531    171.3130   7.6593112213e+01   3.3384406088e+01    0.3600282    0.1613719  61.64  0.001437565    2.623    0.619
       198  -9.5711    121.0844    170.0067   5.5819763993e+01   2.3076706643e+01      0.41967    0.2944602  85.60  0.001664357    2.433    0.589
       199  -8.7883    230.5159    169.9574   3.3932179683e+01   6.3971762549e+00    0.1774488   0.09608666 -30.24 0.0006470378    1.558    0.358
       200  -8.4293    205.8700    169.6616   3.7886305223e+01   9.8197849514e+00    0.2329494    0.1444517 -44.86 0.0007909694    1.904    0.475
       201  -8.5100    198.3462    169.9579   3.9265744752e+01   1.0868807295e+01    0.1768918    0.1403466 -23.20 0.0005658461    1.154    0.133
       202  -8.1761    244.4844    168.9587   3.1688092228e+01   4.7510729823e+00    0.1694917   0.08998937 -29.90 0.0004470591    1.532    0.347
       203  -8.4708    237.2758    169.0992   3.2759125259e+01   5.6375514438e+00    0.1675296    0.1183354 -22.16 0.0006855032    1.144    0.126
       204  -9.1140    166.7380    168.2228   4.5048117195e+01   1.6018843841e+01    0.2624032    0.2072796  61.09  0.001050694    1.847    0.459
       205  -8.3432    149.6999    169.2241   4.8912157537e+01   1.8590512522e+01    0.1918963     0.175178 -71.84 0.0007216359    1.430    0.301
       206  -8.6132    218.8053    168.1613   3.5442212420e+01   8.2138751277e+00    0.1726546    0.1462081 -24.16 0.0005751956    1.257    0.205
       207  -8.0402    211.4195    167.9276   3.6615641767e+01   9.2801200034e+00    0.1572696   0.09958491 -51.99 0.0008041726    2.460    0.593
       208  -8.8616    191.8873    166.6013   3.9804319916e+01   1.2352561462e+01    0.2279962    0.1698234 -35.59 0.0005519705    1.344    0.256
       209  -8.3680    185.0029    166.3210   4.1043467343e+01   1.3455108704e+01    0.2074494     0.178479 -54.27 0.0006152751    1.570    0.363
       210  -8.7002    111.6059    167.3132   5.7764981612e+01   2.5156026415e+01    0.2130705    0.1624172  67.02 0.0008092743    1.651    0.394
       211  -9.7360     94.5743    162.3089   6.1483536926e+01   2.8933844990e+01    0.7270474    0.3756694  68.07  0.002240996    4.571    0.781
       212  -9.1213     20.5399    166.2045   8.3293500465e+01   3.7078723163e+01    0.2830461    0.1067923  51.66   0.00117258    2.392    0.582
       213  -8.1679    234.0225    164.9912   3.2486185802e+01   6.5959432597e+00     0.162004    0.1310625 -42.02 0.0005979235    1.615    0.381
       214  -9.3094    137.2036    164.5549   5.0924046884e+01   2.1540846556e+01    0.5253064    0.2030196  48.05  0.001802961    3.374    0.704
       215  -8.7496    212.9062    163.4483   3.5518452073e+01   9.7149272964e+00    0.2158079    0.1530219 -40.42 0.0005952926    1.536    0.349
       216  -8.6551    159.3861    164.0264   4.5803996366e+01   1.7957776220e+01    0.2228133    0.1921597  60.92 0.0009125999    1.532    0.347
       217  -9.0820     33.4955    163.0837   7.9281259163e+01   3.6632184875e+01    0.5582123    0.1349278  48.31  0.001768005    3.931    0.746
       218  -8.5469    204.7346    162.4301   3.6706119104e+01   1.1059989170e+01    0.2127106    0.1349785 -39.86 0.0005180957    1.598    0.374
       219  -9.1136      3.5108    162.2420   8.7969416375e+01   3.9373535039e+01    0.4178969    0.1273978  47.98  0.001572986    2.633    0.620
       220  -9.1486    177.3896    160.3227   4.1357313700e+01   1.5656870798e+01    0.2738811    0.2175242 -52.68 0.0008878261    1.587    0.370
       221  -8.6471    151.8762    160.8083   4.6830041593e+01   1.9803602116e+01    0.2454967    0.1883693 -77.26  0.001037146    2.109    0.526
       222  -8.7231    227.3716    158.9568   3.2355073197e+01   8.3069141033e+00    0.2330202    0.1514475 -42.03  0.001004148    1.705    0.414
       223  -8.2166     60.6883    160.1076   7.0892008548e+01   3.4264933461e+01    0.2574224    0.1225667  61.67 0.0009532555    2.807    0.644
       224  -9.6846    250.2700    157.5393   2.8794316438e+01   5.4673309778e+00     0.284982    0.1268968 -31.86 0.0008655059    1.789    0.441
       225  -9.3258    245.2922    158.3388   2.9625017495e+01   5.9985290921e+00    0.3258465    0.1715783  12.53  0.001664027    2.688    0.628
       226  -8.6856    246.5633    155.4874   2.8916917937e+01   6.2004242684e+00    0.1718539    0.1300887   6.93 0.0005788492    1.271    0.213
       227  -8.3974    237.0019    158.6771   3.0866503029e+01   7.0378292030e+00    0.1595079    0.1285309  -5.43 0.0004587818    1.094    0.086
       228  -8.0561    128.4363    158.9326   5.1994709494e+01   2.4149587496e+01    0.1832276     0.129336 -82.03 0.0006817825    2.346    0.574
       229  -9.4075    105.7189    157.8080   5.7677095537e+01   2.8182343342e+01    0.4376175    0.2908174  71.26  0.001261463    2.258    0.557
       230  -8.6276    196.3307    157.6573   3.7252927750e+01   1.3073006764e+01    0.2197014    0.1420159 -43.15 0.0006942296    1.651    0.394
       231  -9.0861    167.4896    157.0765   4.2721455747e+01   1.7855872091e+01    0.2659212    0.2204017 -67.59 0.0008536964    1.719    0.418
       232  -8.4872    217.9604    156.4121   3.3336765138e+01   9.9992798912e+00    0.2282408    0.1457331 -41.80 0.0007212695    1.669    0.401
       233  -8.0730    188.0510    157.5273   3.8747058782e+01   1.4402058467e+01    0.1762764    0.1237776  35.16 0.0004402716    1.460    0.315
       234  -8.6162    157.7011    156.1339   4.4618893262e+01   1.9687531308e+01    0.2080573    0.1759983 -62.99  0.000922689    1.525    0.344
       235  -8.9957    119.4159    154.9593   5.3527309448e+01   2.6522030438e+01     0.339725    0.2405959 -85.93  0.001263762    2.235    0.553
       236  -9.0081     81.5986    154.7949   6.3959916726e+01   3.2656585237e+01    0.4026719    0.2243241  58.04  0.001578285    2.218    0.549
       237  -8.4391    242.8217    154.6194   2.9271547187e+01   6.8004016099e+00     0.152882    0.1200348 -31.41 0.0004158488    1.304    0.233
       238  -8.7974    239.7160    152.7036   2.9344182080e+01   7.4653492317e+00    0.1558127    0.1240388 -26.34 0.0004980905    1.197    0.165
       239  -8.0782    204.6270    155.2219   3.5312605703e+01   1.2166242710e+01    0.1787539    0.1044671 -25.74 0.0005455598    1.588    0.370
       240  -8.2551    144.3972    154.4216   4.7275733282e+01   2.2312706591e+01    0.2413429    0.1895413  80.62  0.001014554    1.980    0.495
       241  -8.5817     49.7046    155.0460   7.3583539574e+01   3.6867357549e+01    0.3039108     0.121792  51.03  0.001127042    2.646    0.622
       242  -8.6853    246.2036    162.8880   3.0339313423e+01   5.3032604733e+00    0.1657781    0.1276011 -24.65 0.0005089799    1.206    0.170
       243  -9.5332    132.9219    152.8033   4.9698041689e+01   2.4641949470e+01    0.4302327    0.2845649  62.44  0.001311673    2.223    0.550
       244  -8.7110    133.7048    147.8701   4.8507631224e+01   2.5522832980e+01    0.2825449    0.1970692 -28.06 0.0007377598    1.607    0.378
       245  -9.0824     67.9277    153.4794   6.7824738674e+01   3.4932350914e+01    0.4016438     0.223078  62.02  0.001595601    2.238    0.553
       246  -7.9847    232.5680    153.5167   3.0531719960e+01   8.3318052027e+00    0.1205313   0.09449247 -17.18 0.0001748119    1.029    0.029
       247  -9.2547    243.1384    150.1063   2.8369815936e+01   7.3480580157e+00    0.2656116    0.1303686 -34.11  0.001307132    1.680    0.405
       248  -9.0496    189.5009    149.7934   3.6910089338e+01   1.5430006485e+01    0.2901954    0.1996053 -50.76  0.000839083    1.793    0.442
       249  -8.1620    182.4033    151.1471   3.8528412664e+01   1.6382248006e+01    0.1844875    0.1191691 -47.56 0.0006801879    1.745    0.427
       250  -8.2789    162.5043    150.4884   4.2429760135e+01   1.9900066307e+01     0.230215    0.1301819 -51.89 0.0008138432    2.131    0.531
       251  -8.4306     98.4778    150.5733   5.8380935796e+01   3.1012463102e+01    0.2485758     0.146302 -72.37  0.000719579    2.298    0.565
       252  -9.3739     29.3774    150.4926   7.9422498165e+01   4.0189185941e+01    0.3374439    0.1457841  62.78  0.001250561    2.623    0.619
       253  -9.3909    248.9309    149.2963   2.7429660196e+01   6.6867997417e+00    0.2503114    0.1301969 -30.47  0.000759916    1.519    0.342
       254  -8.3274    212.8138    149.3853   3.2777117155e+01   1.1791787260e+01    0.1711315    0.1330007 -27.22 0.0004985994    1.142    0.125
       255  -8.3608    198.8928    148.9172   3.5036517602e+01   1.4043017503e+01    0.1832521     0.157266 -62.04 0.0006086229    1.663    0.399
       256  -9.7264     89.3746    146.2742   6.0232466243e+01   3.3499430373e+01    0.6679454    0.3777356  83.50   0.00219188    3.838    0.739
       257 -10.1305     55.1784    145.2551   7.0620534315e+01   3.8676683697e+01     0.817888     0.404609  68.54  0.002966924    2.964    0.663
       258  -9.5236     39.8024    147.8997   7.5861631937e+01   3.9795737177e+01    0.5012068      0.20517  56.31  0.001778097    2.821    0.645
       259  -8.2268    223.2299    146.9500   3.0645495479e+01   1.0582234805e+01    0.1734822    0.1316022 -22.25 0.0004472189    1.083    0.077
       260 -10.3740    148.8335    145.0654   4.4318200016e+01   2.3361730179e+01      0.50827    0.3767395 -86.69  0.001734533    2.376    0.579
       261  -9.9534    106.5570    144.3771   5.4937007733e+01   3.1083176768e+01    0.6507527    0.3838586  69.85  0.002233376    3.269    0.694
       262  -8.4315     77.8684    147.0575   6.3813776012e+01   3.5089211971e+01    0.2284593    0.1927962  67.12 0.0007318928    1.224    0.183
       263  -7.8656    206.5428    146.4698   3.3221858266e+01   1.3204691098e+01    0.1282752    0.1090338 -17.17 0.0008078436    1.049    0.047
       264  -8.1700    175.7285    146.1475   3.8792597599e+01   1.8376571834e+01    0.2058839    0.1530476 -83.32  0.000935951    2.701    0.630
       265  -9.4926    139.0321    144.8404   4.6576910774e+01   2.5185498450e+01    0.3410398     0.260887 -79.80  0.001146739    1.952    0.488
       266  -8.7541    233.8656    147.2446   2.9124101280e+01   9.0052215050e+00    0.2164995    0.1422422 -26.51  0.001341476    1.233    0.189
       267  -8.9570     13.3039    146.1777   8.4155164724e+01   4.2668369101e+01    0.2804709    0.1218564  48.43   0.00122884    2.083    0.520
       268  -9.5063    240.2132    144.9357   2.7776050836e+01   8.4301161347e+00    0.1763889    0.1341146 -32.34 0.0005947491    1.249    0.199
       269  -8.9904    247.1206    143.6568   2.6591807090e+01   7.6556850057e+00    0.2189121    0.1325154 -25.03 0.0006178137    1.309    0.236
       270  -8.8336    165.5159    143.8723   4.0396662177e+01   2.0582090149e+01    0.2398637    0.2188348  84.26 0.0008077517    1.461    0.316
       271  -9.5643    124.9244    142.5095   4.9611702576e+01   2.8239431313e+01    0.4421683    0.3084073 -89.17  0.001667013    2.501    0.600
       272  -7.7968    194.2908    143.6581   3.4761612964e+01   1.5635822609e+01    0.1241452    0.1033025 -60.56 0.0003921748    1.651    0.394
       273 -10.0365     69.3319    141.3813   6.5525229193e+01   3.7753353077e+01    0.3804429    0.3239312 -87.98  0.002031834    1.210    0.174
       274  -9.7839    242.8425    139.8719   2.6426443468e+01   8.7395809283e+00    0.4078144    0.1743712 -42.04  0.001999408    2.356    0.576
       275  -9.1989      3.1999    142.1276   8.7124198879e+01   4.4406512430e+01    0.2736326    0.1178767  48.01   0.00112875    2.069    0.517
       276  -8.4274    181.7454    141.2238   3.6567775018e+01   1.8181667114e+01    0.2060237    0.1597592 -47.18 0.0005621761    1.422    0.297
       277  -8.3183    250.5056    140.5308   2.5545394270e+01   7.6055903727e+00     0.117381   0.08926211 -20.53  2.55437e-05    1.018    0.017
       278  -9.8373     23.1590    138.1781   8.0312884669e+01   4.3939068695e+01    0.4830716    0.2880159  59.82  0.001916371    1.637    0.389
       279  -7.9172    218.5564    138.4857   2.9645253233e+01   1.2516596320e+01    0.1267027    0.1043797 -20.61 0.0001866186    1.035    0.034
       280  -8.7340    197.2824    137.2529   3.2873077584e+01   1.6166618788e+01    0.2208516    0.1640791 -32.24 0.0005469148    1.212    0.175
       281  -8.6192    172.1310    137.7561   3.7704266250e+01   2.0499312112e+01    0.2370049     0.179277 -48.30  0.000721721    1.437    0.304
       282 -10.1928     83.3894    133.3064   5.9628637232e+01   3.7628996276e+01    0.5381392    0.3407729 -67.41  0.001667529    1.732    0.422
       283  -9.6819     63.4053    136.3139   6.6605830456e+01   3.9880301031e+01    0.3451841    0.2166547  76.87  0.001466483    2.045    0.511
       284  -9.1761    248.6438    134.9461   2.4697164053e+01   8.5834464896e+00    0.2648079    0.1375052 -37.45  0.000811796    1.646    0.392
       285  -8.7954    250.7820    129.8702   2.3427213654e+01   8.9479104349e+00    0.3547177   0.08888991 -30.12   0.00131199    3.654    0.726
       286  -8.2675    162.4563    136.0283   3.9328073566e+01   2.2590966910e+01    0.2117262     0.134048 -42.05 0.0006818615    1.546    0.353
       287  -8.4269    149.8246    135.8008   4.2068488177e+01   2.5000424908e+01    0.2535437    0.1567523  -4.53 0.0009500678    2.898    0.655
       288  -8.7709    140.2239    136.6024   4.4504197658e+01   2.6649424304e+01    0.2089945    0.1361757  28.57 0.0009461622    1.653    0.395
       289  -8.9944     39.1837    136.1071   7.4683269317e+01   4.2925609188e+01    0.2874023     0.145717  51.17  0.000817696    2.002    0.500
       290  -7.7603     95.6676    135.2905   5.6260761442e+01   3.5091917824e+01    0.1553841    0.1148721  66.41 0.0002946804    1.629    0.386
       291  -8.6322    179.2197    133.6659   3.5399348543e+01   1.9936658466e+01    0.2381785    0.1710093 -44.12 0.0006906909    1.414    0.293
       292  -8.1840    237.4701    133.2632   2.5836853624e+01   1.0397309390e+01    0.1669556   0.09411959 -39.30 0.0008326888    1.611    0.379
       293  -7.9262    231.4849    133.5671   2.6727406493e+01   1.1242896348e+01    0.1229679   0.09915865 -20.68 4.633893e-05    1.019    0.019
       294  -8.7864    112.7564    132.8963   5.0816943018e+01   3.2601432418e+01    0.2691642    0.2101561 -79.60 0.0007810274    1.625    0.385
       295  -8.7907     69.6164    133.7080   6.4125120578e+01   3.9660434154e+01    0.1541713     0.114984 -19.50 0.0007016125    1.755    0.430
       296  -9.1470    143.1062    131.5809   4.2679439114e+01   2.7124919727e+01    0.2901233    0.2256838 -72.35 0.0008373247    1.738    0.425
       297  -9.7689    132.3226    131.1179   4.5217583580e+01   2.9296804061e+01    0.4827344    0.3437425  75.64  0.001669283    2.226    0.551
       298  -8.4110    247.0361    130.0020   2.3924336427e+01   9.4567864622e+00    0.1749732    0.1209983 -45.60 0.0004733937    1.618    0.382
       299  -8.3339    204.5466    130.0403   3.0084884762e+01   1.6078141035e+01    0.2028831    0.1137999 -36.15  0.000666473    1.574    0.365
       300  -8.2853    192.7040    129.9825   3.2089727405e+01   1.8142561009e+01    0.1939616    0.1518182 -32.47 0.0004879265    1.159    0.137
       301  -8.9733    168.3256    129.3265   3.6582554670e+01   2.2729512991e+01    0.2713833    0.2258044 -78.69 0.0005356282    1.684    0.406
       302  -9.2834    152.8374    128.9130   3.9811634305e+01   2.5776093170e+01    0.3802159    0.2332003 -57.75  0.001069525    2.116    0.527
       303 -10.0319     99.3697    127.8049   5.3569809782e+01   3.6231896440e+01    0.6172644    0.3969772  80.57  0.001807655    2.734    0.634
       304  -9.5664     13.0587    129.2877   8.2997080776e+01   4.7082577929e+01    0.4686145    0.2031953  57.51  0.001927902    2.352    0.575
       305  -8.3857    207.4683    137.5281   3.1209187347e+01   1.4429039703e+01    0.2205641    0.1060279 -44.01  0.001007726    2.154    0.536
       306  -8.0731    211.4113    129.1381   2.8786556679e+01   1.5063750032e+01    0.1875399    0.1047097 -43.10 0.0009366018    1.765    0.433
       307  -9.2376     72.9778    129.0009   6.2155411401e+01   4.0357095744e+01     0.310502    0.2178008  67.00  0.001085875    1.677    0.404
       308  -9.0545     50.3203    128.6572   6.9809100165e+01   4.3600139319e+01    0.3807351    0.2147761  73.52  0.001330861    2.328    0.571
       309 -10.5196     44.3480    123.4353   7.1122338782e+01   4.5707325402e+01    0.9064003    0.4225616  74.31  0.002909202    3.690    0.729
       310  -8.0244      1.3552    129.6978   8.7066475270e+01   4.7727528734e+01    0.1473901   0.08023975  55.02 0.0007038817    1.709    0.415
       311 -10.4044     60.5290    125.3908   6.5707709730e+01   4.3114312961e+01    0.7606902    0.4071878  70.02  0.002703493    2.935    0.659
       312  -9.7437    117.7563    125.1284   4.7670284196e+01   3.3414346305e+01      0.47436    0.3264165  79.37  0.001453535    2.412    0.585
       313  -7.7581    228.6592    125.3377   2.5419895186e+01   1.2835967113e+01    0.1216291   0.08975105 -54.78 0.0007050407    1.763    0.433
       314  -8.9382    179.1448    124.5524   3.3343932018e+01   2.1539975215e+01    0.2629459     0.201794 -59.89 0.0007761163    1.646    0.393
       315 -10.1383     28.6195    122.3970   7.6718928947e+01   4.7640368068e+01     0.622383    0.2736936  67.57  0.002210578    3.043    0.671
       316  -9.0900    158.6252    121.4125   3.6759997940e+01   2.6087094525e+01    0.3173811    0.2388709 -82.69  0.001043116    2.102    0.524
       317  -8.4935     83.7963    122.2281   5.7223602496e+01   4.0322070482e+01    0.2064278    0.1807634  -5.35  0.000893401    1.317    0.241
       318  -7.8445    194.9911    121.5206   2.9788825638e+01   1.9118970165e+01    0.1609088    0.1223412  87.63 0.0005187456    2.218    0.549
       319  -8.7161    171.9337    121.2129   3.3960828091e+01   2.3509742263e+01    0.2063747    0.1904277 -60.24 0.0005609077    1.242    0.195
       320  -9.7258    141.5165    118.3392   3.9901780076e+01   3.0138495810e+01     0.434307    0.2823858 -64.17  0.001175475    2.143    0.533
       321  -9.4841    130.6933    118.2921   4.2576276077e+01   3.2348297584e+01    0.4095728    0.2818932 -77.07  0.001208628    2.336    0.572
       322  -9.4212     71.1732    119.7656   6.0937814419e+01   4.3004327075e+01    0.3531345    0.1922544  63.35  0.001218558    2.766    0.638
       323  -9.7701      3.2203    117.3532   8.5637030099e+01   5.0878208539e+01    0.5313414    0.1739185  58.96  0.001858401    3.365    0.703
       324  -7.5781    231.6763    117.3122   2.3312598431e+01   1.3491787347e+01    0.1199625   0.08776537 -53.19 0.0007039818    1.657    0.397
       325  -8.1538    185.6195    115.7762   3.0092482409e+01   2.1819849332e+01    0.1956692    0.1185493 -43.99 0.0004010038    1.603    0.376
       326  -9.6487    109.4529    114.2413   4.7385877979e+01   3.7512922457e+01    0.4660025    0.3238414 -84.03  0.001478558    2.229    0.551
       327  -8.2402    193.1762    115.1751   2.8633696757e+01   2.0490566988e+01    0.1847153    0.1479386 -49.55 0.0004545715    1.334    0.251
       328  -8.8131    174.8283    111.7578   3.1115559428e+01   2.4624232653e+01    0.3096925    0.1847589 -52.58 0.0007948097    1.952    0.488
       329 -11.0444    248.8158    107.4877   1.9129580082e+01   1.2159794331e+01     0.496077     0.249598 -31.96  0.002457939    1.542    0.351
       330  -9.9038     92.8618    112.6076   5.2068521916e+01   4.1085512563e+01     0.464222    0.3298909 -84.26  0.001237687    1.925    0.481
       331  -9.7984     79.0145    112.3276   5.6607073617e+01   4.3623403117e+01    0.5614275    0.3647382  77.79  0.001895172    2.339    0.573
       332  -8.9532     52.3433    113.8293   6.6543408191e+01   4.7279365340e+01    0.2375603    0.1814458 -88.25  0.001051022    1.384    0.278
       333  -9.8663    133.6247    109.2115   3.9513729379e+01   3.3658280157e+01    0.6168355    0.2920067 -49.44   0.00231154    2.219    0.549
       334  -9.4258    121.8946    112.4917   4.3433919709e+01   3.5398092867e+01    0.2855177     0.221722 -57.13 0.0005495311    1.369    0.270
       335  -8.6930    159.1213    111.6599   3.4249587545e+01   2.7834552829e+01    0.2555857    0.1927951 -49.74 0.0006603285    1.368    0.269
       336  -9.7640     14.3942    111.2824   8.0854366699e+01   5.1809238549e+01    0.3769545    0.1623233  61.14  0.001357961    2.666    0.625
       337  -9.3162     66.4367    110.1984   6.0582373151e+01   4.6216552609e+01    0.3967978    0.2699922  72.27  0.001186916    1.888    0.470
       338  -7.7094    182.7107    109.3137   2.9060547125e+01   2.3481442025e+01    0.1371341    0.1067437 -62.95 0.0002185002    1.588    0.370
       339  -8.2328    189.3513    108.0786   2.7599843294e+01   2.2387653330e+01    0.2034943     0.112513 -44.37 0.0005553574    1.748    0.428
       340 -10.1943    108.6181     98.5758   4.3465267245e+01   4.1254446125e+01     0.589509    0.3844933  71.80  0.001245095    2.382    0.580
       341  -9.5494    150.5832    102.9477   3.3842960768e+01   3.1293860686e+01    0.4659512    0.2577197 -57.44  0.001314562    2.432    0.589
       342  -9.3217    139.8063    104.2994   3.6690695718e+01   3.3348951637e+01    0.3504016    0.2561368 -73.32 0.0009655804    1.896    0.473
       343 -10.2535     45.6935    102.0869   6.6856600829e+01   5.1272625408e+01    0.8314306    0.3995878  65.23  0.002661936    3.645    0.726
       344 -10.7370     22.6645    102.6388   7.6458495564e+01   5.3521210904e+01    0.6500488    0.3461019  63.59  0.001860678    2.183    0.542
       345  -8.5466    166.6632    104.0860   3.0772834531e+01   2.7663743460e+01    0.2333128    0.1667877 -50.73 0.0007364355    1.459    0.315
       346  -9.7082    128.5169    101.8652   3.8845779509e+01   3.6286361262e+01    0.3567612    0.2679259  88.95 0.0008216482    1.907    0.476
       347  -8.5857      7.0417    103.0232   8.2981316923e+01   5.4510763496e+01    0.2358636    0.1379483  58.29 0.0006195462    1.745    0.427
       348  -8.0789    175.5458    102.0345   2.8550793471e+01   2.6178747117e+01    0.2007672    0.1119562 -55.82 0.0005343207    2.353    0.575
       349  -8.5481    159.6431    100.7532   3.1321835275e+01   2.9759525862e+01    0.2604173    0.1747026 -46.52 0.0006846739    1.472    0.321
       350  -9.0840     82.2032     99.9837   5.2434578897e+01   4.6146124967e+01    0.3661104     0.262435 -86.57 0.0009760159    1.888    0.470
       351  -9.9925     63.8764     96.2559   5.8267605654e+01   5.0229065910e+01    0.6753111    0.3727037 -77.03  0.001835768    2.615    0.618
       352  -8.9842     95.0068     96.8607   4.7233512934e+01   4.4443811220e+01    0.3031381    0.2493114 -74.20 0.0006194162    1.376    0.273
       353  -8.1233    164.6727     93.8655   2.8474550727e+01   2.9919269671e+01    0.2156572    0.1223931 -45.40 0.0004864954    1.718    0.418
       354  -8.2066    167.4994    114.0266   3.3108852088e+01   2.5688059493e+01    0.2181787    0.1345534 -39.89  0.000525783    1.528    0.345
       355  -8.4191    176.0715     93.0047   2.6124109416e+01   2.7615478208e+01    0.2256674    0.1649395 -64.23  0.000545464    1.673    0.402
       356  -9.1995    138.9093     91.9074   3.3464070360e+01   3.6012176918e+01    0.3730278    0.2476069 -62.24  0.001062835    1.904    0.475
       357  -8.8883    120.5242     92.9535   3.8446344484e+01   3.9912447450e+01    0.2665371    0.2250703  17.23  0.001298642    1.368    0.269
       358  -9.5988    124.4859     90.7043   3.6720968445e+01   3.9500488047e+01    0.4195376    0.3010268 -67.52 0.0008965076    1.763    0.433
       359  -8.5874    107.8504     92.2124   4.1858727318e+01   4.2838036057e+01    0.4785738    0.2655782  26.22    0.0016669    2.764    0.638
       360  -9.4018     35.0028     90.0234   6.8952058453e+01   5.5760968081e+01    0.4805356    0.2671056  77.75  0.001590376    2.588    0.614
       361  -9.4851      5.0150     92.0070   8.2752161605e+01   5.7595946330e+01    0.2967645    0.1789051  58.32  0.001446654    1.733    0.423
       362  -8.2797    157.8309     91.3566   2.9152684759e+01   3.1873830665e+01    0.2097117    0.1755142 -48.29 0.0005243495    1.170    0.145
       363  -8.7340     47.6011     91.8120   6.3839502259e+01   5.3765035129e+01    0.2850139    0.1216109  24.40  0.001018827    2.647    0.622
       364  -8.5414     23.3443     89.8402   7.4181466258e+01   5.6940871141e+01     0.273912    0.1740103   2.38  0.001275982    1.910    0.476
       365  -8.0708    151.0098     88.9767   2.9907619337e+01   3.3837312645e+01    0.1903678    0.1628315 -38.78 0.0004478733    1.120    0.107
       366  -9.7610     86.5423     86.1851   4.6976207416e+01   4.8642668107e+01    0.5952652     0.375714 -67.76  0.001894455    2.073    0.518
       367  -7.6488    164.2885     86.6877   2.6590674347e+01   3.1265282465e+01    0.1477189    0.1106354 -65.48 0.0003277033    1.583    0.368
       368  -9.6889     48.6699     84.2661   6.1519691072e+01   5.5599494240e+01    0.5602157    0.3195299  65.17  0.001827085    2.713    0.631
       369  -8.2501    157.8933     83.7884   2.7018151190e+01   3.3212672519e+01    0.1990043    0.1682251 -66.12 0.0004112766    1.282    0.220
       370  -9.6224    104.8126     82.9895   3.9961724106e+01   4.5518742742e+01    0.4139839    0.2980949 -73.33  0.000947396    1.855    0.461
       371  -8.8181    140.9738     82.5763   3.0250813738e+01   3.7328345749e+01     0.299613    0.2000263 -54.06 0.0007305607    1.618    0.382
       372  -7.5138     64.2904     82.6351   5.4389485697e+01   5.3614083897e+01    0.1583176     0.119981  80.37 0.0007026003    1.704    0.413
       373  -9.3720     24.7662     80.6826   7.1819457044e+01   5.9282869560e+01    0.4358612    0.2391616  71.18   0.00125067    2.494    0.599
       374  -8.7035     74.7766     80.3048   4.9493571176e+01   5.2312514420e+01    0.3503546    0.2088013 -67.76  0.001029634    2.223    0.550
       375  -9.4056      9.9188     80.8004   7.9088069006e+01   6.0350983148e+01    0.3301381    0.1553202  49.76  0.001137286    2.407    0.584
       376  -8.2011    150.4256     80.2791   2.7516493195e+01   3.5552285690e+01     0.216212    0.1327857 -47.97 0.0006791785    1.633    0.388
       377  -8.4444    119.4128     80.1962   3.4863418161e+01   4.2802240785e+01    0.2264582    0.1423474 -52.93 0.0009395928    1.713    0.416
       378  -8.1579    167.1079     79.2215   2.3987130108e+01   3.1904674297e+01    0.2026554    0.1562019 -54.67 0.0005296402    1.322    0.244
       379  -8.1903    184.3565     77.8524   2.0733183480e+01   2.8301894191e+01    0.2014689    0.1253691 -23.84 0.0006617634    1.706    0.414
       380  -7.9767    157.4117     76.4654   2.4999681382e+01   3.4595391994e+01    0.1484049    0.1369578 -50.25 8.264516e-05    1.036    0.034
       381  -9.2510    128.0644     75.0894   3.0993420898e+01   4.1774998392e+01    0.3373629    0.2286971 -54.06 0.0005389242    1.587    0.370
       382  -8.4018    140.4898     75.1016   2.8085127016e+01   3.8819195311e+01    0.2334775    0.1441177 -41.21 0.0008701811    1.562    0.360
       383  -9.8567     63.0385     73.6329   5.2129881603e+01   5.6034283760e+01    0.4373307    0.2951838 -68.34  0.001140174    1.745    0.427
       384  -9.5015     82.4664     72.5746   4.4037064162e+01   5.2589517694e+01     0.438961    0.2907118 -72.33  0.001074431    2.198    0.545
       385  -8.2689    163.4653     73.0173   2.2870280066e+01   3.3768013424e+01    0.2302669    0.1351241 -37.69 0.0009985943    1.584    0.369
       386  -7.7612    151.6315     73.2924   2.5189649169e+01   3.6494996450e+01     0.156249    0.1139091 -73.91  0.000702659    1.718    0.418
       387  -8.3926    115.5333     72.9576   3.3570257621e+01   4.5149512313e+01     0.234648    0.1518934 -40.60 0.0005739403    1.534    0.348
       388  -8.5861    105.8612     71.7050   3.5928622458e+01   4.7651552329e+01    0.2871865     0.196139 -68.30 0.0006760795    1.973    0.493
       389  -9.0618     95.0706     71.0473   3.9101305836e+01   5.0227699063e+01    0.3656229    0.2162838 -53.18 0.0009610692    1.837    0.456
       390  -9.3527     51.5169     69.6067   5.5981528396e+01   5.8900454192e+01    0.4490597    0.2663395 -78.08  0.001520308    2.577    0.612
       391  -8.8452     16.6203     69.8840   7.3782804785e+01   6.2823083070e+01    0.2742476    0.1895216  69.73 0.0008845573    1.675    0.403
       392  -8.7980    147.2343     67.9867   2.4446119535e+01   3.8451228006e+01    0.3140446    0.1817339 -47.80 0.0007520731    1.740    0.425
       393  -8.4150    138.6633     66.0955   2.5636926357e+01   4.0853243626e+01     0.244462    0.1709713 -51.94 0.0006188898    1.471    0.320
       394  -8.6839    121.7124     65.8040   2.9517299196e+01   4.5035365836e+01    0.2900662    0.1972112 -55.98 0.0006937497    1.630    0.386
       395  -8.9084    110.0747     63.5117   3.1833878992e+01   4.8269510672e+01    0.2870748    0.2089406 -56.68 0.0006811437    1.506    0.336
       396  -8.4759     37.3135     63.9755   6.1234496120e+01   6.2287796839e+01    0.2603477    0.1935284  57.96  0.001060738    1.609    0.379
       397  -8.0233    158.2559     61.6353   2.0409736047e+01   3.6830954915e+01    0.1546649    0.1032974 -58.36  0.000217805    1.629    0.386
       398  -9.0323     97.8553     60.4648   3.4370322741e+01   5.1741724653e+01    0.3577371     0.241299  66.82  0.001035962    1.787    0.440
       399  -9.6248     73.3348     59.5128   4.2790543657e+01   5.7317006942e+01    0.3960445     0.267154 -56.42  0.001078586    1.637    0.389
       400  -7.8262     89.2636     59.6035   3.6880106714e+01   5.3878984342e+01    0.1586256    0.1198421 -72.89 0.0006973716    1.717    0.418
       401  -9.6312     23.4811     56.2872   6.6582118950e+01   6.5757254020e+01    0.4997246    0.2897412  76.13  0.001999844    2.826    0.646
       402  -9.2389      7.5742     57.0039   7.6276811256e+01   6.6772322325e+01    0.2981538    0.1989159  62.00  0.001514961    1.772    0.436
       403  -8.1153    130.5600     57.4927   2.4551445673e+01   4.4315453245e+01    0.1521511    0.1433577 -68.15 0.0001167898    1.044    0.042
       404  -8.1558    139.8572     56.1149   2.2109469463e+01   4.2221746121e+01     0.231126    0.1904248 -63.23 0.0004056468    1.252    0.201
       405  -8.6839    119.0359     55.5648   2.6589648604e+01   4.7513483931e+01    0.2915216    0.2006397 -54.04 0.0006541965    1.570    0.363
       406  -8.6136     44.0226     55.4573   5.4806465245e+01   6.3436923296e+01    0.2628132    0.2042231 -72.93 0.0007766265    1.506    0.336
       407  -9.7136    248.9604     55.0441   7.9145545777e+00   1.8750042072e+01    0.1880356    0.1464155 -38.64 0.0007243451    1.023    0.022
       408  -8.9828     62.9592     54.6043   4.5250566963e+01   6.0411794417e+01    0.2876887    0.2150347 -56.28 0.0006835894    1.433    0.302
       409  -8.8201     54.0376     53.7797   4.9083283861e+01   6.2210789078e+01    0.3380364    0.2046117 -67.98  0.001162281    2.377    0.579
       410  -8.3183    105.7763     52.9515   2.9136007742e+01   5.1241511509e+01    0.2502531     0.165942 -61.77 0.0006277773    1.895    0.472
       411  -9.4253     92.4931     50.4889   3.2191608030e+01   5.4876897105e+01    0.4167221    0.2563071 -54.99  0.001224207    1.939    0.484
       412  -8.3394    214.1572     50.8693   1.0008733062e+01   2.5802692745e+01    0.1666064    0.1462997  -9.33 0.0005502466    1.316    0.240
       413  -8.0721    144.6307     48.8099   1.8754612201e+01   4.2153340173e+01    0.2193558    0.1236852 -43.37 0.0006394305    1.709    0.415
       414  -7.9035    120.4984     47.4971   2.3271165810e+01   4.8477451432e+01     0.149235    0.1458819  82.06 2.873239e-05    1.020    0.019
       415  -8.1299    112.4556     46.9193   2.5011899692e+01   5.0603850170e+01    0.2252804    0.1459402 -38.33 0.0008909412    1.544    0.353
       416  -9.0821     82.1451     46.4979   3.4062215278e+01   5.8005176429e+01    0.3048798     0.225061 -65.98 0.0007027311    1.734    0.423
       417  -8.9205    223.9372     44.5181   7.5644961520e+00   2.4625116244e+01    0.2297702     0.165674 -15.84  0.001094053    1.552    0.356
       418  -8.3668     45.0919     44.6161   4.9846704267e+01   6.5722372166e+01    0.2389501    0.1937747 -60.97 0.0007138748    1.366    0.268
       419  -8.7745     16.8716     44.7141   6.7130713424e+01   6.9222402610e+01    0.2479065    0.1693993  75.05  0.000763147    2.019    0.505
       420  -8.6571     58.1343     42.4240   4.2200452735e+01   6.3860198222e+01    0.2948934    0.1921178 -60.21  0.001136999    1.980    0.495
       421  -9.6561      5.2292     42.1940   7.4377793614e+01   7.0648267516e+01    0.3188363    0.2157864  82.07  0.001117901    1.772    0.436
       422  -7.8330    132.7293     42.7011   1.8893536673e+01   4.6079070195e+01    0.1433701    0.1145744  24.78 0.0001523931    1.525    0.344
       423  -9.1848     69.6938     41.3165   3.6553051038e+01   6.1713889501e+01    0.3716139    0.2647713 -75.12  0.001096902    2.197    0.545
       424  -7.7652    140.4695     41.4523   1.7003768301e+01   4.4273504880e+01    0.1489336    0.1353479 -70.23 0.0001347545    1.061    0.058
       425  -8.8918    105.8557     41.0915   2.4407617149e+01   5.3194307895e+01    0.2336028     0.197569 -65.71 0.0004985263    1.277    0.217
       426  -8.2994     36.8127     40.5785   5.2781527713e+01   6.7874194722e+01    0.1886494    0.1294913  42.72 0.0004535214    1.595    0.373
       427  -8.4639     95.5544     38.0200   2.5984582926e+01   5.6250195334e+01    0.2201713    0.1459097 -35.56 0.0004475623    1.540    0.350
       428  -9.2559     26.2259     35.3228   5.7164472345e+01   7.0448627633e+01    0.3029429    0.2342566 -81.65 0.0009494799    1.733    0.423
       429  -8.0332    125.9818     35.3300   1.7513217754e+01   4.8860916707e+01    0.2020843    0.1843989  84.73 0.0004369974    1.061    0.058
       430  -8.6956    111.7702     34.3815   2.0194469904e+01   5.2678322175e+01    0.2740772    0.1697331 -44.54 0.0007801556    1.660    0.398
       431  -8.8795     48.5626     33.1911   4.2500357173e+01   6.7454369790e+01    0.2448915    0.2193437  84.39 0.0006211881    1.437    0.304
       432  -8.2825    119.2114     33.1739   1.8063066382e+01   5.0915071624e+01    0.2097437    0.1632266 -60.56 0.0004742368    1.357    0.263
       433  -8.5377     60.7022     32.4015   3.6088742397e+01   6.5216905405e+01    0.2469783    0.1713165 -49.49 0.0006082135    1.612    0.379
       434  -8.5556     72.0832     31.0183   3.0606515170e+01   6.2960677161e+01    0.2232531    0.1783509 -75.61 0.0006274272    1.646    0.392
       435  -8.6213     13.1707     30.5127   6.4568537443e+01   7.2895046192e+01    0.2579159    0.1725599 -83.34     0.001134    2.005    0.501
       436  -8.2598    101.6526     29.3214   2.0510105942e+01   5.5982879588e+01    0.2318466    0.1636642 -67.20 0.0006940414    1.724    0.420
       437  -9.2465    132.7473    248.1558   6.3893210745e+01   7.8820153090e+00    0.3215003    0.1708043  49.31  0.001282445    2.499    0.600
       438  -8.8715     81.6335     27.3201   2.5351789638e+01   6.1272503980e+01    0.2940698     0.220711 -66.29 0.0008515349    1.680    0.405
       439  -8.6139      3.7371     27.6057   7.1072627586e+01   7.4244651513e+01    0.2109877    0.1541213  83.85 0.0008507774    1.732    0.423
       440  -8.8169    246.3495     27.2964   2.0361975025e+00   2.2335827382e+01    0.1026843   0.08648031  17.42  0.000703403    1.681    0.405
       441  -8.6756    112.8145    248.4559   6.7948353590e+01   1.0181514551e+01    0.1733304    0.1618348 -47.77 0.0007980681    1.408    0.290
       442  -8.6531    104.5125     22.5365   1.6836234012e+01   5.6114233874e+01    0.1450179    0.1364541  84.32 7.378122e-05    1.040    0.038
       443  -8.8586     63.7713     21.0878   2.8615825159e+01   6.6354033330e+01    0.3050738    0.2048657 -53.82  0.000853106    1.892    0.472
       444  -8.8875     48.5022     21.4553   3.5967852735e+01   6.9538061370e+01    0.2596537    0.2397288 -76.44 0.0006954235    1.368    0.269
       445  -8.2225     19.6996     21.3457   5.4929033803e+01   7.4216008807e+01    0.1247245    0.1059822  73.83 0.0003368689    1.681    0.405
       446  -9.1052     74.2872     19.6034   2.3835908278e+01   6.4106285643e+01    0.2968471    0.2187132 -63.53 0.0009037565    1.738    0.425
       447  -8.7585    121.0405     21.5042   1.3069025581e+01   5.1892495211e+01    0.2140682     0.189385 -37.05  0.000476575    1.168    0.144
       448  -7.8197    112.8499     16.5998   1.2547185490e+01   5.4600017252e+01    0.1963713    0.1308936  85.60 0.0004579586    1.579    0.367
       449  -8.0072     30.2227     16.3799   4.3926585978e+01   7.3683310361e+01    0.1816939    0.1209811  45.48 0.0006756382    1.677    0.404
       450  -8.3044     97.1745     14.9609   1.5043591645e+01   5.8894562109e+01    0.2375849    0.1394241 -51.45 0.0005853905    1.952    0.488
       451  -7.9809      7.6471     15.3226   6.2077092414e+01   7.6709485547e+01    0.1237148   0.09756823  57.79 0.0007047397    1.756    0.430
       452  -8.8158     93.5921    249.0681   7.1966800400e+01   1.2314191288e+01    0.2410836   0.08724322  49.82  0.001028632    3.426    0.708
       453  -7.7886     83.6805     11.2890   1.6537797241e+01   6.2758932434e+01    0.1415873    0.1057298 -68.71 0.0002734386    1.599    0.375
       454  -9.5928    243.1639    246.1027   4.4203128028e+01  -3.7845907042e+00    0.3191781    0.1263035 -21.89  0.001927202    2.360    0.576
       455  -7.9421     47.6729     10.2836   2.9226599025e+01   7.1355295109e+01    0.1273392    0.1087697 -79.97 0.0002486628    1.604    0.376
       456  -9.1621    218.6876    246.2948   4.8038078349e+01  -1.4489974666e+00     0.279123    0.1007245 -30.25  0.001565095    2.723    0.633
       457  -8.9867    175.3839    247.2815   5.5632931522e+01   3.0624709524e+00    0.1996773    0.1838952  48.40  0.001449866    1.811    0.448
       458  -8.9490    156.1497    248.0677   5.9320155636e+01   5.1581927851e+00    0.1965002    0.1336753  32.23 0.0007073879    1.328    0.247
       459  -9.3709    103.7457    246.6316   6.9642231200e+01   1.1520207916e+01    0.3331518    0.2014781 -87.76  0.001820275    3.114    0.679
       460  -9.4793     64.4803    248.2498   7.7988106108e+01   1.5677790889e+01    0.2800234   0.09797286  32.47  0.001404307    2.026    0.506
       461  -8.7522     21.7488    248.1626   8.6845848750e+01   1.9922989236e+01    0.2291663   0.06897885  38.58 0.0009062631    2.059    0.514
       462  -9.8052    119.9387    245.2710   6.6171518736e+01   9.8175229377e+00    0.2943732    0.1912601  62.49  0.001589448    2.429    0.588
