#   1 NUMBER                 Running object number                                     
#   2 MAG_AUTO               Kron-like elliptical aperture magnitude                    [mag]
#   3 X_IMAGE                Object position along x                                    [pixel]
#   4 Y_IMAGE                Object position along y                                    [pixel]
#   5 X_WORLD                Barycenter position along world x axis                     [deg]
#   6 Y_WORLD                Barycenter position along world y axis                     [deg]
#   7 A_WORLD                Profile RMS along major axis (world units)                 [deg]
#   8 B_WORLD                Profile RMS along minor axis (world units)                 [deg]
#   9 THETA_WORLD            Position angle (CCW/world-x)                               [deg]
#  10 FWHM_WORLD             FWHM assuming a gaussian core                              [deg]
#  11 ELONGATION             A_IMAGE/B_IMAGE                                           
#  12 ELLIPTICITY            1 - B_IMAGE/A_IMAGE                                       
         1 -15.7511    170.0448     43.6801   4.3661119400e+01   3.7307843730e+01     1.175259     1.016865 -13.01  0.005842553    1.420    0.296
         2 -14.9461    192.0737     11.8229   3.2851567544e+01   3.5921362259e+01    0.7955837    0.5151797  18.58  0.003368424    2.974    0.664
         3 -11.5063    151.7749      7.9875   3.6437179905e+01   4.5648750247e+01     0.192344    0.1240464 -83.29 0.0006395078    1.635    0.389
         4 -12.9260     41.9225    246.1292   1.1598226716e+02   1.6679528353e+01    0.3299707    0.1624329  53.87  0.001491834    1.726    0.421
         5 -12.7670    175.6688    249.9400   8.8402725902e+01  -2.6356501160e+00      0.29594    0.1570493  19.97 0.0009183239    1.943    0.485
         6 -13.3878    139.3536    249.7591   9.5939511992e+01   2.6754401039e+00    0.3366577    0.2601885  42.84  0.001461993    1.223    0.183
         7 -20.8019     83.6113    169.3127   9.7313963284e+01   2.8908451692e+01     14.35088     7.164467 -61.23   0.05846715    1.967    0.492
         8 -10.9687    164.2489    211.6148   8.4643785394e+01   5.8528153467e+00    0.1299473    0.1116939  87.58 0.0006950133    1.660    0.398
         9 -12.9196    172.9564    207.0834   8.1925081067e+01   5.2964563613e+00    0.3936096    0.2736973 -32.98  0.002036495    1.456    0.313
        10 -11.8687    168.1775    207.7419   8.3092093136e+01   5.9571745223e+00    0.2290536     0.205764   5.26 0.0007427757    1.010    0.010
        11 -12.6099     12.0063    206.1385   1.1943354609e+02   2.8445889667e+01    0.4997042    0.2570894  23.29  0.002616536    2.370    0.578
        12 -12.4564    171.0359    232.9862   8.6742889264e+01   8.5744632731e-01    0.2078308    0.1787014  12.49   0.00058376    1.008    0.008
        13 -12.2565    211.0298    198.7019   7.2472838202e+01   7.4249297937e-01    0.2636755    0.2234311  -7.32 0.0005580789    1.015    0.015
        14 -13.2534    192.3491    194.1791   7.5368280825e+01   4.5490088933e+00     1.011797    0.5264571 -62.29  0.003183806    4.997    0.800
        15 -13.9264    173.9187    223.6744   8.4605084922e+01   2.0609216705e+00    0.5127575    0.3084768   7.82  0.002350216    2.169    0.539
        16 -12.2750    176.6694    191.3418   7.8168330057e+01   7.7515043389e+00     0.273674    0.2133962 -85.07 0.0009245398    2.130    0.530
        17 -11.4957    237.7802    191.1551   6.6081793121e+01  -1.9389877633e+00    0.1822515    0.1554037 -25.25 0.0004328298    1.159    0.137
        18 -10.5757    177.5220    187.5004   7.7231806403e+01   8.3715861435e+00    0.1451162    0.1329862  -5.01 -3.848657e-05    1.008    0.008
        19 -10.3569     53.4834    250.4329   1.1399149626e+02   1.4445613541e+01    0.4369955    0.1506975  30.90  0.001875059    2.925    0.658
        20 -11.4724     26.5373    180.3681   1.1396760180e+02   3.3202837070e+01    0.3175761    0.2778733 -52.45  0.002006949    1.294    0.227
        21 -10.7732     27.3659    166.7053   1.1235160506e+02   3.6531758068e+01    0.2409499    0.1733395 -48.96  0.000470678    1.478    0.323
        22 -11.7531     24.1619    165.0872   1.1303098886e+02   3.7236399349e+01    0.3786108    0.1734908 -54.09  0.001714838    2.080    0.519
        23 -12.6592    157.7386    217.5870   8.7107163837e+01   5.7586879359e+00    0.3061782    0.1832629 -32.34  0.001213052    1.900    0.474
        24 -13.9720    232.8534    157.8048   6.0312985353e+01   4.5427435424e+00    0.8137856    0.2661651  35.68  0.002783514    4.304    0.768
        25 -13.0255    159.4803    223.4969   8.7697621703e+01   4.3582544473e+00     0.245615    0.2023217 -37.73 0.0008731241    1.295    0.228
        26 -12.3495    163.4252    153.0434   7.3175459455e+01   1.8283979309e+01     0.339664    0.2522309 -62.24 0.0009680539    1.595    0.373
        27 -11.4133    102.1520    243.9434   1.0318524458e+02   9.2066078843e+00    0.2940935    0.1572461  38.01 0.0009227507    1.590    0.371
        28 -11.9418     29.6013    139.2156   1.0829898883e+02   4.3348051435e+01    0.2617185    0.2069866  21.49  0.000876956    1.470    0.320
        29 -10.1355    165.2651    139.2811   6.9583048476e+01   2.0913554106e+01    0.1494314    0.1196635  -7.93 -0.000275831    1.485    0.327
        30 -11.9754     35.1459    136.2699   1.0615944502e+02   4.3583924952e+01    0.2304977    0.1957227 -66.83 0.0004037825    1.031    0.030
        31 -11.1725     19.7435    136.7409   1.1095590768e+02   4.4817661338e+01    0.1714303    0.1366026  82.46 0.0006234352    1.257    0.204
        32 -11.6897    241.5853    134.6955   5.4120161980e+01   7.1593024403e+00    0.1886745    0.1084123 -45.92 0.0009391583    1.546    0.353
        33 -13.2075    148.6125    129.5129   7.1193371412e+01   2.6551544018e+01    0.4038719    0.3450579 -34.90  0.001651614    1.161    0.138
        34 -13.2267    160.4329    128.0472   6.7996448102e+01   2.4360508128e+01    0.4263179    0.3479011 -56.83  0.001780199    1.282    0.220
        35 -13.6004    152.1021    120.4887   6.8080748496e+01   2.7788195382e+01    0.7161251    0.4504794 -16.88  0.002646585    2.564    0.610
        36 -10.7929    178.1566    122.8298   6.2796394150e+01   2.1669030541e+01    0.2267446    0.1999396 -70.84 0.0004187936    1.247    0.198
        37 -12.8498    167.4467    112.7422   6.2581030296e+01   2.6054016124e+01     0.445955    0.3883351 -73.96  0.001115673    1.272    0.214
        38 -11.4831    154.8820    241.4942   9.1480130561e+01   1.8090602025e+00     0.319338    0.1846011 -25.84  0.001523431    2.310    0.567
        39 -12.1082     40.4711    105.9975   9.8884856084e+01   5.0726033918e+01    0.2481947    0.2037431   0.68 0.0006296968    1.348    0.258
        40 -12.3490     24.1852    104.8977   1.0453270432e+02   5.2490226597e+01    0.3024598    0.2278269 -42.60 0.0008772481    1.204    0.170
        41 -11.2909      3.8985    223.1864   1.2212574586e+02   2.5409869588e+01    0.1716475    0.1191823  71.32 0.0004990256    1.139    0.122
        42 -12.0616     44.9744    100.0896   9.5931209685e+01   5.1682687516e+01    0.2126132    0.1873694 -38.23 0.0003618027    1.030    0.029
        43 -10.9294      7.7752    219.9040   1.2116837484e+02   2.5766950695e+01    0.1942223   0.09524002  72.48 0.0005725189    1.858    0.462
        44 -12.0134    187.8650     88.2842   5.2327012027e+01   2.6152705476e+01    0.3315128    0.2588094  38.54  0.001332696    1.489    0.328
        45 -12.7264     19.1795     87.3391   1.0293772043e+02   5.7095682660e+01    0.2741929    0.2062573 -25.36 0.0006183835    1.309    0.236
        46 -12.8982      2.1340     86.9449   1.0952558455e+02   5.8199429430e+01     0.316266    0.1895397 -61.22  0.001058992    1.320    0.242
        47 -13.2669     59.5465     83.1197   8.6004591203e+01   5.3783648481e+01    0.3410241     0.247207  24.73 0.0006103468    1.435    0.303
        48 -11.9830    128.1555     82.9534   6.3772334759e+01   4.0855364504e+01    0.3669947     0.228376  52.23  0.001601878    1.633    0.388
        49 -14.9122    147.0381     76.9723   5.7422672167e+01   3.7615561777e+01     1.029197    0.7766051   9.68   0.00362496    1.832    0.454
        50 -11.8947     28.0825    248.6765   1.1885587830e+02   1.7723581483e+01     0.222626    0.1333828  62.36  0.001087116    1.379    0.275
        51 -14.2702    154.9413     79.4409   5.6389072289e+01   3.5324860248e+01    0.8440834     0.520205 -40.80  0.002618385    1.619    0.382
        52 -15.4128    158.9297     64.2724   5.1302141157e+01   3.6943805444e+01     1.099768    0.9967651  28.12  0.004168805    1.243    0.195
        53 -13.9938    163.1212     58.0122   4.8761378667e+01   3.6917380820e+01    0.5545669    0.4825383  72.87 0.0006285404    1.101    0.092
        54 -13.0230     43.9695     81.0747   9.1498735360e+01   5.6229027137e+01      0.35526    0.2401049  -6.27 0.0006969268    1.694    0.410
        55 -13.6555    180.4836    216.7931   8.2030437333e+01   2.2765728079e+00    0.4015057    0.2750844 -54.72  0.002071361    1.871    0.465
        56 -11.1480     30.2228    218.5440   1.1637900636e+02   2.3840402020e+01    0.2508077    0.1978204  -4.46  0.001434978    1.939    0.484
        57 -13.5214      6.6683     75.6066   1.0554094484e+02   6.0586082212e+01    0.2637874     0.192819 -44.23 0.0006273477    1.104    0.094
        58 -12.9646    112.3150     69.5090   6.3922373806e+01   4.6855272182e+01    0.3313574    0.2833369   0.89  0.001324697    1.269    0.212
        59 -12.5849    206.8686    213.2095   7.5984888958e+01  -1.1303512383e+00     0.302164    0.2140777 -31.26 0.0005877493    1.328    0.247
        60 -12.3879    203.8805    208.1313   7.5650044980e+01   1.8951710271e-01      0.33491    0.1776071 -38.00 0.0007828311    1.806    0.446
        61 -11.8862    128.1448     68.9115   5.9505435647e+01   4.3415132531e+01    0.2915671    0.2106459  62.76 0.0005183999    1.493    0.330
        62 -11.7451    207.2044    207.9923   7.4964608110e+01  -2.8992719719e-01    0.2874767    0.1776085 -34.11 0.0008603487    1.521    0.343
        63 -12.9927     13.4898     60.0881   9.8808819995e+01   6.3571188080e+01    0.2231116    0.1948603 -18.33 0.0005785965    1.147    0.128
        64 -12.2587    112.1368     56.6858   5.9761893153e+01   4.9060563837e+01    0.3443793    0.2034528 -42.46 0.0008854391    1.819    0.450
        65 -11.9095    110.6114     46.5166   5.6719476643e+01   5.0938289945e+01     0.256227    0.2254059  71.77 0.0006676649    1.267    0.210
        66 -12.4608     22.8356     46.0588   8.9996066710e+01   6.5635553533e+01    0.2126196    0.1630315   3.96  0.001005211    1.250    0.200
        67 -12.2152    207.3746    203.7928   7.4150622904e+01   4.1233258558e-01    0.3024245    0.1897738 -29.07 0.0009608138    1.508    0.337
        68 -10.8235     46.4006    248.7410   1.1527902585e+02   1.5632421151e+01     0.218687   0.08708777  42.15  0.000725549    1.995    0.499
        69 -10.0036     11.8209    233.3477   1.2111509095e+02   2.2520018530e+01    0.3069688     0.107588  77.35  0.001252763    3.465    0.711
