#   1 NUMBER                 Running object number                                     
#   2 MAG_AUTO               Kron-like elliptical aperture magnitude                    [mag]
#   3 X_IMAGE                Object position along x                                    [pixel]
#   4 Y_IMAGE                Object position along y                                    [pixel]
#   5 X_WORLD                Barycenter position along world x axis                     [deg]
#   6 Y_WORLD                Barycenter position along world y axis                     [deg]
#   7 A_WORLD                Profile RMS along major axis (world units)                 [deg]
#   8 B_WORLD                Profile RMS along minor axis (world units)                 [deg]
#   9 THETA_WORLD            Position angle (CCW/world-x)                               [deg]
#  10 FWHM_WORLD             FWHM assuming a gaussian core                              [deg]
#  11 ELONGATION             A_IMAGE/B_IMAGE                                           
#  12 ELLIPTICITY            1 - B_IMAGE/A_IMAGE                                       
         1 -14.7564     13.1193    149.4472   1.4193483138e+02   4.2818104514e+01     11.94687     4.918281  82.41   0.04658829    3.748    0.733
         2 -12.9665    197.0199     30.4118   6.7713150820e+01   3.2634563768e+01     1.279852     1.111771  65.18  0.006740017    1.164    0.141
         3 -13.2132    212.6742     10.6509   6.1162428475e+01   3.1189380548e+01     1.232271    0.8653409  46.04  0.007038998    1.784    0.439
         4 -11.4457      2.7501     37.1722   1.2464523838e+02   6.7044907759e+01    0.4569696    0.1578667 -60.77  0.002041497    3.537    0.717
         5 -10.4479      2.0000      2.9714   1.1248252565e+02   7.2303240659e+01    0.2221921    0.1189455 -46.83  0.001452249    2.155    0.536
         6  -9.9086     81.4470    248.7847   1.3810486008e+02   1.2972434339e+01    0.2501426    0.1479795  66.59  0.001060073    1.501    0.334
         7 -11.7071    247.2569    248.5692   1.0717295712e+02  -1.3942745177e+01    0.6236013    0.2892231  37.95   0.00337235    1.945    0.486
         8  -8.8878     66.3242    250.0553   1.4090623100e+02   1.4921974794e+01     0.161968    0.1201903  77.58 0.0003981578    1.096    0.088
         9 -10.0007     46.8389    249.5202   1.4421352547e+02   1.7646406289e+01    0.1874616    0.1632981 -81.66 0.0007943882    1.463    0.317
        10 -10.2675     29.2390    249.2012   1.4710503693e+02   1.9880594529e+01    0.2680182    0.1847904  83.19 0.0009985397    1.123    0.110
        11 -10.0989     11.9888    249.2979   1.4985144914e+02   2.1812172144e+01    0.2115996    0.1027188  75.31  0.001334944    1.624    0.384
        12 -10.5315      3.9379    249.7877   1.5111382914e+02   2.2571711913e+01    0.4118932    0.1668235  53.91  0.001578399    1.870    0.465
        13 -10.7896    139.7107    249.9929   1.2739282861e+02   3.3601066227e+00    0.3037317    0.1863428  43.45  0.001183855    1.361    0.265
        14 -11.3142     34.5161    244.1682   1.4590364308e+02   2.0203540733e+01    0.4644359    0.3227732  60.10  0.003310183    1.204    0.169
        15 -10.7317    123.7360    250.1847   1.3043963617e+02   6.0155331796e+00    0.4177888    0.1257534  40.09  0.001602623    3.033    0.670
        16  -9.4646     18.3461    241.8203   1.4841707658e+02   2.2526191464e+01    0.1893463    0.1079047  60.28 0.0007355337    1.362    0.266
        17 -10.1799      5.6978    240.9040   1.5038682165e+02   2.4050229320e+01    0.1555713    0.1193805  68.67   0.00046537    1.248    0.199
        18 -11.0451    184.0331    238.8801   1.1726691874e+02  -2.4840627310e+00    0.4082592    0.1985547  55.68  0.001718023    2.764    0.638
        19  -8.8474     13.3198    240.3239   1.4914128415e+02   2.3360215978e+01   0.09394005   0.07574078 -67.75  0.000494616    1.675    0.403
        20 -10.5301    229.7450    230.6151   1.0724167116e+02  -8.9143965426e+00    0.4250885    0.2506572 -58.39  0.001877832    3.584    0.721
        21  -9.9913    119.0123    237.0015   1.2973343391e+02   9.2027788924e+00    0.2196197    0.1387595  70.53  0.001143806    1.751    0.429
        22 -10.4418     50.3731    235.4271   1.4250210071e+02   1.9913959136e+01    0.2904649     0.175927 -75.88  0.001180934    1.530    0.346
        23 -11.5667     21.4776    126.1708   1.3690754651e+02   4.7474894455e+01    0.4624228    0.2424102  48.23  0.001035983    2.269    0.559
        24  -9.9902    186.1346    249.1658   1.1844443250e+02  -4.4304404564e+00     0.172239    0.1393405  55.06  0.001085247    1.336    0.252
        25  -8.6440     55.6646    230.2930   1.4110311784e+02   2.0242669487e+01    0.1294988    0.0711204  68.20 0.0007025517    1.641    0.391
        26  -9.7887     78.8114    218.7869   1.3550995756e+02   1.9328748517e+01    0.1886893    0.1268106  72.17 0.0004897559    1.358    0.264
        27  -8.4362    152.4604    212.9613   1.1946284231e+02   7.8376656668e+00    0.1844308    0.1389519 -56.26 0.0004200402    1.467    0.318
        28 -12.1501     10.3243    206.7382   1.4752708288e+02   3.0413674074e+01    0.5743462    0.3875343  35.40  0.002873241    1.874    0.467
        29 -11.3151     59.1532    198.1848   1.3720600150e+02   2.6623621522e+01     0.344745     0.229397 -72.77 0.0005155546    1.353    0.261
        30  -9.7540    193.0339    195.2774   1.0785526439e+02   3.4140038377e+00    0.8308112    0.4164695 -66.17  0.001976381    8.318    0.880
        31 -11.2269     11.9656    195.0574   1.4636876663e+02   3.2738192892e+01    0.2289151     0.163137  70.46 0.0003157299    1.193    0.162
        32 -11.6246     65.6517    189.7396   1.3481708080e+02   2.7640916605e+01    0.2866567      0.23776 -63.00 0.0005184774    1.307    0.235
        33 -11.1833      2.1960    182.9982   1.4733465265e+02   3.6228859449e+01    0.4796281    0.1487189 -71.50  0.002210142    2.396    0.583
        34 -12.9592     62.7188    174.9029   1.3354250131e+02   3.1486462565e+01    0.5247885    0.2797785 -46.82  0.001609024    2.315    0.568
        35 -10.5559     76.0751    177.0616   1.3076139764e+02   2.9076749982e+01    0.2495446    0.2208267 -80.70 0.0003373283    1.095    0.086
        36  -9.8348     96.2188    172.9469   1.2538611313e+02   2.6849169219e+01    0.2393339    0.2039548  48.24 0.0003384356    1.219    0.179
        37 -11.3902     83.8754    168.1751   1.2755442610e+02   2.9986900376e+01    0.5994647    0.5517545  20.86   0.00352498    1.383    0.277
        38 -12.5115     31.8986    231.7752   1.4547725583e+02   2.2939978113e+01    0.3016585    0.2331242 -69.98  0.000751464    1.505    0.336
        39  -9.6575     96.6973    152.1699   1.2155537203e+02   3.1719044455e+01    0.3126566    0.2437487 -46.07 0.0009575015    1.362    0.266
        40  -8.6727     99.8175    148.1307   1.1997012158e+02   3.2148086224e+01    0.1940328    0.1677081 -40.28 0.0003376903    1.287    0.223
        41 -11.7419     85.1931    151.1245   1.2429236368e+02   3.3866391928e+01    0.3075009    0.2471384 -48.10 0.0006564357    1.308    0.235
        42 -11.9055     67.5334    143.6162   1.2751193821e+02   3.8294484170e+01    0.6809776     0.446407  68.76  0.002763088    1.829    0.453
        43  -9.3997    108.9503    137.0330   1.1527438762e+02   3.3144915601e+01    0.4265908    0.2732224 -18.17  0.001557511    3.087    0.676
        44 -10.2031     95.8935    134.3494   1.1815399013e+02   3.6123632871e+01    0.2580532    0.2085167 -43.00 0.0005298988    1.283    0.221
        45 -13.4548     37.2757    224.7047   1.4398787809e+02   2.3727167870e+01     0.714733    0.5261207  77.34  0.002373222    1.011    0.011
        46 -10.5225     29.7864    130.7938   1.3538072053e+02   4.5679950153e+01    0.2901598    0.1893116  57.52  0.000946053    1.771    0.435
        47  -9.0859     76.8522    129.7724   1.2237538440e+02   4.0272895425e+01     0.318548    0.1919214  66.78  0.001351818    2.389    0.581
        48  -9.9891     83.2180    125.6769   1.1974906681e+02   4.0269432628e+01    0.3255145    0.2166137  66.20  0.001493181    1.959    0.489
        49  -8.7019    106.2363    123.7656   1.1297352088e+02   3.6765638356e+01    0.1858667    0.1689504 -21.53 0.0002634777    1.236    0.191
        50 -10.1605    167.8061    112.9692   9.4839427393e+01   2.5880142043e+01    0.3118905    0.2732005 -78.43 0.0004939559    1.214    0.176
        51  -8.6074    203.4585    111.5006   8.7145240415e+01   1.7732759817e+01    0.1519451    0.1461478 -57.66 0.0001004874    1.035    0.033
        52  -9.7898     42.4991     97.0100   1.2553070387e+02   5.2152913859e+01    0.4567981    0.2080857  49.24   0.00192824    3.297    0.697
        53 -10.1560    243.7957     93.5938   7.6264616204e+01   1.1882062619e+01    0.1928704    0.1324158  77.52 0.0008589886    1.694    0.410
        54 -10.1584    134.9169    231.8576   1.2590951149e+02   7.4211807609e+00    0.2013975    0.1766228  30.69  0.001240001    1.292    0.226
        55  -9.8348     12.0703    232.1076   1.4886244496e+02   2.5084702473e+01    0.2020235    0.1136658 -87.42  0.001334025    1.391    0.281
        56  -8.6631    158.3418     76.7275   8.7107170291e+01   3.5221351570e+01    0.1539991    0.1177753 -85.22 0.0002972798    1.613    0.380
        57  -9.2755     47.7993     70.0943   1.1701023730e+02   5.7210073093e+01    0.2565221    0.1640787  47.89   0.00125749    2.144    0.534
        58 -11.3208      2.2483     62.5001   1.3142783970e+02   6.2412535097e+01    0.4667844    0.1236596 -57.69  0.002158559    2.554    0.608
        59 -11.8718      8.2238     52.3899   1.2671882723e+02   6.4002894800e+01    0.4136692    0.2726226  44.19  0.001629674    2.274    0.560
        60 -10.4373    172.2248    248.1853   1.2094146460e+02  -1.9161496207e+00    0.2855915    0.1552119 -39.61  0.001466026    2.287    0.563
        61  -9.9467    156.7740    249.6174   1.2409273828e+02   5.0582778791e-01    0.1885764   0.09924354  49.17 0.0005339014    1.658    0.397
        62 -10.7131     98.4654    248.0403   1.3492026697e+02   1.0502508577e+01    0.2793351    0.2189464 -85.69  0.001832608    1.288    0.223
