#   1 NUMBER                 Running object number                                     
#   2 MAG_AUTO               Kron-like elliptical aperture magnitude                    [mag]
#   3 X_IMAGE                Object position along x                                    [pixel]
#   4 Y_IMAGE                Object position along y                                    [pixel]
#   5 X_WORLD                Barycenter position along world x axis                     [deg]
#   6 Y_WORLD                Barycenter position along world y axis                     [deg]
#   7 A_WORLD                Profile RMS along major axis (world units)                 [deg]
#   8 B_WORLD                Profile RMS along minor axis (world units)                 [deg]
#   9 THETA_WORLD            Position angle (CCW/world-x)                               [deg]
#  10 FWHM_WORLD             FWHM assuming a gaussian core                              [deg]
#  11 ELONGATION             A_IMAGE/B_IMAGE                                           
#  12 ELLIPTICITY            1 - B_IMAGE/A_IMAGE                                       
         1 -12.0264    179.1570      3.8072   5.5082240150e+01   3.9529532754e+01     2.561473     1.231555  87.26  0.009336025    2.810    0.644
         2 -14.3028    223.5192     40.2475   6.0682865495e+01   2.3941758708e+01     12.49958          nan -34.01   0.02531868    8.056    0.876
         3 -11.9114    233.0674     28.7373   5.6267136882e+01   2.2864970616e+01    0.7792307    0.4800016  64.70  0.001718832    1.669    0.401
         4 -12.3396    165.0676     54.2634   7.4601760866e+01   3.7028415144e+01     2.620962      1.50226 -80.46  0.007648452    4.716    0.788
         5 -12.6971    179.6150     73.9487   7.7747944816e+01   3.0341935177e+01     6.259368    0.6853068 -37.28  0.002834418    6.645    0.850
         6 -10.2696    249.7833      3.6139   4.7879912026e+01   2.1304170297e+01    0.5217727    0.2494824 -24.46  0.002387254    1.924    0.480
         7 -10.6282    247.5436      9.3697   4.9572682820e+01   2.1302233264e+01    0.6044316    0.4576839 -88.53  0.002695052    1.409    0.290
         8 -12.2690    243.0986     17.6126   5.2173143324e+01   2.1567806371e+01    0.9975585    0.4007881 -48.11  0.003029566    2.675    0.626
         9 -10.8455    249.6662     19.9202   5.2177188813e+01   1.9762190681e+01    0.3502154    0.2310553 -40.21 0.0006180178    1.406    0.289
        10 -10.4327    223.1058     15.5249   5.3587986466e+01   2.6761498245e+01    0.4364924      0.23435 -38.72  0.001172751    1.775    0.437
        11 -11.1063    217.2135      7.8711   5.1964650905e+01   2.9026382997e+01    0.7908033    0.2453236 -45.89  0.002083845    3.591    0.722
        12 -10.6477    134.1998     11.5598   6.5468327177e+01   5.0556556301e+01    0.5439755     0.203343 -12.80  0.001706163    3.700    0.730
        13  -9.6769    116.4434     12.5101   6.9862976935e+01   5.4723375804e+01    0.3761412    0.2347189  54.24  0.001283806    1.599    0.374
        14 -10.5220    120.3906      9.0039   6.7414658543e+01   5.4203352265e+01    0.4136635    0.3787006  45.19  0.001341819    1.119    0.106
        15 -11.0441    145.4536      7.9312   6.1829278246e+01   4.8084336061e+01    0.5105461     0.320452  -4.02  0.002315592    1.759    0.431
        16  -8.6144    236.8623      3.8548   4.8992133394e+01   2.4415286265e+01    0.2816517    0.1874098  29.99  0.001397441    1.802    0.445
        17  -9.9855      2.2069      4.3514   1.1143081944e+02   7.3146359991e+01    0.4101763    0.1143492 -61.94   0.00170527    3.503    0.715
        18  -9.1416    195.9772      1.7831   5.2370149846e+01   3.5189182669e+01    0.2097922    0.2040179  66.79  0.001220594    1.005    0.005
        19  -8.1122    203.7296    152.6546   9.2252343963e+01   1.2847849045e+01    0.1342063   0.09430003  12.65 0.0003916463    1.616    0.381
        20  -9.9730    218.5813    149.3642   8.8978790392e+01   1.0393340477e+01    0.2284624    0.2052006  35.85 0.0003976587    1.161    0.139
        21  -8.8419    237.6686    242.3098   1.0131638387e+02  -2.5591703638e+00   0.09156008   0.07162677  49.78  0.000315599    1.670    0.401
        22 -10.3458    234.3320     37.7000   5.8623092726e+01   2.1554378467e+01    0.6254343    0.3952881 -80.55    0.0010752    2.161    0.537
        23 -11.0377    233.5287     75.8405   6.9115613205e+01   1.7051879332e+01    0.5903327    0.4436111 -13.61 0.0003029247    1.295    0.228
        24 -11.9161    245.0239    238.8848   9.9781247092e+01  -3.3356196756e+00    0.1962716    0.1484243  23.53 0.0004187946    1.136    0.120
        25  -8.9126    174.0823    144.5089   9.6190337897e+01   1.9933550314e+01    0.2087731    0.1232586  46.91 0.0007822113    1.544    0.352
        26  -8.1667    104.6987    144.0683   1.1066549786e+02   3.2675811713e+01    0.1596738    0.1462905  86.81 0.0002589007    1.063    0.060
        27  -8.0581    153.7911    137.0061   9.8791776036e+01   2.5210515793e+01    0.1730068    0.1106519 -44.36 0.0004836041    1.688    0.408
        28  -8.4404    211.4837    136.4606   8.7509945522e+01   1.3555247100e+01    0.1379903    0.1205644  21.81 7.228366e-05    1.013    0.013
        29  -9.2638    169.9909    133.5008   9.4739850418e+01   2.2563221579e+01    0.1933616    0.1198632  69.40 0.0008097028    2.471    0.595
        30  -8.9720    223.1715    129.8238   8.4021865941e+01   1.2071015696e+01    0.1945504    0.1441045  18.98 0.0005398726    1.331    0.249
        31  -8.7146    160.5653    128.2494   9.5552341081e+01   2.5388514925e+01    0.2648318    0.1349666 -46.73  0.001144405    2.143    0.533
        32 -12.2179    179.7326     54.5874   7.1860473733e+01   3.3266495718e+01    0.6677105    0.4254403   6.61  0.002567944    2.174    0.540
        33 -12.4665    144.9765     42.0692   7.4746944448e+01   4.3868726741e+01       2.4612    0.9451849  68.26   0.00635587    5.448    0.816
        34  -8.0681    170.4977    126.5996   9.3142801041e+01   2.3618633248e+01    0.1413263    0.1276745  32.81 -0.0004892075    1.052    0.049
        35  -9.2813    227.8815    123.7807   8.1866483138e+01   1.1907835904e+01    0.2405104    0.1955622  70.60  0.001161675    1.654    0.395
        36  -8.6641    205.5891    121.8298   8.5293784008e+01   1.6892192565e+01    0.1879735     0.128995 -42.80 0.0004074574    1.638    0.390
        37 -11.1539    197.0798    119.7310   8.6373291159e+01   1.9044548037e+01    0.4380614    0.3818212 -67.02  0.002425174    1.462    0.316
        38  -9.6865    200.0616    116.2973   8.5008921927e+01   1.8918561348e+01    0.2451136    0.1970262 -10.66  0.001050663    1.295    0.228
        39  -9.3097    216.1885    115.4746   8.1922003386e+01   1.5525056074e+01    0.3226938    0.2091728   6.81   0.00147787    1.946    0.486
        40 -10.3009    167.6880    113.6324   9.0745348224e+01   2.6436521077e+01     0.398176    0.3191489 -69.33  0.001308473    1.580    0.367
        41 -10.5899     67.5718    144.3896   1.1891858314e+02   3.7913655869e+01    0.5104903    0.2682741  58.75  0.001785064    1.929    0.482
        42 -10.5328    204.5702    110.4128   8.2765549731e+01   1.8811069932e+01    0.4885882    0.2281455  42.08  0.001802899    2.103    0.525
        43 -10.3193    192.7331    108.5213   8.4500894353e+01   2.1745977034e+01    0.3331679    0.2283668 -60.26 0.0009928605    2.074    0.518
        44  -8.3597    143.6020    101.1773   9.2977821952e+01   3.3845815120e+01    0.2030595    0.1369118 -29.56 0.0006749819    1.695    0.410
        45  -8.0733     10.4399    235.3891   1.3542417807e+02   2.8222869620e+01    0.0875023    0.0574791  65.05 0.0001863227    1.046    0.044
        46  -9.2008    150.6050     95.4253   8.9902949918e+01   3.3412662332e+01    0.3012993    0.2422387  -0.32  0.000854862    1.524    0.344
        47 -11.9533    188.2408     90.5212   8.0718814454e+01   2.5632979154e+01     3.085245    0.6982335 -29.51  0.007181578    6.234    0.840
        48 -10.8108    249.8877     85.7239   6.9313878216e+01   1.2137485758e+01    0.6795965    0.2534418 -27.73  0.002649404    2.428    0.588
        49  -8.6365    135.9807     93.1611   9.2710406475e+01   3.6964137172e+01    0.2197029    0.1897569  86.72 0.0008022316    1.336    0.252
        50  -9.6791    160.0188     87.4842   8.5669503586e+01   3.2731187424e+01    0.4834793    0.2848599  23.54  0.001823088    2.640    0.621
        51 -10.4663    163.6743     85.0011   8.4187979105e+01   3.2320107426e+01    0.6035196     0.285259 -30.54  0.002279351    2.321    0.569
        52  -9.5514    202.1982    126.0245   8.6873633667e+01   1.6995580266e+01    0.2653748    0.2120935 -73.85  0.001027968    1.852    0.460
        53  -8.6319    177.8214     85.1978   8.1307539995e+01   2.8959116224e+01    0.2062692    0.2029848 -49.11 0.0003544519    1.090    0.082
        54  -9.9678    144.6221     84.0626   8.8191743966e+01   3.6815997183e+01    0.3329564    0.2701972 -39.31 0.0009090433    1.229    0.186
        55  -8.3331    202.8419     80.5878   7.5327874027e+01   2.3671121502e+01    0.2033468    0.1461191  71.29 0.0009361204    1.701    0.412
        56 -10.8633    160.4654     74.6330   8.1892982432e+01   3.4852086197e+01    0.3651525    0.2946286  -6.46  0.000822916    1.388    0.280
        57 -10.8799    197.3614     57.2867   6.9577483215e+01   2.8387546395e+01    0.4585472     0.403281  -1.85 0.0007542546    1.146    0.127
        58 -11.0391    208.3540     67.1512   7.0631578826e+01   2.4256330969e+01     1.459388    0.7053761 -63.21  0.003446161    7.272    0.862
        59 -11.6800    205.3726     56.7372   6.8104004271e+01   2.6433411796e+01     1.866016    0.7518624 -52.21  0.005300744    4.497    0.778
        60 -10.2062    248.7341    142.3313   8.2568963773e+01   5.4909308017e+00    0.3222078    0.2278589 -26.01  0.001640738    1.434    0.303
        61  -8.3685    192.2365    144.2471   9.2660464410e+01   1.6337722414e+01    0.1747099    0.1540033  65.94 0.0004102239    1.331    0.249
        62  -8.4479    119.7795     68.9935   8.9935536132e+01   4.4950101620e+01    0.1944182    0.1759594 -38.14            0    1.065    0.061
        63 -10.0608    248.7594     67.1577   6.4741391451e+01   1.4662809555e+01    0.3679518    0.2510463 -43.50  0.001864591    1.536    0.349
        64 -10.1662    186.8173     66.0023   7.4036858381e+01   2.9785789700e+01    0.3065183    0.2628368  16.33 0.0003605682    1.209    0.173
        65  -8.6213     90.8380     64.6938   9.6775649680e+01   5.1235166365e+01    0.3496294    0.1709256 -60.40   0.00133512    2.829    0.647
        66  -9.8821    244.4013     59.9434   6.3415459592e+01   1.6530058170e+01    0.3422704    0.2390587 -64.61  0.001658329    1.882    0.469
        67  -9.7782    144.4026     59.3336   8.0745551842e+01   4.1247119269e+01    0.3609873    0.2501333 -50.66 0.0007216076    1.606    0.377
        68  -7.8492    133.3111     60.6611   8.3836533919e+01   4.3567271668e+01    0.1516432    0.1172342 -70.47 0.0007045258    1.690    0.408
        69  -8.0920     72.6041     58.4810   1.0059626096e+02   5.5376953150e+01     0.132822    0.1153537 -48.51 0.0001359847    1.029    0.028
        70  -9.3421    248.6114     55.0492   6.1598648875e+01   1.6143864088e+01     0.341702    0.2557806 -15.64  0.001823377    1.269    0.212
        71  -7.8033    114.7061     56.6966   8.7364528647e+01   4.8284423039e+01    0.1440936    0.1119481   2.13 0.0006993838    1.576    0.365
        72  -8.8113    190.9281     52.6068   6.9249870751e+01   3.0681901951e+01    0.4495238    0.1603353 -42.53  0.001442504    3.079    0.675
        73  -8.4278     32.2424     52.3520   1.1287675434e+02   6.1377586767e+01    0.1992641    0.1281227 -78.61 0.0007230737    1.724    0.420
        74 -10.0658    247.9467     45.1265   5.9053594412e+01   1.7448415274e+01     0.463659    0.3343719 -15.60  0.002431438    1.342    0.255
        75 -10.3086    131.9500     46.5540   7.9384123669e+01   4.6267255063e+01    0.2629744    0.2131727 -30.89  0.000182014    1.200    0.166
        76  -9.3861    188.4651     42.4329   6.6487863485e+01   3.2697487664e+01    0.5647378    0.1727068 -35.76  0.001809519    3.002    0.667
        77  -9.5319    182.5846     34.3523   6.4853385984e+01   3.5281724472e+01    0.6533388    0.3843966 -79.97   0.00240372    2.817    0.645
        78  -8.0593    197.2639     43.6368   6.5444220361e+01   3.0249129625e+01    0.1572966    0.1094332 -53.45 0.0006985177    1.642    0.391
        79  -9.5765    241.9632     38.9525   5.8080063043e+01   1.9563451838e+01    0.2048312     0.190624 -28.51 0.0003094328    1.022    0.022
        80 -11.6318      2.6810    217.3717   1.3596350646e+02   3.1604633666e+01    0.6810513    0.2220339 -83.06  0.003652506    2.684    0.627
        81  -9.9924    157.5868    217.0268   1.1064893297e+02   1.2286881922e+01     0.197826    0.1483806  43.55  0.000370065    1.043    0.042
        82  -9.3630    243.4706     32.3769   5.6131088270e+01   1.9931414582e+01    0.6023896    0.2117954 -34.88  0.002295834    2.447    0.591
        83  -9.3074    201.8651     33.8393   6.1724863712e+01   3.0268858418e+01     0.449798    0.2148099 -39.55  0.001041376    2.084    0.520
        84  -8.7028     72.8767     33.8120   9.2026417911e+01   6.0107484958e+01    0.1781475    0.1513526 -55.45 0.0007223415    1.324    0.245
        85 -13.5272     26.1247    195.8923   1.3133248641e+02   3.2934368216e+01    0.9187998    0.7923173  57.55  0.004090612    1.404    0.288
        86 -10.1530    250.1050     26.9530   5.3997159952e+01   1.8934176546e+01    0.3051873    0.1916333 -38.59 0.0005693554    1.471    0.320
        87 -11.4107     35.0697    188.9897   1.2939051216e+02   3.3226070919e+01    0.3150443    0.2784676  56.77  0.001188573    1.405    0.288
        88 -13.2344     42.2089    181.6996   1.2761823685e+02   3.3764548070e+01    0.9259616     0.741628  50.39  0.004655759    1.331    0.249
        89 -11.1208     58.3490    166.7517   1.2329308652e+02   3.4694970196e+01     0.354957    0.2710431  48.05   0.00256644    1.314    0.239
        90  -8.1879    162.3107     28.0527   6.6235385066e+01   4.1404092639e+01      0.20391    0.1863403 -20.29 0.0003126996    1.095    0.087
        91  -9.6306    179.6275     24.0376   6.1898924299e+01   3.7311533081e+01    0.5246563    0.3457052  52.41  0.002427918    1.460    0.315
        92 -10.1040    108.4501     22.3416   7.6131190138e+01   5.5236045169e+01    0.2684214    0.1987938  -1.06   0.00118193    1.438    0.305
        93  -8.2574    200.0864     20.5331   5.7818287534e+01   3.2251459564e+01    0.2128015    0.1445052  69.97 0.0003837928    1.498    0.333
        94 -10.1519    131.0791     19.1400   6.9205565371e+01   5.0433413230e+01    0.2395087    0.1908583  25.15  0.001238634    1.254    0.203
        95  -9.3732      2.5793    178.7466   1.3452872162e+02   3.7981990179e+01    0.1411612   0.06650545  82.91 0.0009579434    1.675    0.403
        96  -9.2746    236.6578    174.7058   9.0865677588e+01   4.0075311016e+00    0.2295466    0.1436999  61.88  0.001157621    2.597    0.615
        97 -10.0765    250.2736    151.0780   8.4137126910e+01   4.2107532508e+00    0.3119963    0.1617735 -18.23  0.000755808    1.996    0.499
        98  -9.5365    249.6211    160.7852   8.6173431360e+01   3.2550738184e+00    0.2714977    0.2071981 -27.83  0.000289047    1.472    0.320
        99  -9.4142    250.0785    156.0105   8.5159912175e+01   3.6972093372e+00    0.2185846    0.1591658   6.40 0.0005319382    1.245    0.197
       100  -9.0840    106.0169    159.1345   1.1264995700e+02   2.9611030639e+01    0.1749138    0.1548912  65.93 0.0003307667    1.045    0.043
       101  -8.5205    171.9872    154.4887   9.8527198034e+01   1.8757260256e+01    0.1791713    0.1720154  20.33  0.001152975    1.097    0.088
       102  -9.6643    231.4444    151.8379   8.7311085078e+01   7.6119707268e+00    0.2668685    0.1593172  50.11  0.001010681    1.709    0.415
