#   1 NUMBER                 Running object number                                     
#   2 MAG_AUTO               Kron-like elliptical aperture magnitude                    [mag]
#   3 X_IMAGE                Object position along x                                    [pixel]
#   4 Y_IMAGE                Object position along y                                    [pixel]
#   5 X_WORLD                Barycenter position along world x axis                     [deg]
#   6 Y_WORLD                Barycenter position along world y axis                     [deg]
#   7 A_WORLD                Profile RMS along major axis (world units)                 [deg]
#   8 B_WORLD                Profile RMS along minor axis (world units)                 [deg]
#   9 THETA_WORLD            Position angle (CCW/world-x)                               [deg]
#  10 FWHM_WORLD             FWHM assuming a gaussian core                              [deg]
#  11 ELONGATION             A_IMAGE/B_IMAGE                                           
#  12 ELLIPTICITY            1 - B_IMAGE/A_IMAGE                                       
         1 -15.5584     45.7357    202.5321   1.2772831904e+02   2.9518729923e+01     10.56038     3.875396  71.62   0.05040574    3.493    0.714
         2 -13.0828    196.1288     33.3343   6.1381451084e+01   3.1829353181e+01     1.295784     1.098496  42.40  0.006387208    1.192    0.161
         3 -13.9400    210.3178     16.7168   5.4393576162e+01   2.9986525323e+01     1.837446     1.193935  23.20  0.008377609    1.898    0.473
         4 -11.4109      2.0556     13.2854   1.1371876480e+02   7.1619458801e+01    0.5111911    0.1474691 -63.78  0.002228499    3.033    0.670
         5 -10.2554    189.5011     15.5122   5.6614656603e+01   3.5628795915e+01    0.2932436    0.1425346  67.80 0.0007549443    2.033    0.508
         6 -10.3551    183.1289    249.7352   1.0952206862e+02   4.1268287834e+00    0.1816118    0.1203074  11.66  0.001251447    2.102    0.524
         7 -12.3622    137.6512    248.2983   1.1637679584e+02   1.0868285208e+01    0.5279175    0.2143356  50.24  0.003133311    1.890    0.471
         8 -12.3559     93.2439    249.3348   1.2327332997e+02   1.6736889681e+01    0.5625818    0.2686154  47.50   0.00391048    1.481    0.325
         9 -11.1701     94.9821    241.4808   1.2243502618e+02   1.7566006848e+01    0.2319816    0.1251187  74.35  0.001522737    2.131    0.531
        10 -11.5809     31.3568    249.2331   1.3235207808e+02   2.3861588162e+01    0.4442869    0.2337484  47.65  0.003562922    1.446    0.308
        11 -11.3898     39.5839    246.2844   1.3105277950e+02   2.3424880941e+01    0.5246524     0.260214  70.90  0.004009878    1.624    0.384
        12 -11.5474      3.4092    248.5360   1.3619131307e+02   2.6626085302e+01      0.46099    0.2065948  67.39  0.002036831    1.509    0.337
        13 -12.2446    106.4367    244.1893   1.2086437329e+02   1.5691875989e+01     0.405394    0.1788306  48.59  0.001973512    1.617    0.381
        14 -12.3068     14.7882    240.6658   1.3437713808e+02   2.6703173152e+01    0.6130968    0.2012488  57.33  0.003979656    1.993    0.498
        15 -10.9376     11.6587    232.2322   1.3453693324e+02   2.8235260728e+01     0.196584    0.1369937 -78.93  0.001791364    1.628    0.386
        16 -10.8215     54.8321    238.7710   1.2842602410e+02   2.2835509966e+01     0.229977    0.1455424 -78.69  0.001063636    1.689    0.408
        17  -9.7007      1.7857    237.7805   1.3611582345e+02   2.8307269436e+01    0.1499805   0.09216429  76.42  0.001368052    1.191    0.161
        18 -10.8032     21.4080    235.5851   1.3324227859e+02   2.6813210329e+01    0.1935615    0.1404509 -70.97  0.001264601    1.817    0.450
        19 -14.0515     10.3482    206.6843   1.3378597543e+02   3.2356123978e+01     1.524429    0.7069239  89.04  0.009160579    1.791    0.442
        20 -11.5792    198.1163    245.9125   1.0679506526e+02   2.3031207264e+00    0.2555964    0.1581846  43.61  0.001842789    1.230    0.187
        21 -13.8254     41.3935    216.4645   1.2928541557e+02   2.7709085425e+01    0.7674596    0.4904183  66.51  0.002698705    1.131    0.116
        22 -11.6029     61.1991    192.7150   1.2429807448e+02   2.9422558235e+01    0.2897672    0.2267644 -56.52   0.00130273    1.731    0.422
        23  -8.6599    181.5477    192.4509   1.0226508068e+02   1.1088330957e+01    0.1219024   0.09980486  39.97  0.000196983    1.021    0.021
        24 -11.7201     67.1652    185.5818   1.2259363792e+02   2.9950665207e+01    0.2256751    0.1983306 -77.51  0.000526276    1.350    0.259
        25 -11.7752    150.1540    228.9534   1.1242424280e+02   1.1417167738e+01    0.4321723     0.141372  44.52  0.002148443    2.285    0.562
        26 -10.9101     77.0793    173.7871   1.1953285190e+02   3.0821569854e+01    0.1994224    0.1747579  76.05 0.0003900353    1.140    0.122
        27 -13.2095     64.0295    171.1303   1.2184364543e+02   3.2988190870e+01    0.4023514    0.2429989 -49.67  0.001828478    2.259    0.557
        28  -9.9139    105.4917    173.4872   1.1385914508e+02   2.6815912902e+01    0.2307884   0.08921138  50.92   0.00103777    2.395    0.583
        29 -12.0451     84.9049    165.2006   1.1698362885e+02   3.1365288939e+01     0.801383    0.4366925  59.21  0.004411545    1.775    0.437
        30 -12.8130     67.4196    144.0420   1.1811368595e+02   3.7880825795e+01    0.8511403    0.4866481  78.33  0.002816075    2.014    0.504
        31 -12.0202     57.4731    131.4765   1.1878305302e+02   4.1709012925e+01      1.63114    0.4943867 -76.95  0.004274244    7.925    0.874
        32  -9.7898     97.7277    149.6979   1.1219242656e+02   3.2482493231e+01    0.2379366    0.2062742  81.37  0.000777284    1.042    0.040
        33  -9.0581    100.8257    145.4895   1.1087265820e+02   3.2831185236e+01    0.2257677    0.1648383 -35.06  0.001250868    1.922    0.480
        34 -12.1210     86.2264    148.6174   1.1455397107e+02   3.4405147824e+01    0.2423568    0.2161736 -61.79  0.000462823    1.274    0.215
        35 -12.6477     34.0902    225.3216   1.3089667362e+02   2.7090869240e+01    0.2515828    0.2003162  74.30 0.0007432487    1.258    0.205
        36  -9.0335     42.3437    231.4948   1.2993715014e+02   2.5283168474e+01    0.1377463    0.0749406 -83.21  0.000655695    1.788    0.441
        37  -9.3541    109.4722    135.5125   1.0727365635e+02   3.3414539809e+01    0.2736286    0.2014675 -12.56   0.00134995    2.423    0.587
        38 -10.5150     96.6121    132.4993   1.0971771572e+02   3.6110662594e+01    0.2278324    0.2108383 -28.88  0.001132055    1.369    0.270
        39 -10.8722    227.3126    203.2180   9.6277772794e+01   2.0720999918e+00    0.2834953    0.2170644 -54.37 0.0006178571    2.248    0.555
        40  -9.1142    106.7523    122.8283   1.0556608366e+02   3.6446756516e+01    0.1774795    0.1693245 -67.53 0.0003799184    1.108    0.098
        41 -10.2358    167.8582    112.8371   8.9499435475e+01   2.6356282382e+01    0.3487498    0.2763005 -85.85  0.001309357    1.700    0.412
        42  -9.2338    204.4167    111.0255   8.1910487507e+01   1.8542680254e+01    0.3429411     0.158346  36.05  0.001288445    2.528    0.604
        43 -10.1397    194.1695    197.1752   1.0080475059e+02   8.3048012966e+00    0.2699885    0.1549639 -62.62  0.001165556    4.387    0.772
        44 -11.4873    242.6212     93.1006   7.1173788054e+01   1.2628329275e+01    0.3113929    0.2311848   5.04  0.001634995    1.405    0.288
        45  -9.0419     13.3644     61.2349   1.2060052222e+02   6.1041449210e+01      0.16928   0.08927284 -76.93 0.0009529801    1.674    0.403
        46 -11.2180    172.2423    247.6164   1.1095841610e+02   5.9425586328e+00    0.2464146    0.1808278 -46.17  0.001953339    1.922    0.480
        47 -10.4400    162.0043    249.3001   1.1271387987e+02   7.2556492186e+00     0.156299    0.1033603  43.92  0.001162773    1.074    0.069
        48 -11.6702    125.4780    244.9929   1.1796805859e+02   1.2985041089e+01    0.2637094    0.1876657 -76.63  0.001539073    1.822    0.451
