#   1 NUMBER                 Running object number                                     
#   2 MAG_AUTO               Kron-like elliptical aperture magnitude                    [mag]
#   3 X_IMAGE                Object position along x                                    [pixel]
#   4 Y_IMAGE                Object position along y                                    [pixel]
#   5 X_WORLD                Barycenter position along world x axis                     [deg]
#   6 Y_WORLD                Barycenter position along world y axis                     [deg]
#   7 A_WORLD                Profile RMS along major axis (world units)                 [deg]
#   8 B_WORLD                Profile RMS along minor axis (world units)                 [deg]
#   9 THETA_WORLD            Position angle (CCW/world-x)                               [deg]
#  10 FWHM_WORLD             FWHM assuming a gaussian core                              [deg]
#  11 ELONGATION             A_IMAGE/B_IMAGE                                           
#  12 ELLIPTICITY            1 - B_IMAGE/A_IMAGE                                       
         1 -13.1995    236.4433     11.5737   3.4575291254e+02   2.8054137220e+01     2.452628     1.357285 -73.54   0.01618875    1.641    0.391
         2  -8.7237    193.0318    249.4209   3.6320534790e+01  -1.6816410276e-01    0.3244951    0.1346387  11.90  0.001585567    2.854    0.650
         3 -16.1550    223.8004    192.0328   2.2505031415e+01   4.6826862250e+00     3.039232     2.300416 -88.66   0.01388198    5.425    0.816
         4 -16.9454    237.6988    184.3259   1.9135527581e+01   4.2634543630e+00     5.917392     3.491816 -62.23   0.01791959   10.856    0.908
         5 -16.2162    224.7739    120.7478   9.2864080324e+00   1.5441326982e+01     1.780215     1.011533  57.17   0.00989763    2.435    0.589
         6 -15.9278    231.1650    111.5443   6.6459909930e+00   1.5887661883e+01     1.379646    0.9223559  70.22  0.008328428    2.238    0.553
         7 -15.4016    246.4913    169.0936   1.5334164341e+01   5.4381816561e+00    0.5408394    0.3907565 -52.35  0.003683382    1.874    0.466
         8 -18.7167    244.5657    146.7287   1.1650724569e+01   8.8489205090e+00     6.216835     3.477452 -33.65   0.03863354    1.365    0.267
         9  -8.5806      5.0130    231.9071   7.5647427723e+01   2.2457685708e+01     0.181605    0.1463185  50.69 0.0004977713    1.028    0.027
        10  -8.3703    177.3289    230.9418   3.6649586278e+01   4.0320768033e+00    0.1609659    0.1273143 -15.60  0.000614757    1.125    0.111
        11  -7.5207    165.4888    229.4566   3.8727877795e+01   5.5700593080e+00    0.1214282   0.09500245  -0.86 6.037884e-05    1.052    0.050
        12 -15.8542    248.3422    118.9911   6.0837017311e+00   1.2354849054e+01     1.080628    0.3474013 -37.89  0.005097583    2.314    0.568
        13  -9.1404    222.1139    249.9655   3.1507793647e+01  -2.8665629031e+00    0.1981439    0.1135591  21.23  0.001414633    1.607    0.378
        14  -8.1573    174.6357    223.5925   3.6105817888e+01   5.4542068471e+00    0.2702745    0.1360001 -48.81  0.001424997    2.315    0.568
        15  -8.1453    167.2470    223.8931   3.7589487581e+01   6.2502678578e+00    0.1853802    0.1442326  20.10 0.0003938591    1.208    0.172
        16  -9.4922    181.7265    219.2957   3.4120092477e+01   5.3184970493e+00    0.3615397      0.20242  26.12  0.001811637    1.676    0.403
        17  -8.9457    177.5977    213.3294   3.3998472652e+01   6.7344143566e+00    0.3239966    0.2357344  52.27  0.001883395    2.252    0.556
        18  -9.5890    185.2620    214.3964   3.2714112263e+01   5.6751794558e+00    0.3413473    0.2634083  44.51  0.001613125    1.851    0.460
        19  -8.0215    159.3758    215.7768   3.7984314174e+01   8.5155732544e+00    0.1761736    0.1253167  -7.09 0.0002996831    1.361    0.265
        20  -7.7191    162.5023    213.4821   3.7003309704e+01   8.5220167210e+00    0.1921212    0.1074035  15.44 0.0007657699    1.843    0.457
        21  -8.8981    149.4573    201.9291   3.7960552597e+01   1.2217808114e+01    0.3425522     0.158118 -53.68  0.001081959    2.552    0.608
        22  -9.6363    160.7015    199.4580   3.5186028475e+01   1.1184252749e+01    0.4027382    0.1832818 -37.77  0.001389322    2.185    0.542
        23  -8.5874    196.9556    247.3614   3.5355915882e+01  -2.6997427384e-01    0.1663446     0.139284 -23.36 0.0005334213    1.415    0.293
        24  -9.2425    144.9907    194.6272   3.7777333709e+01   1.4190175161e+01    0.3145359    0.2080504   4.66  0.001614332    1.720    0.418
        25  -7.6183    138.4967    198.5373   3.9852608235e+01   1.4327128858e+01    0.1322273     0.118015   4.65 0.0001390148    1.016    0.016
        26  -7.1105    133.3092    198.3513   4.1006942916e+01   1.5070123648e+01    0.1408636   0.09546063 -15.07 5.528706e-05    1.717    0.417
        27  -8.5797    130.3335    190.5272   4.0470815051e+01   1.7049125317e+01    0.2299067    0.2118895  31.51 0.0003648101    1.142    0.124
        28  -8.5415    148.2902    187.6816   3.5900681960e+01   1.5064578062e+01    0.2226598    0.1843928 -35.59 0.0006317663    1.185    0.156
        29  -9.2593    134.7199    184.6719   3.8480883830e+01   1.7612884539e+01    0.5144852    0.2049164 -54.88  0.001864815    2.848    0.649
        30  -8.3899    186.0376    243.7054   3.6804144499e+01   1.2862422406e+00    0.2217641    0.1668164 -42.55 0.0008376515    1.676    0.403
        31 -12.0400    150.2422    178.3513   3.3855767503e+01   1.6600199351e+01    0.4813139    0.3066813 -24.69 0.0005636811    1.759    0.431
        32 -10.0014    156.3338    169.5139   3.0918225469e+01   1.7418660356e+01    0.4603511    0.3201509 -56.76  0.001136683    1.675    0.403
        33 -10.0364    159.9217    165.3911   2.9375081970e+01   1.7671698957e+01    0.2655037     0.238038 -21.60 0.0001828737    1.018    0.018
        34 -10.0404    163.0334    176.2884   3.0741360559e+01   1.5116519214e+01    0.4684818    0.2929558 -53.34  0.002139571    1.813    0.448
        35  -9.3434    159.4890    176.0022   3.1434217921e+01   1.5690500686e+01    0.3436465    0.2223591 -22.57   0.00120639    1.705    0.414
        36  -8.2126    122.1490    176.3131   4.0103344891e+01   2.1241596001e+01     0.223557    0.1812824 -33.30 0.0003829546    1.251    0.201
        37  -9.5907    142.7705    171.7250   3.4346879456e+01   1.9057613089e+01    0.3615184    0.2689177 -16.20  0.001571108    1.479    0.324
        38  -9.2850    147.1677    162.3612   3.1589297469e+01   2.0287190565e+01    0.2995366    0.1828344 -46.15 0.0006581608    1.585    0.369
        39 -10.1855    153.3108    160.8090   2.9919972386e+01   1.9618437835e+01    0.4370389    0.2721282 -53.72  0.002105535    1.737    0.424
        40  -9.6810    156.0961    150.6170   2.7283657026e+01   2.1211959358e+01     0.515348     0.242389 -55.74  0.001998642    2.659    0.624
        41  -8.9290    148.0064    150.4996   2.9046997419e+01   2.2596082267e+01     0.225325    0.1748768 -43.49 0.0005185613    1.229    0.186
        42  -9.5610    162.0851    149.5404   2.5792537643e+01   2.0428785387e+01    0.2731785    0.2614189  46.41 0.0006135288    1.198    0.165
        43 -10.0698    132.9943    147.9947   3.2069450070e+01   2.5700747337e+01    0.5843757    0.2160532 -45.45  0.002080685    2.628    0.619
        44  -8.4367    137.7945    146.6812   3.0633887118e+01   2.5154862419e+01    0.2776124     0.176356 -59.52  0.001248566    1.808    0.447
        45  -8.9324    168.0998    149.0983   2.4469464979e+01   1.9522453682e+01    0.3101479    0.2536419 -73.44  0.001536117    1.639    0.390
        46  -8.8484    163.0018    144.4935   2.4559357901e+01   2.1266825983e+01    0.2632032    0.1773906 -28.89 0.0005855716    1.536    0.349
        47  -9.0255    154.9878    137.3891   2.4739311511e+01   2.4075066317e+01    0.2822619    0.1919392 -44.04 0.0001238938    1.373    0.271
        48 -17.0613    235.3887    126.9329   9.1305771236e+00   1.2967415125e+01     3.428081     1.698365  22.11   0.01222193    6.507    0.846
        49  -9.1780    137.1286    138.2941   2.9007966044e+01   2.7087071517e+01    0.2389105    0.1929585   8.89  0.001214528    1.446    0.308
        50  -8.1253    146.7360    137.0643   2.6494497512e+01   2.5617323427e+01     0.207192    0.1928295 -73.76 0.0003138432    1.194    0.163
        51 -10.1355    142.7393    135.7349   2.7120468747e+01   2.6620040747e+01    0.2740703    0.2516603  48.11 0.0002491325    1.169    0.144
        52 -10.1103    193.0703    230.9387   3.3751706171e+01   2.3625933543e+00     0.348779    0.2410681 -28.28  0.001053828    1.311    0.237
        53  -8.1231    127.7169    149.2838   3.3646850812e+01   2.6324736255e+01    0.2510923    0.1708717  38.01  0.001194275    1.489    0.329
        54  -7.7752    137.2899    126.6469   2.6353591631e+01   2.9575203485e+01    0.1493722    0.1169285 -82.65 0.0004274782    1.675    0.403
        55  -8.9714    144.3426    125.2865   2.4388624961e+01   2.8526344883e+01    0.2587421    0.1815863  32.18  0.001241687    1.604    0.377
        56  -7.1023    109.6561    123.2933   3.2804343653e+01   3.5582855739e+01    0.1570977    0.1206742  75.99 0.0007029459    1.661    0.398
        57  -8.5775    145.8104    117.7808   2.2287633584e+01   2.9803933184e+01    0.2475227    0.1627522  -6.06 0.0009548071    2.832    0.647
        58  -9.1731    139.7695    115.8637   2.3205182777e+01   3.1389781440e+01     0.274865    0.2121287  71.93  0.001338474    1.614    0.380
        59  -9.7845    134.7884    115.1285   2.4206689770e+01   3.2533338084e+01    0.3179844    0.2647685 -43.15 0.0003156172    1.154    0.133
        60  -7.6907    149.6335    106.7034   1.8740767269e+01   3.1286347493e+01    0.1460466    0.1154849   3.26 0.0007030964    1.723    0.420
        61  -7.9834    166.6120    101.7578   1.4145159645e+01   2.8823008758e+01    0.2787661    0.1619549 -43.91 0.0008769186    1.551    0.355
        62  -8.0457    169.7690    100.9521   1.3374255546e+01   2.8345276993e+01     0.209134     0.188568  57.76 0.0004426405    1.227    0.185
        63  -8.5818    158.7379    101.0945   1.5478456204e+01   3.0527743971e+01     0.239621    0.2127114 -56.64 0.0006536354    1.067    0.062
        64  -7.4222    149.9973    100.0355   1.6978635572e+01   3.2522153234e+01     0.236742    0.1741765 -77.83  0.001125741    1.741    0.426
        65  -7.7632     68.7053    100.6548   4.0692431315e+01   4.8613937654e+01     0.160746    0.1188017 -25.47 0.0004553625    1.667    0.400
        66 -10.7070    193.7027    222.9161   3.2462497286e+01   3.4540091749e+00    0.5119219    0.2678011  17.56  0.002931492    1.866    0.464
        67  -9.1310    199.3505    239.1001   3.3802728267e+01   6.0006363685e-01    0.3474105    0.1526707 -40.87   0.00197714    2.245    0.555
        68  -7.7391    142.0000     93.9845   1.7106316615e+01   3.5383885701e+01    0.2861523    0.1725476 -35.04 0.0005429992    1.750    0.429
        69  -9.7462    142.1158     89.3890   1.5842302512e+01   3.6250081191e+01     0.303084    0.2412194 -46.00 0.0002725048    1.188    0.158
        70 -15.3163    245.1450    183.1875   1.7893314693e+01   3.6296649515e+00    0.6547493    0.5450286 -59.82  0.004752551    2.061    0.515
        71  -8.8711    169.3342     90.5463   1.0887808516e+01   3.0296430699e+01    0.3084536    0.1635197 -34.71  0.001336994    1.882    0.469
        72  -8.2203    181.4546     89.6492   8.6764722256e+00   2.8019679805e+01    0.3573214     0.223285 -80.71  0.001595072    2.526    0.604
        73  -8.2982    153.6778     82.9606   1.1759602975e+01   3.4940488611e+01    0.2500784    0.2066794  73.03  0.000374939    1.288    0.223
        74  -8.8199    157.5016     81.4448   1.0641251779e+01   3.4384573220e+01    0.3423637    0.2127728 -37.66  0.001097584    1.550    0.355
        75  -8.2285    142.9511     78.6261   1.2684572052e+01   3.8079952020e+01    0.2272294    0.1934867 -31.82 0.0004601957    1.257    0.204
        76  -8.3731    114.0309     76.3380   1.8760320975e+01   4.5024252948e+01    0.2716096    0.2072025 -52.70 0.0005189251    1.303    0.232
        77  -8.3292    175.5595     74.4173   5.8110252903e+00   3.1735939678e+01    0.2391954    0.2160418 -32.93 0.0008626716    1.198    0.165
        78  -7.8918    179.9786     72.4731   4.6720821137e+00   3.1129756137e+01    0.1933774    0.1566313 -47.08 -6.588714e-06    1.088    0.081
        79  -8.7119    213.0826     70.8465   1.6455514816e-01   2.4937932959e+01    0.1793394    0.1456956 -51.10 0.0003808532    1.019    0.019
        80  -7.1622    201.0000     70.9473   1.5585138267e+00   2.7178947433e+01    0.2089867   0.06249156 -36.48 0.0007880519    2.844    0.648
        81  -9.0523    231.1263     69.5020   3.5806143781e+02   2.1968477324e+01    0.2115364    0.1874443 -79.33 0.0008828005    1.265    0.209
        82  -8.0327    227.5255     68.5249   3.5819618977e+02   2.2713579343e+01    0.2426521    0.1435492 -54.50  0.001438624    1.480    0.324
        83  -8.1220    209.1940     68.2150   3.5999831696e+02   2.6031866071e+01    0.1724048    0.1408847 -50.58 0.0004155497    1.019    0.018
        84 -11.4045    202.1370    231.7306   3.2271126855e+01   1.3293069991e+00    0.3044261    0.2303819 -13.90 0.0007749559    1.087    0.080
        85  -8.4567    194.1174    238.8937   3.4693060632e+01   1.1439089382e+00    0.1558811    0.1298075  -3.25  0.000513727    1.221    0.181
        86  -9.4339    218.4399     62.3087   3.5773316551e+02   2.5166946417e+01    0.2425654    0.1767052 -35.73  0.001022104    1.267    0.210
        87  -8.4823    123.0201    234.1971   4.8236535643e+01   9.6881326629e+00    0.1856643    0.1678546 -12.94 0.0003425381    1.161    0.139
        88  -7.8210    192.1080     60.1201   4.1525406476e-02   3.0516147069e+01    0.1730663    0.1273375 -64.62  0.001015824    1.268    0.212
        89  -7.8116    234.1311     56.3491   3.5506853857e+02   2.3212762486e+01    0.2026703    0.1246085 -33.55  0.000611809    1.459    0.315
        90  -8.5819    226.5943     55.8381   3.5559207898e+02   2.4582225271e+01    0.3867252    0.1178769 -48.75  0.001675728    2.702    0.630
        91  -7.8914    184.8874     55.6293   3.5979324076e+02   3.2645904590e+01    0.1710929     0.143178 -79.14 0.0003151293    1.153    0.133
        92  -8.0748    215.5395     54.5788   3.5630384437e+02   2.6745079221e+01    0.2480395     0.157378 -59.94  0.001487338    1.418    0.295
        93  -8.5155    248.3889     51.5936   3.5303104814e+02   2.1464476640e+01    0.2153477    0.1573487 -41.31  0.001141618    1.145    0.126
        94  -9.0362    235.9604     50.4180   3.5370180554e+02   2.3660208797e+01    0.3682269    0.1641867 -48.45  0.002049558    1.707    0.414
