#   1 NUMBER                 Running object number                                     
#   2 MAG_AUTO               Kron-like elliptical aperture magnitude                    [mag]
#   3 X_IMAGE                Object position along x                                    [pixel]
#   4 Y_IMAGE                Object position along y                                    [pixel]
#   5 X_WORLD                Barycenter position along world x axis                     [deg]
#   6 Y_WORLD                Barycenter position along world y axis                     [deg]
#   7 A_WORLD                Profile RMS along major axis (world units)                 [deg]
#   8 B_WORLD                Profile RMS along minor axis (world units)                 [deg]
#   9 THETA_WORLD            Position angle (CCW/world-x)                               [deg]
#  10 FWHM_WORLD             FWHM assuming a gaussian core                              [deg]
#  11 ELONGATION             A_IMAGE/B_IMAGE                                           
#  12 ELLIPTICITY            1 - B_IMAGE/A_IMAGE                                       
         1 -13.7104    228.2212      3.7212   3.6353894579e+01   2.7454071039e+01     1.785678    0.8204235  56.62  0.006358372    2.326    0.570
         2 -13.9830    184.7314     46.7251   5.2761876720e+01   3.2931139467e+01     1.220945     1.032975  12.19 0.0009477354    1.417    0.294
         3 -14.1339    195.2384     38.4193   4.8796556125e+01   3.1405094864e+01     1.474019      1.17378 -32.37  0.003958878    1.297    0.229
         4 -14.6913    204.4043     28.3626   4.4848772136e+01   3.0393393307e+01     1.738206     1.340858  35.12  0.001476326    1.596    0.373
         5 -11.8989     32.5220     14.0125   8.4286424749e+01   6.9469127294e+01    0.4034373   0.09499327 -38.06  0.001519001    3.702    0.730
         6 -11.9706     59.8318      3.0613   6.6689612498e+01   6.6858677186e+01    0.4220379    0.1894117  45.43  0.002098152    2.094    0.522
         7 -11.6315     31.2231      3.1105   7.9317767122e+01   7.1127445968e+01    0.2628798    0.1656925   4.80  0.001631571    1.465    0.317
         8 -11.3370    175.5468    213.2077   9.4764828153e+01   4.3363465882e+00    0.2672208    0.1688463  37.90  0.000876957    1.376    0.273
         9 -13.7804     60.2266    189.0408   1.1616715143e+02   2.7778093140e+01     1.296134     1.028171 -82.94  0.007141437    1.148    0.129
        10 -14.2165     47.3475    221.9283   1.2175750173e+02   2.2532935790e+01     1.865859    0.8922207  87.58  0.009823853    2.236    0.553
        11 -16.2969     50.7413    202.1564   1.1946424503e+02   2.6137231295e+01     11.87906     2.123698  48.31   0.03968243    4.680    0.786
        12 -13.8196     73.5681    156.3311   1.0877827523e+02   3.3520330467e+01    0.6356638    0.5461885 -40.73  0.001593127    1.367    0.268
        13  -9.3911     29.7346    210.9125   1.2428243407e+02   2.6724993760e+01    0.1468169    0.1090878  76.20 0.0001758639    1.026    0.025
        14 -11.1147    113.5724    207.7681   1.0689281306e+02   1.5956794215e+01    0.3303707     0.222808  66.85   0.00129361    1.624    0.384
        15 -11.9076    207.7514    195.0190   8.5078478927e+01   1.6425389609e+00    0.4112394    0.3230041   2.68  0.001932671    1.230    0.187
        16 -12.1470    194.1407    196.4108   8.8041476471e+01   3.8355005925e+00     1.240752    0.7886819 -66.92  0.005049887    3.473    0.712
        17 -11.8313    204.5009    199.5078   8.6561224851e+01   1.4973435470e+00    0.4273584    0.2693734  35.10  0.001863339    1.439    0.305
        18 -11.6497    107.8153    203.0696   1.0749327575e+02   1.7830840267e+01     0.450357    0.2251353  51.63  0.002076949    1.920    0.479
        19 -11.3647    112.1099    197.2028   1.0573882001e+02   1.8330307695e+01    0.3277074    0.2997071 -10.82  0.001989811    1.393    0.282
        20  -9.8291     81.9056    194.9188   1.1208975011e+02   2.3524281173e+01    0.2006875    0.1737797  70.73 0.0007021022    1.016    0.016
        21  -8.8213     97.2759    191.2727   1.0820487284e+02   2.1979185651e+01    0.1185905    0.1065973 -15.68            0    1.488    0.328
        22  -9.9707     94.9718    187.8946   1.0825703927e+02   2.3072100144e+01    0.2616307    0.2164484  75.27 0.0007617876    1.144    0.126
        23 -10.4677    152.3903    197.0867   9.6899611852e+01   1.1314489317e+01    0.2549036    0.2496331  89.50  0.001576524    1.135    0.119
        24 -10.3193     73.7028    188.4227   1.1311788933e+02   2.6108291758e+01    0.2535469     0.182814  72.14 0.0006018662    1.318    0.241
        25 -10.9497     98.9809    181.3344   1.0638920460e+02   2.3877457823e+01    0.3978458    0.2866474 -36.86  0.001782547    1.820    0.451
        26 -10.9253    146.1195    182.5420   9.5733851181e+01   1.5323606431e+01     0.312521    0.2452428  37.88 0.0007303851    1.199    0.166
        27 -16.6409      2.2051    107.3131   1.2147096354e+02   5.2324588940e+01     15.99194    0.9276742 -72.81   0.03044084   12.898    0.922
        28  -9.2375     42.6185    179.2424   1.1903261741e+02   3.2084721622e+01    0.1628543     0.100479 -66.63 0.0002589577    1.500    0.333
        29 -11.7493    141.2692    174.3637   9.5334633892e+01   1.7927863730e+01    0.6135015    0.4371381  85.69  0.002164234    2.087    0.521
        30 -10.2678    204.4812    176.0473   8.1962537240e+01   5.3938244218e+00    0.4079737    0.2188074 -52.22  0.001668472    2.631    0.620
        31  -9.3052    197.4259    176.8543   8.3551076510e+01   6.5876746433e+00    0.2429505    0.1604898  33.86  0.001189887    1.449    0.310
        32 -12.2338     73.2596    174.7909   1.1149575402e+02   2.9237021783e+01    0.3984236    0.2797085 -37.60  0.002071104    1.960    0.490
        33 -12.1817     77.1016    170.0912   1.0993537695e+02   2.9776067676e+01    0.3445847    0.2701958 -41.17 0.0008321453    1.569    0.363
        34 -14.3464     86.1612    225.8275   1.1463620135e+02   1.6655746067e+01     1.592797     1.101741 -52.26  0.004936267    1.815    0.449
        35  -9.5619    188.5156    175.0646   8.5024447865e+01   8.6197170022e+00    0.2108477    0.1407751 -39.94 0.0004691064    1.553    0.356
        36 -10.9657     47.4820    172.4459   1.1722624787e+02   3.3074364638e+01    0.4090873    0.2260452 -58.17  0.001057541    1.785    0.440
        37 -10.1695     54.5203    164.4901   1.1463818448e+02   3.4085282292e+01    0.2519675    0.1683303 -71.51 0.0007865481    1.338    0.253
        38 -10.8134     52.4709    172.0411   1.1602628775e+02   3.2577888509e+01    0.3360854    0.2334534 -88.06 0.0009848222    1.312    0.238
        39  -9.6533     53.2917    167.3622   1.1528346601e+02   3.3562869402e+01    0.2014953    0.1628439  38.94 0.0006583341    1.377    0.274
        40 -10.6428    230.2945    166.2961   7.4972069603e+01   2.2519672015e+00    0.2674802    0.1547263 -51.51  0.001023339    2.464    0.594
        41 -10.3941    159.6073    162.9924   8.8851102304e+01   1.6711339702e+01    0.3050572    0.2290827 -68.27  0.001433744    1.712    0.416
        42 -12.2687     91.5765    154.1337   1.0380389013e+02   3.1334127027e+01    0.6478359    0.4561939 -30.04  0.003066692    1.957    0.489
        43 -16.2372     42.6143    249.6560   1.2446499734e+02   1.7969225041e+01     7.835778     2.177363  30.36    0.0193794   13.154    0.924
        44 -11.5247    133.8131    144.8805   9.1145581839e+01   2.5845818829e+01     1.273507    0.3320728 -54.50  0.003036351    5.594    0.821
        45 -15.4472     10.7444    206.4501   1.2754413126e+02   2.9527985447e+01    0.6870642    0.4698696 -68.05  0.002978716    1.561    0.359
        46  -9.4179    139.4519    150.5051   9.0971564540e+01   2.3455367703e+01    0.1505391    0.1476607  67.53 0.0001100987    1.022    0.021
        47 -10.9295    174.2121    148.7694   8.2435186087e+01   1.6607430027e+01    0.3504007    0.3193789 -86.97  0.001375352    1.312    0.238
        48 -10.5314    143.8448    145.5643   8.8812107061e+01   2.3657445070e+01    0.3195422     0.209052 -65.00  0.001330422    1.951    0.487
        49 -10.6997     86.0667    145.1813   1.0364865245e+02   3.4348718021e+01    0.3198264    0.2265499  64.77 0.0008265394    1.582    0.368
        50 -12.3273     92.1448    139.4774   1.0093458647e+02   3.4756746669e+01    0.2763343    0.2519553 -45.54 0.0004137519    1.149    0.129
        51 -11.2811    104.4703    139.4222   9.7597845754e+01   3.2673151774e+01    0.5684721    0.3471504 -31.92  0.002321119    2.254    0.556
        52 -11.3968    135.7423    127.7953   8.6692353833e+01   2.9317224502e+01    0.7493116    0.1991371 -49.29  0.002021389    3.976    0.748
        53 -11.7688    119.0344    124.2892   9.0256140458e+01   3.3523664166e+01    0.9008934    0.4187366 -35.69  0.003023842    2.858    0.650
        54 -10.6583    113.0862    129.9484   9.3202896530e+01   3.3345696005e+01    0.3522975    0.2977936  -3.52  0.001507015    1.453    0.312
        55 -10.3602    160.8027    127.7521   8.0496295580e+01   2.3893622271e+01    0.3642262    0.2619815 -53.58  0.001626887    1.499    0.333
        56 -11.2744     99.9056    126.4292   9.6045256933e+01   3.6584722486e+01    0.4746517    0.3125784 -20.65  0.001835819    2.379    0.580
        57 -10.7993    106.0019    130.8178   9.5333001685e+01   3.4449767266e+01     0.360305    0.3099734 -72.55  0.001159401    1.192    0.161
        58 -10.1429    108.9021    119.0046   9.1773609361e+01   3.6712176182e+01    0.2195896    0.2130731 -49.82 0.0003612146    1.014    0.014
        59  -9.8988    167.5757    112.4117   7.4961655174e+01   2.5555117509e+01    0.3464061    0.2500216 -75.07  0.001425788    2.025    0.506
        60 -11.7906    118.1727    109.8046   8.6828552540e+01   3.7033479283e+01    0.6175348    0.4590327  58.62  0.002765043    1.545    0.353
        61  -9.4858    101.5728    249.8167   1.1407952825e+02   1.0165615058e+01    0.1503819    0.1028922  89.24  0.000949827    1.704    0.413
        62 -10.5608    134.5998    105.8016   8.1276507805e+01   3.4459191371e+01    0.3956056    0.1533026 -45.86  0.001297765    2.562    0.610
        63 -10.2567    205.4446    110.0997   6.6483799851e+01   1.7232701550e+01    0.3199705    0.2298877  43.73 0.0009625978    1.461    0.315
        64 -17.6745      6.9789    240.1856   1.2982844512e+02   2.3463810398e+01     4.451828     1.638879 -73.31   0.02447549    2.490    0.598
        65 -11.0472     53.6509     92.3408   1.0240804921e+02   5.1595530510e+01    0.4715916    0.2465879 -70.18   0.00199451    2.307    0.567
        66  -9.4297    161.6861     89.0078   6.9792140940e+01   3.1623196388e+01    0.2220526    0.2024361 -38.87 0.0004526022    1.086    0.079
        67 -10.6133     38.5683     88.3499   1.0665384124e+02   5.4137543509e+01    0.2277658    0.1718533  12.21  0.001328806    1.590    0.371
        68  -9.9377    157.0088     81.0447   6.8509936503e+01   3.4275343692e+01    0.2399961    0.2373985 -43.09 0.0005564475    1.025    0.024
        69  -9.7760    184.5155     77.0673   6.1563474792e+01   2.8181199509e+01    0.2349652    0.1505924 -33.69 0.0005987418    1.550    0.355
        70 -10.3205     62.5053     69.1770   9.2954016858e+01   5.5679113595e+01    0.2469145    0.2262358 -23.54 0.0002745475    1.068    0.063
        71  -9.1625     94.1652    250.1983   1.1546781194e+02   1.1166467542e+01    0.1614416    0.1049455  58.72 0.0004761859    1.293    0.227
        72  -9.3721     72.0505    231.0800   1.1785085034e+02   1.7629956501e+01    0.1799902    0.1094439  69.46 0.0004405517    1.549    0.354
        73 -15.6091     68.5456    144.1820   1.0815556576e+02   3.7143857734e+01       6.6612     3.284744  64.53   0.02467626    3.226    0.690
        74 -10.3624     56.2085    224.0175   1.2025108993e+02   2.1039245512e+01    0.1808138    0.1260606  63.84 0.0002283348    1.151    0.131
        75 -11.1424    151.4548     54.7383   6.1529263950e+01   4.0208472854e+01    0.4233141    0.3009175 -80.96 0.0007391481    1.997    0.499
        76 -10.9315    153.4446     48.5260   5.9086542881e+01   4.0658531270e+01    0.3232742    0.2574249 -87.80 0.0006885979    1.503    0.335
        77 -14.6562     68.3640    242.7632   1.1950579799e+02   1.5988267293e+01     1.046658    0.5078022  58.61  0.005409406    1.790    0.441
        78  -9.2781     64.4269    222.4814   1.1855152594e+02   2.0284261352e+01    0.1976415    0.1441836  75.29 0.0002045712    1.180    0.153
        79  -9.9110    189.5297     14.9997   4.3011996924e+01   3.5649466564e+01    0.2074318    0.1749338  80.37 0.0005672977    1.079    0.074
        80  -9.2246     61.4738    220.4939   1.1894882165e+02   2.1056733298e+01    0.2086837     0.144233  59.63 0.0009808977    1.184    0.155
