#   1 NUMBER                 Running object number                                     
#   2 MAG_AUTO               Kron-like elliptical aperture magnitude                    [mag]
#   3 X_IMAGE                Object position along x                                    [pixel]
#   4 Y_IMAGE                Object position along y                                    [pixel]
#   5 X_WORLD                Barycenter position along world x axis                     [deg]
#   6 Y_WORLD                Barycenter position along world y axis                     [deg]
#   7 A_WORLD                Profile RMS along major axis (world units)                 [deg]
#   8 B_WORLD                Profile RMS along minor axis (world units)                 [deg]
#   9 THETA_WORLD            Position angle (CCW/world-x)                               [deg]
#  10 FWHM_WORLD             FWHM assuming a gaussian core                              [deg]
#  11 ELONGATION             A_IMAGE/B_IMAGE                                           
#  12 ELLIPTICITY            1 - B_IMAGE/A_IMAGE                                       
         1  -9.1203     75.0495     17.3318   9.4653274980e+01   6.5117084925e+01    0.2249359    0.1891853  -4.93 0.0004520321    1.209    0.173
         2  -8.7005    100.5093    247.9828   1.3719428714e+02   1.5040520707e+01    0.1287559    0.1061404 -84.36 0.0009859211    1.597    0.374
         3 -11.0912     78.9403    222.2245   1.3939597206e+02   2.1717159158e+01    0.5402113    0.2319363  50.68  0.001802196    1.862    0.463
         4 -11.9614     62.4214    214.0045   1.4219240243e+02   2.5167676582e+01      1.44933    0.4784271  57.25  0.006393517    3.118    0.679
         5 -10.1517    128.6561    205.7269   1.2749145560e+02   1.7334099864e+01    0.3338345    0.1643705  54.70  0.001600894    2.340    0.573
         6  -9.5147    177.3203    176.3463   1.1314090860e+02   1.3785639549e+01    0.1353082   0.09142474  10.79 0.0005093256    1.732    0.423
         7 -11.0442    150.1328    167.2630   1.1724127686e+02   2.0088833161e+01    0.3034441    0.2002854 -71.13  0.001423013    2.570    0.611
         8 -11.6616    182.4412    162.3895   1.0960471894e+02   1.4955135869e+01    0.3559732    0.2243193  47.13   0.00185419    1.552    0.356
         9  -9.4501    160.6599    170.6722   1.1556599694e+02   1.7621014465e+01    0.1381778   0.09681505  11.62 0.0007051574    1.735    0.424
        10 -11.4372    172.0370    158.6886   1.1100908761e+02   1.7462376572e+01    0.3179354    0.2194393  19.78  0.001651911    1.568    0.362
        11 -11.3935    180.4932    156.3931   1.0884561956e+02   1.6235702274e+01     0.409113    0.2346651  -1.74  0.001559514    3.463    0.711
        12 -10.3835    200.9980    157.1852   1.0505601676e+02   1.2325782676e+01    0.2011747    0.1551195  67.59  0.001087355    2.002    0.500
        13 -11.4588    158.9914    146.5026   1.1141384532e+02   2.2016776624e+01      0.38884    0.2162852  19.84  0.001456018    2.974    0.664
        14 -10.8253    167.6958    154.0075   1.1101688582e+02   1.9047722056e+01    0.1940122    0.1809978  11.55  0.001182329    1.093    0.085
        15  -9.8455    160.4748    154.4866   1.1265577765e+02   2.0348161126e+01    0.1403011    0.1223915  30.33 0.0001355146    1.021    0.021
        16 -12.9988    187.1071    144.2952   1.0509725208e+02   1.6847664723e+01    0.5797372    0.4707992  45.42  0.003321561    1.238    0.192
        17  -9.3050    136.3342    145.6636   1.1647120782e+02   2.6591066516e+01    0.1464296     0.108704  72.68 0.0007052016    1.742    0.426
        18 -13.0070    176.1814    140.1145   1.0641805944e+02   1.9680359206e+01    0.6593542    0.4213116  22.06  0.003081718    1.851    0.460
        19 -12.5344    156.8608    136.9935   1.0992311407e+02   2.4135550151e+01    0.4977428    0.3939852   5.08  0.002585596    1.500    0.333
        20 -12.9771    182.1262    124.5320   1.0175775991e+02   2.1019182460e+01    0.6399987    0.4530532  19.18  0.003131795    1.620    0.383
        21 -12.7803    156.7439    123.1996   1.0688580191e+02   2.6676543959e+01    0.5637845    0.4768566   0.55   0.00297617    1.336    0.252
        22 -12.3481    163.4448    128.4529   1.0658436509e+02   2.4301027227e+01    0.4578219    0.3632039  -3.82  0.002353649    1.486    0.327
        23 -12.2598    166.4629    121.7001   1.0437085092e+02   2.4853512428e+01    0.4893229    0.3403672 -31.39  0.002375704    1.549    0.354
        24 -10.5552    149.1895    111.9800   1.0596015367e+02   3.0430343522e+01    0.2357843    0.1653918  27.14  0.001062872    1.644    0.392
        25 -12.7137    183.1376    103.3947   9.6430142404e+01   2.4270949308e+01    0.8864951    0.3196122 -46.73  0.002815737    3.605    0.723
        26  -9.9876    130.2071    104.5626   1.0886123916e+02   3.6096440103e+01    0.3049783    0.1433794  50.10  0.001137029    2.103    0.524
        27 -12.0161    167.4136     99.6887   9.8677487808e+01   2.8525027646e+01    0.5967295    0.3038234 -23.27  0.002145438    2.764    0.638
        28 -10.8246    145.2772    101.5903   1.0424613069e+02   3.3308713063e+01    0.2718738     0.198386 -14.99  0.001210372    1.800    0.444
        29 -10.3591    139.5957    101.1846   1.0554970476e+02   3.4682865259e+01    0.2203805    0.1482549 -29.66 0.0009579351    1.742    0.426
        30 -11.7922    151.9851     96.4645   1.0126444112e+02   3.2726036590e+01    0.5442505    0.3428536 -85.68  0.001807236    3.582    0.721
        31 -12.7586    172.9509     87.8251   9.4311819988e+01   2.9245366137e+01    0.8146574    0.3243787  54.70   0.00287144    2.515    0.602
        32  -9.3918    180.6416     78.3179   9.0152937142e+01   2.8918044010e+01    0.1578333     0.116757 -71.47 0.0007044238    1.758    0.431
        33  -9.4381    191.3210     82.3217   8.9346303924e+01   2.5705911468e+01    0.1538537    0.1117399  19.48 0.0005669186    1.673    0.402
        34  -9.2124    140.2959     72.6491   9.7082832605e+01   3.9985959127e+01    0.1620665    0.1227817 -73.67 0.0007033585    1.683    0.406
        35  -9.5617    148.6683     66.6595   9.3187942234e+01   3.8930825869e+01    0.1654165    0.1213293  20.53  0.000705152    1.747    0.427
        36 -10.7550    163.4618     64.8555   8.9457585861e+01   3.5413000556e+01    0.3614622    0.1824344  55.11  0.001407647    1.911    0.477
        37  -8.8331    158.6557     62.6878   8.9750481136e+01   3.7010400444e+01    0.1639737    0.1182904  25.71 0.0007046419    1.706    0.414
        38  -9.4403    170.6599     53.3251   8.4459492011e+01   3.5299076947e+01    0.1637736    0.1144446 -66.67 -5.622345e-05    1.728    0.421
        39  -8.5572     84.8486     21.8061   9.3299534098e+01   6.2257032903e+01    0.1943422    0.1719727 -61.63 0.0006034159    1.318    0.241
