#   1 NUMBER                 Running object number                                     
#   2 MAG_AUTO               Kron-like elliptical aperture magnitude                    [mag]
#   3 X_IMAGE                Object position along x                                    [pixel]
#   4 Y_IMAGE                Object position along y                                    [pixel]
#   5 X_WORLD                Barycenter position along world x axis                     [deg]
#   6 Y_WORLD                Barycenter position along world y axis                     [deg]
#   7 A_WORLD                Profile RMS along major axis (world units)                 [deg]
#   8 B_WORLD                Profile RMS along minor axis (world units)                 [deg]
#   9 THETA_WORLD            Position angle (CCW/world-x)                               [deg]
#  10 FWHM_WORLD             FWHM assuming a gaussian core                              [deg]
#  11 ELONGATION             A_IMAGE/B_IMAGE                                           
#  12 ELLIPTICITY            1 - B_IMAGE/A_IMAGE                                       
         1 -13.0492     45.8315     26.8508   3.4952722182e+01   6.8658367346e+01    0.4970944    0.2666131 -43.86  0.002330039    2.082    0.520
         2 -12.3492     79.7760     18.6605   1.7084571156e+01   6.2583201670e+01    0.3081115    0.2342303  75.28 0.0009903319    1.466    0.318
         3 -12.3290    116.8871     15.8456   7.2928436949e+00   5.3625428800e+01    0.3608854    0.2048925 -17.85  0.001677335    2.084    0.520
         4 -12.7964    135.5522     11.6814   2.9215945859e+00   4.9211601871e+01    0.2464455    0.2178999  75.63 0.0004722149    1.065    0.061
         5 -11.5306     84.1703      8.7561   1.1040772283e+01   6.2515318023e+01    0.2364901    0.1290887 -62.61 0.0009696891    2.903    0.656
         6 -11.2899     92.2270      8.2266   8.9100297307e+00   6.0580969324e+01    0.1803765    0.1516927 -69.48 0.0006002521    1.330    0.248
         7 -11.1025     49.0818      8.4725   2.2569860582e+01   7.0460896341e+01    0.1925169    0.1146209  49.07 0.0008879431    1.523    0.344
         8 -12.1670     44.9572      7.6113   2.3897883434e+01   7.1380209420e+01    0.2160052    0.1772977 -10.00 0.0003410831    1.220    0.180
         9 -11.7472      7.5460      1.9967   4.4444376024e+01   7.8119366389e+01    0.1680992    0.1323317   1.54 5.683834e-05    1.061    0.057
        10 -11.4745    145.5860      1.3527   3.5832573155e+02   4.7555003753e+01    0.2254475    0.1112084  83.03  0.001041882    1.853    0.460
        11 -10.9802    129.0760      1.4445   1.4859658831e-01   5.1753015774e+01    0.2002658     0.115643  75.50 0.0003868388    1.512    0.339
        12 -10.1922     25.3249      1.6689   3.0547356038e+01   7.5625823011e+01    0.1071412    0.1001622 -71.02 0.0004568393    1.705    0.414
        13 -11.7341    109.0533    239.9521   6.5496622811e+01   9.3466937824e+00     0.195596    0.1606641  26.07 0.0005560516    1.091    0.084
        14 -11.7337    178.0684    247.6568   5.2216966866e+01  -1.0609340728e+00    0.2277763    0.2089565 -29.37  0.001687986    1.470    0.320
        15 -11.6436    181.4557    244.2329   5.1081650845e+01  -1.0035631697e+00    0.3104839    0.1584396  17.19  0.000708633    1.943    0.485
        16 -12.5150    139.4677    248.9162   6.0093537561e+01   3.7396444709e+00    0.2719183    0.2299772 -43.32  0.001324491    1.448    0.310
        17 -11.6979     84.5068    250.5386   7.1861747886e+01   1.0681269750e+01    0.2479801    0.0950349  33.77 0.0006238696    2.031    0.508
        18 -13.9282     62.9480    238.8871   7.5551121849e+01   1.5560313820e+01    0.9555857    0.4100581 -53.53  0.004521837    2.917    0.657
        19 -13.9301     72.5152    231.4674   7.2782272076e+01   1.5827999556e+01    0.5404289    0.3798043 -60.44  0.002109118    1.653    0.395
        20 -12.1406     54.3688    249.2563   7.8155666913e+01   1.4603024009e+01    0.3614303    0.1939631  20.97  0.001889331    2.146    0.534
        21 -13.3555     63.7608    246.1591   7.5937669543e+01   1.4066019046e+01    0.3828934    0.2715335 -17.58  0.002170052    2.327    0.570
        22 -14.0614     70.2470    243.9701   7.4366075860e+01   1.3682134879e+01    0.6859753    0.4374045 -49.01  0.003072747    2.038    0.509
        23 -14.3791     10.5087    189.5147   8.4528236858e+01   3.2180525552e+01     1.014479    0.4865867   5.40  0.004176419    3.643    0.726
        24 -15.2360      6.0683    183.4402   8.5328171539e+01   3.4032335674e+01     2.368471    0.5824438  32.02  0.009337842    3.130    0.680
        25 -16.5229     19.2908    211.2962   8.3595363134e+01   2.6288751151e+01     2.449915     1.166898 -87.46   0.01229514    2.043    0.511
        26 -15.7616      3.2642    205.6764   8.7042746696e+01   2.9032787209e+01     5.036477    0.5231305 -76.02   0.01460654    6.414    0.844
        27 -14.1906     36.3163    248.6950   8.1891202375e+01   1.6747770887e+01    0.5451594    0.3585384  81.21  0.002387668    1.518    0.341
        28 -15.4275     24.8710    248.1104   8.4211092492e+01   1.8072781387e+01     2.306254    0.5075048  25.53  0.007412244    5.826    0.828
        29 -15.4015      3.4587    223.5166   8.7682053206e+01   2.5109099460e+01    0.9527079    0.4708152 -73.95  0.005316858    2.051    0.513
        30 -16.4435     16.0271    228.1660   8.5162575253e+01   2.2955293792e+01     1.582816    0.6853688  56.96  0.008232988    1.877    0.467
        31 -15.0334      4.1011    249.1899   8.8394630960e+01   1.9900166314e+01    0.6175352    0.2548343  32.59   0.00335617    1.994    0.499
        32 -16.6101      7.6242    238.0016   8.7324525648e+01   2.1749888222e+01     1.290542    0.6958421  43.96  0.007948888    1.407    0.289
        33 -12.4929    102.7419    238.6548   6.6737126122e+01   1.0438109804e+01    0.2342158    0.1954404 -34.02  0.001299242    1.458    0.314
        34 -11.4799     88.5957    237.5358   6.9750455890e+01   1.2543082290e+01    0.2734047     0.128675 -73.28  0.001248974    2.963    0.663
        35 -12.7320     48.3863    237.1006   7.8616205715e+01   1.7651796130e+01    0.4279653    0.2082379  69.09  0.001228065    2.295    0.564
        36 -11.4954     53.1824    237.6191   7.7601431065e+01   1.6986690374e+01     0.234053    0.1604739  20.25 0.0005352378    1.640    0.390
        37 -12.2718    217.4704    237.7001   4.3499291706e+01  -4.4505959674e+00    0.2037062    0.1529552   1.24 0.0005577655    1.033    0.032
        38 -11.4773    211.1098    236.4316   4.4423878297e+01  -3.5481137761e+00    0.2057852    0.1486388 -45.47  0.001329487    2.009    0.502
        39 -11.2339     79.7396    237.3707   7.1703555465e+01   1.3735449966e+01    0.1755529    0.1063598  26.09 0.0008991309    1.582    0.368
        40 -11.0189    138.1736    236.2204   5.8744824580e+01   5.9852762586e+00    0.1639737    0.1300697  43.16 0.0002275329    1.303    0.232
        41 -10.3785    159.3736    235.2783   5.4181140155e+01   3.2238503911e+00    0.1298626   0.08406168   3.73 0.0007008715    1.696    0.411
        42 -11.4019    120.5011    235.4753   6.2467494117e+01   8.5718680255e+00    0.1285771    0.1073141  27.32 0.0001568586    1.022    0.022
        43 -11.3834    149.5172    239.0518   5.6738269308e+01   3.9614898101e+00      0.16486    0.1207658 -39.93 0.0007881966    1.556    0.357
        44 -11.5375     58.1324    234.5427   7.6276863223e+01   1.7007816500e+01    0.1894463    0.1040929  33.97   0.00101225    1.540    0.351
        45 -12.1576    222.4508    232.7907   4.1870067640e+01  -4.3865698593e+00    0.2273142    0.1471356  -4.98 0.0008206503    1.309    0.236
        46 -11.8027    219.4905    231.5234   4.2181220149e+01  -3.8808445601e+00     0.198145    0.1505584   1.56 0.0008203231    1.051    0.048
        47 -11.1677    214.9619    232.6893   4.3157793264e+01  -3.5056500475e+00    0.1623392     0.118574   8.70 0.0004203718    1.105    0.095
        48 -12.1417    182.2703    232.0062   4.9118479332e+01   6.6416763917e-01    0.2485397    0.2153291  63.41 0.0009705015    1.950    0.487
        49 -13.3292    194.9154    229.0281   4.6235410181e+01  -5.3708594372e-01    0.2682419    0.2424554   2.99 0.0008788114    1.316    0.240
        50 -11.9569     55.9965    230.1570   7.6414452055e+01   1.8156437799e+01    0.2244291      0.17134  12.91  0.001022123    1.612    0.380
        51 -11.1843     85.4976    229.0336   6.9587123411e+01   1.4606502945e+01    0.1735967    0.1286683 -70.42 0.0006853117    1.560    0.359
        52 -12.2358    229.7239    227.1735   3.9737054240e+01  -4.4876223654e+00    0.2542347     0.215468 -68.35  0.001586224    2.941    0.660
        53 -12.5247     61.2113    230.7480   7.5282020522e+01   1.7398261317e+01    0.3376915    0.1834196  79.29  0.001476013    2.292    0.564
        54 -12.7110     49.0753    227.1971   7.7758450803e+01   1.9595534988e+01    0.2832316    0.2510457  12.15  0.001364415    1.401    0.286
        55 -10.9537    138.4735    226.9883   5.7427446974e+01   7.5360981929e+00     0.153747    0.1147611  82.78 0.0004957988    2.282    0.562
        56 -11.6243    129.0471    225.9915   5.9361503109e+01   9.0707288822e+00    0.2067084    0.1485807  -4.78 0.0006678798    1.690    0.408
        57 -12.4852    116.5038    225.4846   6.2104214137e+01   1.0970417016e+01    0.2433618    0.1846143  67.39 0.0006572572    1.661    0.398
        58 -12.2299    114.6718    222.2989   6.2110502184e+01   1.1842814247e+01    0.2072672    0.1718412  47.38 0.0006906905    1.181    0.153
        59 -12.1621     80.8130    225.3076   7.0283770698e+01   1.5984884358e+01    0.2740486    0.1964472 -69.65  0.001087012    1.585    0.369
        60 -13.4676     77.0226    219.6550   7.0591935768e+01   1.7663695564e+01    0.4453067    0.2655947  55.26 0.0005055584    1.644    0.392
        61 -12.3732    160.0061    223.1052   5.2258714050e+01   5.1212084177e+00    0.3288231    0.2861184  33.66  0.002130281    1.245    0.197
        62 -12.6833     93.0909    223.4020   6.7226659574e+01   1.4695096436e+01    0.4028258    0.2836629 -20.13  0.001193626    2.059    0.514
        63 -13.6200     57.9075    221.1092   7.5234922521e+01   1.9818083551e+01    0.4451207    0.3194535 -79.19  0.002628864    1.488    0.328
        64 -12.9529     62.3587    216.8918   7.3808313752e+01   2.0168914404e+01    0.4388757    0.2451067  56.54  0.002199633    1.722    0.419
        65 -12.4750     67.2001    216.1994   7.2585347132e+01   1.9697663816e+01    0.3631382    0.2633777  89.58  0.001702692    1.488    0.328
        66 -12.8977    129.1904    217.4684   5.8145934582e+01   1.0634439614e+01    0.3816561    0.2345138   0.49  0.001704152    2.484    0.597
        67 -12.8299    124.0486    221.6583   5.9893042246e+01   1.0600082232e+01    0.4073687    0.2623341  36.83  0.001901307    1.353    0.261
        68 -11.2246    121.9575    217.2265   5.9761236172e+01   1.1755345321e+01    0.2090951    0.1667001  50.58 0.0005051996    1.306    0.234
        69 -12.0847    120.3045    213.9938   5.9692088332e+01   1.2634032424e+01    0.2860807    0.1640645  43.58 0.0009394883    1.647    0.393
        70 -10.9759    213.5116    221.0064   4.1533751018e+01  -1.7370192872e+00    0.1378535    0.1042434 -55.83 0.0008081872    2.386    0.581
        71 -11.7314    189.8094    220.3893   4.5829180554e+01   1.4174121747e+00    0.1720805    0.1008988  18.94 0.0002441124    1.618    0.382
        72 -10.9986    197.0000    218.9395   4.4220302949e+01   6.7770811433e-01    0.2564834   0.06469242 -41.48 0.0009419011    3.993    0.750
        73 -11.0579    196.1437    214.8074   4.3696571573e+01   1.4182525851e+00    0.1707612    0.1220565  -7.51 0.0005178541    1.278    0.218
        74 -13.8007    145.5532    215.2118   5.4156279457e+01   8.6120392197e+00    0.8391022    0.5275742  58.86  0.001103163    2.509    0.601
        75 -11.4924    225.6842    216.3015   3.8629776285e+01  -2.5700999958e+00    0.1827713    0.1561393  -5.74 0.0006518159    1.272    0.214
        76 -13.2926     84.0429    214.7191   6.8384091916e+01   1.7752321487e+01    0.9411016    0.1831557  37.17  0.003026998    3.638    0.725
        77 -11.6733     73.0267    212.1571   7.0769736453e+01   1.9809475621e+01    0.2469464    0.1566692  37.18 0.0008359355    1.374    0.272
        78 -12.7134    107.8948    214.4643   6.2661817768e+01   1.4384779048e+01    0.2721449    0.2275837 -53.10 0.0009928526    1.348    0.258
        79 -11.9972    155.6536    212.8862   5.1593404463e+01   7.5219811630e+00    0.2632305    0.2498749  -2.15  0.001710632    1.168    0.144
        80 -11.2064     94.7514    217.6927   6.6174304357e+01   1.5625106839e+01     0.180867    0.1378212  56.79 0.0008434358    1.311    0.237
        81 -13.5781    228.4766    207.9330   3.6730861810e+01  -1.7501978015e+00    0.4855159    0.3543535 -54.13 0.0009946842    2.428    0.588
        82 -11.8971    230.2568    204.0552   3.5758258492e+01  -1.4245560491e+00    0.1991469    0.1410478 -18.67 0.0002914652    1.137    0.121
        83 -12.8277    173.9310    219.0990   4.8762955497e+01   3.8089762732e+00    0.4073426    0.2359772 -34.89   0.00190832    1.771    0.435
        84 -12.6366    170.2645    209.8457   4.8006620103e+01   5.8834811670e+00    0.2784418    0.2473855  84.36 0.0004475279    1.759    0.432
        85 -11.5913     97.0446    210.9815   6.4802126441e+01   1.6697102013e+01    0.2230244    0.1488031 -63.18 0.0006984833    1.687    0.407
        86 -12.1129     90.6549    209.9895   6.6227849579e+01   1.7832071504e+01    0.2722677    0.2082945  76.36 0.0009694055    1.484    0.326
        87 -12.8599     59.4835    210.2956   7.3888371702e+01   2.1986906799e+01    0.3735319    0.2616278 -78.02  0.001506687    1.501    0.334
        88 -12.6101     52.0807    209.6985   7.5642528424e+01   2.3039233336e+01    0.2673594    0.2154153  44.22 0.0004679876    1.112    0.101
        89 -13.0250     53.8436    205.4239   7.4824789496e+01   2.3795410815e+01     0.485383    0.2596465  52.85  0.002350103    1.715    0.417
        90 -12.6310    106.0227    208.7215   6.2341238252e+01   1.5847880104e+01    0.2613069    0.2072822  47.21 0.0008141457    1.189    0.159
        91 -12.6251    105.1017    205.3617   6.2104989178e+01   1.6695820848e+01    0.3910407    0.2373749  31.99  0.001488633    1.504    0.335
        92 -12.0335    180.3846    207.5190   4.5545235862e+01   4.7940269975e+00    0.2246747     0.192607   5.26 0.0005774741    1.044    0.043
        93 -12.4581    159.5607    206.7025   4.9747072227e+01   8.0410398470e+00    0.3131474    0.1512428  44.89  0.001360732    2.340    0.573
        94 -15.1246     34.3519    227.6605   8.1107914442e+01   2.1167006216e+01     1.596094    0.6108375  89.80  0.006772071    3.206    0.688
        95 -13.2121     33.8166    206.1602   7.9814923490e+01   2.5951747987e+01    0.4199305    0.2297465  63.42   0.00146532    1.705    0.413
        96 -12.4406     36.4582    203.0902   7.8941271250e+01   2.6371575288e+01    0.2467106    0.1974749  67.51 0.0006498458    1.072    0.067
        97 -11.7526    116.2806    204.5664   5.9289661242e+01   1.5156591374e+01    0.2342102    0.1759742 -74.25 0.0007303116    1.669    0.401
        98 -12.2922     90.8732    189.1419   6.3417743853e+01   2.2480658246e+01     0.431003    0.2838899 -86.54  0.001987653    1.945    0.486
        99 -12.2320     92.7362    193.7176   6.3580695103e+01   2.1139915321e+01    0.3518637    0.3118947 -63.13  0.001338698    1.210    0.174
       100 -12.6331     89.2862    201.3022   6.5474718889e+01   1.9936162734e+01     0.352047    0.2420628 -60.63  0.001036691    1.573    0.364
       101 -12.3987     91.6680    198.6849   6.4530994412e+01   2.0172371701e+01    0.2964465    0.2595877 -39.86 0.0008767734    1.303    0.233
       102 -12.9525    145.1032    200.9325   5.1983384563e+01   1.1365769990e+01    0.4648241    0.3412709  66.48  0.001590938    2.042    0.510
       103 -12.2241    212.3794    199.8981   3.8113626865e+01   1.5033231350e+00    0.2607782    0.2086334 -56.93  0.001174648    1.998    0.500
       104 -12.0808    137.5096    201.0831   5.3745755415e+01   1.2538446224e+01    0.2517746    0.1746549  45.76 0.0005312718    1.490    0.329
       105 -13.5828    121.9804    196.6966   5.6717654734e+01   1.5911437103e+01    0.5021867    0.3483089  40.30  0.002569434    1.345    0.256
       106 -12.0747     44.0396    200.1432   7.6809853085e+01   2.6199192392e+01    0.3667828    0.1715262 -82.14  0.001303568    2.302    0.566
       107 -11.5155     60.8304    199.0730   7.2440666364e+01   2.4384562264e+01    0.2927827    0.1660277 -80.95 0.0007599776    1.945    0.486
       108 -11.2907     49.4835    198.7215   7.5302981053e+01   2.5887531027e+01    0.4142466    0.1506398 -54.15  0.001120878    3.121    0.680
       109 -13.7175    173.0056    195.7359   4.4999716477e+01   7.9437200057e+00    0.4565251     0.304077  41.76  0.001481461    1.613    0.380
       110 -12.2211     84.0792    198.5443   6.6437915291e+01   2.1316410979e+01    0.2744754    0.1922246  84.26  0.001373968    1.701    0.412
       111 -11.9347    224.8682    198.1467   3.5619844352e+01   1.0905288248e-01    0.1737462    0.1521318 -16.88 0.0005542545    1.279    0.218
       112 -11.6770    145.0000    196.0037   5.1178407490e+01   1.2346240046e+01    0.1668574    0.1546958 -13.15 0.0004004973    1.086    0.079
       113 -13.1764     40.2643    193.6794   7.7217601193e+01   2.8172390722e+01    0.7368079    0.2451028 -48.96  0.002189429    4.526    0.779
       114 -14.0711     36.4982    191.0870   7.7973740550e+01   2.9221966331e+01    0.6400307    0.3727829 -53.30  0.003006111    1.978    0.494
       115 -12.3303    100.9631    195.2472   6.1702620681e+01   1.9536644868e+01    0.4665305    0.2746093  38.37  0.001391383    1.536    0.349
       116 -11.5450    212.7159    193.9718   3.6983174952e+01   2.3711722114e+00    0.1803431    0.1402878 -22.29 0.0005195452    1.125    0.111
       117 -13.1247    133.8632    190.7271   5.2878455393e+01   1.5235061501e+01    0.3462476    0.2859935  21.56   0.00105584    1.161    0.139
       118 -13.5927    110.3850    187.7612   5.8173758875e+01   1.9728138530e+01    0.4779029     0.322087 -72.28  0.001872301    1.841    0.457
       119 -12.0749     70.9663    187.5484   6.8471220997e+01   2.5768258228e+01    0.4397283    0.2002411  48.18  0.001788037    2.133    0.531
       120 -12.7962     50.8347    190.0445   7.4113624872e+01   2.7803121391e+01    0.3264855    0.2144994  53.20 0.0006912813    1.387    0.279
       121 -12.1887    153.5405    187.5665   4.7750396918e+01   1.2615786651e+01    0.2535826    0.1915567  23.83 5.792891e-05    1.275    0.216
       122 -11.9464    156.4191    185.8222   4.6784063733e+01   1.2481011920e+01    0.2465749    0.1889761  19.79 0.0007725577    1.280    0.219
       123 -13.7376    248.8188    185.5263   2.9492964904e+01  -1.1031327611e+00    0.2862844    0.2149465 -12.03 0.0007558864    1.066    0.062
       124 -12.0810    160.8913    192.7886   4.7060350337e+01   1.0404378980e+01    0.2372655    0.1964824 -39.37 0.0005691276    1.263    0.208
       125 -11.5072    195.2821    187.3963   3.8995295998e+01   5.9712782007e+00    0.1668893    0.1209086  39.07  0.000350274    1.535    0.348
       126 -13.5319    126.8297    185.9168   5.3755166880e+01   1.7425735530e+01    0.4923678     0.239336  34.26  0.002035352    1.954    0.488
       127 -10.9122    228.6731    185.7240   3.2714157436e+01   1.4548719952e+00    0.1252925   0.08121873  -4.43 0.0002308588    1.589    0.371
       128 -11.2322    163.9738    185.0180   4.4965702550e+01   1.1382602696e+01    0.2003506     0.173286  70.30 0.0004175425    1.599    0.375
       129 -12.3062    138.2678    197.0968   5.2915181419e+01   1.3213306660e+01    0.2679077    0.1828322  16.71 0.0005490606    1.583    0.368
       130 -13.2214     93.3984    181.1348   6.1563906281e+01   2.3982153954e+01    0.6399752    0.4522359  50.68  0.002960477    1.395    0.283
       131 -11.4873     55.2142    183.5906   7.2253412858e+01   2.8843032075e+01    0.3497183    0.1683439 -40.99  0.001311572    3.163    0.684
       132 -13.1696     76.5336    185.7714   6.6751504274e+01   2.5408927345e+01     0.659663    0.3354683 -71.32   0.00277114    2.201    0.546
       133 -12.7298    134.1534    182.0094   5.1278895102e+01   1.7030546562e+01    0.2360157    0.1991833  30.72 0.0003051136    1.126    0.112
       134 -10.8474     49.6702    182.7291   7.3670177511e+01   2.9749696159e+01    0.1313247    0.1077549 -28.18 0.0001799964    1.585    0.369
       135 -13.8873    117.0727    178.9575   5.4995769393e+01   2.0614053958e+01    0.6198422    0.3458714  55.45  0.002481545    2.289    0.563
       136 -12.3327    192.7168    194.8608   4.0871258163e+01   5.0984212531e+00    0.3125064    0.2278624 -27.61   0.00116924    1.265    0.209
       137 -12.7591    224.6530    178.1747   3.1960983162e+01   3.1652144353e+00    0.3966673    0.2003472 -21.98  0.001878296    2.146    0.534
       138 -12.8304    100.1052    179.7966   5.9565817263e+01   2.3231195098e+01    0.3044042     0.243265  20.65  0.000862517    1.334    0.250
       139 -12.6472    191.3908    178.5707   3.8060537382e+01   8.1043979949e+00    0.4072807    0.2527747 -60.70  0.001774771    2.816    0.645
       140 -13.0037     37.8553    178.0180   7.6439763567e+01   3.2317364501e+01    0.3666402    0.2426029 -22.27  0.001708384    2.360    0.576
       141 -13.1299    125.6782    177.3114   5.2520081641e+01   1.9513568904e+01    0.3298342    0.2877172  32.58  0.001327857    1.097    0.088
       142 -12.8992    128.2274    175.8402   5.1612539487e+01   1.9399493627e+01    0.4198677    0.2863802  72.41   0.00177851    2.311    0.567
       143 -12.1921    126.4535    172.4722   5.1432339528e+01   2.0464168743e+01    0.2331831    0.2195399  26.55  0.000554171    1.023    0.023
       144 -11.1121     24.4811    178.4538   8.0142839164e+01   3.3609131433e+01     0.217917    0.1227321  29.14 0.0007412337    1.794    0.443
       145 -12.8380     21.5484    176.3276   8.0777037124e+01   3.4429624127e+01    0.3208421    0.2359657 -20.57  0.001715219    1.947    0.486
       146 -11.9780    137.2443    177.0540   4.9619513921e+01   1.7562957935e+01     0.245524    0.2052461  31.05 0.0004552045    1.149    0.130
       147 -11.8055     76.4404    176.2304   6.5463073796e+01   2.7765502483e+01    0.3194614    0.2065679  80.91  0.001414084    1.918    0.479
       148 -13.1249     79.7316    173.0969   6.4084637069e+01   2.8057957322e+01    0.5639007    0.2834322  35.47  0.002340804    1.876    0.467
       149 -12.0390     83.6984    171.9974   6.2804910447e+01   2.7727332346e+01    0.2311091    0.2034839  59.48 0.0002969061    1.092    0.084
       150 -11.7386     63.7002    176.9679   6.9118255453e+01   2.9384490458e+01    0.2542136    0.2032316  28.15 0.0005073034    1.311    0.237
       151 -12.5274     31.7126    176.1313   7.7965159320e+01   3.3461644218e+01    0.3011624    0.2190415  57.47 0.0006730268    1.241    0.194
       152 -12.6028    247.1463    175.4530   2.7885575261e+01   5.4199377332e-01    0.2943388    0.2292164 -50.44  0.001092307    1.790    0.441
       153 -13.1340    147.0768    174.6577   4.6817925259e+01   1.6351201400e+01    0.5085441    0.3009131  62.60  0.001900969    3.068    0.674
       154 -12.8762    106.8460    175.6779   5.7093211544e+01   2.3095900880e+01    0.3387291    0.2430503  49.51 0.0008765233    1.403    0.287
       155 -13.4592     91.0611    171.1218   6.0611882754e+01   2.6786061338e+01    0.4273212    0.3407599 -25.30   0.00170811    1.542    0.351
       156 -12.2321     95.3115    171.6668   5.9527950032e+01   2.5965318393e+01    0.2893793    0.2063469  60.06 0.0008921753    1.540    0.350
       157 -12.9100     45.2049    172.1572   7.3772761255e+01   3.2971453122e+01    0.3981543    0.2398629  22.24  0.001525472    1.869    0.465
       158 -11.0632    208.4030    170.8032   3.3341072216e+01   6.7675720486e+00    0.1914034    0.1095682 -28.24 0.0009440337    1.637    0.389
       159 -12.3512    198.1377    170.5051   3.5170525415e+01   8.4434538330e+00     0.264085    0.2367289   5.61  0.001093047    1.114    0.102
       160 -12.9900    153.5695    166.0752   4.3599504074e+01   1.6991823302e+01    0.4565494    0.3031653  69.22  0.001841175    2.687    0.628
       161 -11.1812    173.5145    169.9729   3.9984357446e+01   1.2666447209e+01    0.2090206    0.1332139 -40.46 0.0004130365    1.513    0.339
       162 -13.3842    119.4934    168.8289   5.2534966114e+01   2.2525090236e+01    0.7066789    0.3594903  21.09  0.001565799    2.915    0.657
       163 -12.7623    127.3381    166.2584   5.0017852199e+01   2.1716823559e+01    0.2936555    0.2679846  -3.16  0.001020229    1.144    0.126
       164 -11.9596     60.9617    170.4859   6.9051978797e+01   3.1406217503e+01    0.4192091    0.1322759  31.09  0.001418292    2.995    0.666
       165 -12.2179    159.6606    168.1683   4.2638265232e+01   1.5462989423e+01    0.2532492    0.1928111  45.48 0.0007190826    1.414    0.293
       166 -12.8435    100.2798    166.2190   5.7218164039e+01   2.6475749294e+01    0.3508676    0.2828869   0.29 0.0007110827    1.532    0.347
       167 -11.9455    236.9473    170.9968   2.8597864921e+01   2.5579458819e+00    0.1902227    0.1505927 -20.26 0.0003821425    1.025    0.025
       168 -11.2751     31.0662    167.5070   7.7350959446e+01   3.5749604699e+01     0.192961    0.1342978  29.83 0.0004794344    1.501    0.334
       169 -12.6630    110.9182    164.8357   5.4057693968e+01   2.4978005084e+01    0.2902611    0.2554597   2.27  0.001261469    1.267    0.211
       170 -11.7101     64.1779    164.8498   6.7342924244e+01   3.2424770399e+01    0.2251771    0.1873593  66.64 0.0004304271    1.161    0.139
       171 -13.0393     57.8567    164.5234   6.9160647778e+01   3.3368262077e+01    0.3384164    0.2267962  55.04     0.001617    1.476    0.323
       172 -12.2011    230.4230    163.3702   2.8138614667e+01   4.6618020414e+00    0.2199887    0.1842251 -26.67 0.0002727554    1.123    0.109
       173 -11.3721    205.4157    163.7928   3.2467560626e+01   8.4391676361e+00    0.1907568    0.1134721 -28.60 0.0005075349    1.575    0.365
       174 -13.0325    153.0440    170.0991   4.4533211556e+01   1.6246751335e+01    0.2903331    0.2708982 -29.88 0.0004754987    1.079    0.073
       175 -13.8074     91.0923    163.0658   5.9241698331e+01   2.8789992061e+01    0.5922764    0.3486327  19.76  0.002373648    2.175    0.540
       176 -11.9981     68.9459    163.4534   6.5735196431e+01   3.2112869851e+01    0.2316296    0.1396206  35.87  0.001027137    1.608    0.378
       177 -10.5240    141.6555    162.7506   4.5742849183e+01   1.9886547404e+01    0.1499361    0.1149392   2.27 0.0002616379    1.577    0.366
       178 -12.4476     39.3864    161.2416   7.4250778369e+01   3.6497431589e+01    0.5287597     0.142502  36.50   0.00181567    3.081    0.675
       179 -12.6010     13.2116    161.3660   8.1989545572e+01   3.9019378995e+01    0.4201801    0.2214159  47.12  0.001558012    1.761    0.432
       180 -12.1789     16.5565    160.4991   8.0948896770e+01   3.8961989347e+01    0.2934896    0.1891496  68.27  0.001243901    1.435    0.303
       181 -12.6761    169.9819    160.1685   3.8709731778e+01   1.5217023012e+01    0.3035739    0.2724423  74.30 0.0009386377    1.436    0.303
       182 -13.2811     46.0976    160.1702   7.2106517445e+01   3.6001853002e+01    0.3917548    0.2570766  52.05 0.0005769941    1.480    0.324
       183 -11.1245    221.9769    159.7088   2.8773873476e+01   6.5154491844e+00    0.1747469     0.150248 -14.88 0.0003624209    1.066    0.062
       184 -12.2906    133.7479    158.0410   4.6729301072e+01   2.2410379377e+01    0.3728216    0.2724152  51.54  0.000852175    1.485    0.327
       185 -12.2596    105.5635    158.8691   5.4390876626e+01   2.7369498698e+01    0.3299768     0.225061  67.55 0.0007286035    1.913    0.477
       186 -14.0447     83.3067    150.4814   5.9268015492e+01   3.3291811199e+01    0.5616041    0.3950907  -7.53  0.001433327    2.147    0.534
       187 -13.4943     76.8719    155.2825   6.2063545839e+01   3.3060178246e+01    0.4913999    0.2162655  50.30  0.001502555    2.589    0.614
       188 -12.9141     83.4807    159.4575   6.0816452262e+01   3.0939451616e+01    0.2486195      0.20138 -78.92 0.0006510174    1.279    0.218
       189 -12.2062     70.0451    157.9545   6.4558441184e+01   3.3389350505e+01     0.232152    0.1795823 -27.63 0.0004433118    1.631    0.387
       190 -12.3394     32.0194    157.7589   7.6085799103e+01   3.8217722605e+01    0.2446276    0.1863388 -68.29 0.0007978228    1.254    0.203
       191 -11.9841     29.0103    156.2519   7.6841125399e+01   3.8925276208e+01    0.2337179     0.206137  -2.16 0.0008859347    1.409    0.290
       192 -12.5393    118.3556    157.3113   5.0587054971e+01   2.5441574714e+01    0.2974616    0.2045713  -6.36 0.0007520756    2.252    0.556
       193 -12.9627    121.5420    156.4411   4.9559720862e+01   2.5059913026e+01    0.3558544    0.2535132  54.83  0.001322556    1.562    0.360
       194 -11.5338    190.5033    155.3832   3.3501372162e+01   1.2464253920e+01    0.2630839     0.128058 -40.37 0.0001606994    1.886    0.470
       195 -11.1359    141.4847    155.4817   4.4262451440e+01   2.1525160382e+01    0.1502761    0.1466573  -7.29 6.512995e-05    1.018    0.017
       196 -11.8264     20.9500    154.2966   7.9101835208e+01   4.0211768966e+01    0.2807104    0.1906708 -60.30  0.001104174    1.455    0.312
       197 -13.0229     19.4689    149.4457   7.9103060740e+01   4.1638515629e+01    0.3593843    0.2541996 -25.01   0.00113543    1.884    0.469
       198 -12.5313    172.2518    153.0476   3.6695496272e+01   1.6220924006e+01    0.4352829     0.213222 -40.10 0.0006000866    1.945    0.486
       199 -11.3286     88.6622    153.2963   5.8188016336e+01   3.1679279585e+01    0.1625062    0.1152736  66.57 0.0003044447    1.654    0.395
       200 -13.2070     51.8005    152.1537   6.9285381713e+01   3.7439180678e+01    0.4317265     0.268167 -32.38  0.001426644    2.233    0.552
       201 -11.3684    128.2812    151.0455   4.6650077165e+01   2.5057408253e+01    0.2093891    0.2010192 -50.94 0.0003680714    1.052    0.050
       202 -12.6010      3.1641    150.1055   8.4148560915e+01   4.2730951204e+01    0.3544582    0.2559569   0.81   0.00197004    1.811    0.448
       203 -12.2980    108.9756    149.1969   5.1497158300e+01   2.9139613755e+01     0.336338    0.3220537  65.61 0.0009521242    1.052    0.049
       204 -12.6114     26.6972    149.7565   7.6874783173e+01   4.0892367787e+01    0.3888976    0.2376451   6.54  0.001785877    2.204    0.546
       205 -11.1239    147.0158    148.6954   4.1437312258e+01   2.1960683993e+01    0.2120489    0.1953515  28.08 0.0004195494    1.096    0.088
       206 -12.5736     96.0675    148.9814   5.5171286798e+01   3.1517825701e+01    0.2405871    0.2281437  89.75 0.0006191097    1.051    0.049
       207 -12.8005     36.9852    149.0084   7.3539726964e+01   4.0039699246e+01    0.2296109    0.2043133  87.40 0.0009472873    1.006    0.006
       208 -13.3828      6.5860    133.6632   8.1806144233e+01   4.6878132766e+01    0.4197299    0.2308396 -57.12  0.002027585    1.719    0.418
       209 -13.2760      9.4685    146.9666   8.1993220409e+01   4.3110106356e+01    0.5323727    0.2559701  53.51  0.002399211    2.037    0.509
       210 -13.6265     12.0365    142.6634   8.0822984153e+01   4.4066876457e+01    0.5069487    0.2944811  47.79  0.002505635    1.691    0.409
       211 -14.5482     14.0280    135.0557   7.9457221597e+01   4.5968231476e+01    0.6799533    0.5025123 -72.84  0.002525743    1.192    0.161
       212 -13.5469     61.7302    145.4538   6.5105788509e+01   3.7914980042e+01    0.5686743    0.2664186  56.02  0.001997885    2.732    0.634
       213 -12.0468    170.8782    145.3578   3.5281617501e+01   1.8026130815e+01    0.2488625    0.1961836 -48.00 0.0005399489    1.275    0.216
       214 -14.0383     51.9424    143.1615   6.7900938816e+01   3.9853940164e+01    0.6399578    0.3517745  51.85  0.002037446    1.939    0.484
       215 -10.7621    228.9848    145.2501   2.4690836221e+01   7.7866816526e+00    0.1431454    0.1121572  37.52 0.0005349976    1.503    0.335
       216 -11.7314    103.3546    144.6927   5.2159164185e+01   3.1296660304e+01    0.3360493    0.2277822  49.58  0.001163622    1.534    0.348
       217 -12.4417    101.1551    141.1495   5.2046337213e+01   3.2595218115e+01    0.3377176    0.2555148 -77.77 0.0008793687    1.537    0.350
       218 -11.4258    187.2385    143.9594   3.1641290542e+01   1.5203693103e+01    0.2047655    0.1708234 -33.72 0.0004470155    1.089    0.082
       219 -11.3606    159.0837    143.4460   3.7434439226e+01   2.0721664668e+01    0.3676423    0.2352778 -11.89 0.0009174811    2.481    0.597
       220 -12.2434     85.8179    143.8399   5.7231102699e+01   3.4609628373e+01      0.22612    0.2090044 -36.80 0.0003679992    1.160    0.138
       221 -13.4879     20.2396    130.9885   7.6907149648e+01   4.6576669978e+01    0.4804867    0.3665586  -1.47  0.001442952    1.642    0.391
       222 -10.9309    211.5542    143.5062   2.7132852582e+01   1.0943008559e+01    0.1375814    0.1168879 -28.94 7.263377e-05    1.025    0.024
       223 -11.6583    143.9431    143.3478   4.0974400739e+01   2.3750533504e+01    0.2158266    0.1964158  24.68 0.0004388342    1.124    0.110
       224 -13.3481     94.5828    140.3766   5.3846072370e+01   3.3985020093e+01    0.4629211    0.3610603 -26.20  0.000978308    1.551    0.355
       225 -12.0692     72.0000    139.9644   6.0830404542e+01   3.7874119515e+01    0.2545238   0.08585852 -61.32  0.000535107    2.880    0.653
       226 -13.4767     40.0266    137.4508   7.0995726895e+01   4.2853625564e+01    0.4523722    0.2686597  71.09  0.001139383    1.957    0.489
       227 -11.7480    131.8435    135.6222   4.2226796054e+01   2.7950212980e+01    0.5221339    0.2027434  54.62   0.00139704    4.404    0.773
       228 -12.9401     46.6563    136.3732   6.8593933644e+01   4.2370836472e+01    0.2698926    0.2413465 -80.02 0.0002647358    1.031    0.030
       229 -12.6675     43.4256    132.7019   6.9118069781e+01   4.3766039550e+01    0.3758793     0.183708 -72.43  0.001493996    1.987    0.497
       230 -13.4950     85.8350    135.1377   5.5438949530e+01   3.6885921692e+01    0.4504737    0.3470894   6.15   0.00144807    1.671    0.402
       231 -13.1704     66.8978    135.4394   6.1639372992e+01   3.9869171110e+01    0.3055448    0.2642104 -74.69  0.001248993    1.115    0.103
       232 -12.4832     33.8735    135.4857   7.2802892517e+01   4.4059817116e+01    0.2578417    0.1899178  78.66  0.001100191    1.355    0.262
       233 -12.0681    200.4758    133.0137   2.6727796886e+01   1.4780706169e+01    0.2183016    0.1895488  15.16  0.000325221    1.262    0.208
       234 -13.0217    103.0686    134.0029   4.9890251591e+01   3.4045205829e+01    0.4097016    0.2474383  38.76   0.00152904    1.671    0.402
       235 -13.2537     59.2749    133.7426   6.3874972309e+01   4.1435648997e+01    0.4208634    0.1950901  37.00  0.001622721    2.129    0.530
       236 -12.3763     77.7331    133.0094   5.7591882645e+01   3.8816116155e+01    0.2256956    0.1962568 -62.77 0.0003474511    1.114    0.103
       237 -12.6688    128.6191    137.7368   4.3571811702e+01   2.8109358549e+01    0.3608361    0.2607327 -64.89  0.001592194    1.598    0.374
       238 -11.1423    242.4188    131.4610   1.9882785570e+01   7.8823297085e+00    0.1287898    0.1007355 -31.66  0.000127882    1.010    0.010
       239 -12.2819    230.1489    130.5500   2.1421629424e+01   9.9952770153e+00    0.2381081    0.1711458 -36.39 0.0003277244    1.145    0.126
       240 -13.3102    130.2066    128.4957   4.0928823467e+01   2.9944482817e+01    0.3619528    0.3334733 -44.16 0.0006352203    1.063    0.059
       241 -12.8097    121.8548    128.4491   4.3170026083e+01   3.1685868671e+01    0.3683429     0.266738 -59.34  0.001234706    1.459    0.315
       242 -11.8865     50.5122    130.4908   6.6297770614e+01   4.3501573584e+01    0.1515556    0.1404422 -76.78 -3.386533e-05    1.018    0.017
       243 -13.4138     82.3760    128.2348   5.5049554225e+01   3.9298355306e+01    0.4779261    0.3408458 -13.99  0.001985579    2.039    0.510
       244 -12.5360    123.1248    135.1086   4.4427818942e+01   2.9837586762e+01    0.2404489    0.2170063 -14.49  0.000403068    1.208    0.172
       245 -13.0448     53.8183    127.5820   6.4622804931e+01   4.3865425446e+01    0.3594993    0.2313871  53.11 0.0009489891    1.683    0.406
       246 -13.9005     58.6866    125.5731   6.2532160016e+01   4.3744276260e+01    0.4686405    0.3264278 -33.11  0.001626905    1.723    0.420
       247 -13.4777      9.5066    125.9340   8.0085629023e+01   4.8771783228e+01    0.5501093    0.2615876 -39.61  0.001921908    2.536    0.606
       248 -13.2338     11.0505    111.1341   7.7857606585e+01   5.2691552820e+01    0.3131409    0.2281091 -65.74 0.0007213224    1.190    0.160
       249 -13.8283     14.1411    119.4640   7.7713644236e+01   5.0207141724e+01    0.5198474    0.3528813 -45.78  0.002680829    1.520    0.342
       250 -11.7341     35.0229    126.6849   7.1132002012e+01   4.6360417909e+01    0.1974438    0.1880632  74.71 0.0005090611    1.084    0.077
       251 -13.5461     82.9761    114.7372   5.1667283326e+01   4.2723868231e+01    0.4701736    0.3636967 -67.81  0.001840003    1.344    0.256
       252 -13.3230     73.6995    114.8089   5.4890557353e+01   4.4318935237e+01    0.3739606    0.2777197  75.82  0.001139484    1.674    0.403
       253 -14.1252     77.9887    119.7331   5.4573802886e+01   4.2293880684e+01     0.691057    0.3899575  33.49 0.0009399004    1.857    0.461
       254 -12.2936     26.4047    125.1700   7.3997452834e+01   4.7629323607e+01    0.2780804    0.2512591 -48.67 0.0009067473    1.173    0.148
       255 -12.5427    186.5118    123.9877   2.7166707528e+01   1.9152583161e+01    0.2532721    0.2359872 -31.71 0.0003280397    1.033    0.032
       256 -11.9434    169.8352    123.5033   3.0344827369e+01   2.2664018590e+01    0.4293253    0.1929766 -38.05  0.001603393    2.158    0.537
       257 -11.3077     40.4856    124.4831   6.8820742900e+01   4.6368186800e+01    0.1502889    0.1355898 -88.74   1.8349e-05    1.049    0.046
       258 -13.2911    105.1481    121.2117   4.6188962295e+01   3.6845545288e+01    0.4349548    0.3788981  60.93  0.001288173    1.211    0.174
       259 -11.6109    100.3340    119.6855   4.7277797260e+01   3.8181140288e+01    0.2474609    0.2074256 -54.77 0.0007573896    1.170    0.145
       260 -11.3358     20.9936    122.9772   7.5654931133e+01   4.8708248676e+01    0.1703801    0.1495753 -80.53 0.0009676273    1.001    0.001
       261 -12.4553    193.6653    122.5546   2.5517465242e+01   1.8001187658e+01    0.2468812    0.1409949  43.48 0.0008100032    1.968    0.492
       262 -11.6906    224.1092    120.4912   2.0121242723e+01   1.2681798335e+01    0.1690378    0.1360243  50.03 0.0004545709    1.501    0.334
       263 -11.8110    201.9687    120.4888   2.3593624080e+01   1.6761363229e+01    0.1933989    0.1433345  50.52  0.000641871    1.550    0.355
       264 -10.8723    231.5106    118.5168   1.8636686650e+01   1.1722262139e+01     0.133422    0.1088377 -31.95  0.000135687    1.044    0.042
       265 -11.9424     94.6392    117.1705   4.8435265696e+01   3.9923774687e+01    0.2304753    0.2108521  62.53  0.001146428    1.131    0.116
       266 -12.9485    114.7083    114.3334   4.1567723057e+01   3.6551619722e+01    0.4976105     0.342282 -18.43 0.0008681513    2.132    0.531
       267 -12.1253    113.7977    109.1348   4.0418565052e+01   3.7979513969e+01    0.3304544     0.250944  59.22 0.0009464127    1.452    0.311
       268 -12.2789    104.6708    114.8132   4.4682439720e+01   3.8522506190e+01    0.2784475    0.2227828  28.09 0.0006546089    1.373    0.272
       269 -13.9222      9.3793    117.0592   7.9187279450e+01   5.1191409788e+01    0.4247274    0.3621405 -57.17  0.001547768    1.158    0.136
       270 -13.7806     62.8689    112.4408   5.8228141475e+01   4.6680590646e+01    0.6888774    0.3028091 -66.88  0.002352817    2.584    0.613
       271 -12.4038     58.5646    114.0184   6.0170552001e+01   4.6895699187e+01    0.3140916    0.2235004  35.51  0.000270877    1.465    0.317
       272 -10.8723    242.4675    112.4767   1.5893505029e+01   1.0837147847e+01    0.1297731    0.1027835 -35.54 0.0001448635    1.017    0.017
       273 -13.1783     75.3764    124.8255   5.6619321926e+01   4.1383661792e+01    0.3766977     0.252747 -39.38  0.001066124    1.655    0.396
       274 -10.8289     48.4589    126.9474   6.6395717102e+01   4.4734848299e+01    0.2167376    0.1227478  82.16 0.0008077006    2.431    0.589
       275 -10.5175    198.4929    111.4762   2.2044558468e+01   1.9062885703e+01    0.1447611    0.1268344 -43.03 1.654772e-05    1.033    0.032
       276 -11.7041     52.5652    110.8864   6.1732449025e+01   4.8582791031e+01    0.2414149    0.2076746   4.53 0.0005852514    1.331    0.249
       277 -11.9624    169.2124    109.3862   2.6905797639e+01   2.5619900216e+01    0.2057898    0.1473982  64.02 0.0006349188    1.640    0.390
       278 -10.6021    124.2887    109.6407   3.7595961972e+01   3.5578176259e+01    0.1659807    0.1272881 -81.79 0.0007025247    1.686    0.407
       279 -11.7804    160.8316    107.8163   2.8235519685e+01   2.7787498949e+01    0.2144164     0.176199 -65.33 0.0002260285    1.318    0.241
       280 -12.1679    108.7856    107.8573   4.1548436812e+01   3.9352114617e+01     0.276959    0.2328537  50.55 0.0004296617    1.221    0.181
       281 -11.8790    109.8837    103.9839   4.0127933898e+01   4.0034656836e+01    0.3258473    0.2496837 -42.40 0.0004331227    1.299    0.230
       282 -12.6761      2.0414    106.9701   8.0857305793e+01   5.4347855663e+01    0.2605594    0.1997319 -54.22  0.000876989    1.235    0.190
       283 -10.3218    121.6867    106.7334   3.7504496516e+01   3.6817799361e+01    0.1565349    0.1286381   2.97 0.0002233235    1.545    0.353
       284 -11.2709    206.5039    104.9305   1.9195891112e+01   1.8617136855e+01    0.2113927    0.1229429 -37.78 0.0003811052    1.490    0.329
       285 -12.4660     12.1301    103.9295   7.6482579035e+01   5.4573323043e+01    0.3262231    0.1883406  45.46  0.001550285    1.904    0.475
       286 -12.8620     79.1538    102.4858   4.9787540099e+01   4.6558218780e+01    0.3163143    0.2527594 -47.38  0.000744456    1.217    0.178
       287 -12.3678    153.8096    100.4906   2.7775677748e+01   3.0861385632e+01    0.3231276    0.2439393 -51.38 0.0002913273    1.297    0.229
       288 -11.9968     57.8604     97.4854   5.6473436269e+01   5.1389308743e+01    0.3658749    0.2704551  51.33  0.001150188    1.503    0.335
       289 -12.4906     55.8513    101.3538   5.8249675603e+01   5.0670802440e+01    0.3111521    0.2601029 -39.55 0.0004800346    1.204    0.170
       290 -13.8981     95.9068     99.7350   4.3274450020e+01   4.3989612845e+01    0.7386894    0.3711443  51.73  0.002583388    2.296    0.564
       291 -13.3454      5.6446     99.6061   7.8547255658e+01   5.6132934270e+01    0.3980229    0.3087689  51.71  0.002137259    1.412    0.292
       292 -11.8911     11.2339     98.1696   7.6024910294e+01   5.6184812487e+01    0.3518821    0.1790989  26.34 0.0008580092    2.143    0.533
       293 -11.1611    162.3230     99.6443   2.5730082051e+01   2.9080487943e+01    0.1632779    0.1171952 -71.59 0.0007045938    1.764    0.433
       294 -11.6554    188.8658     98.1165   2.0365276170e+01   2.3467446764e+01    0.2203984    0.1860807 -64.01    0.0004192    1.214    0.176
       295 -13.3222     83.4324     94.0300   4.5840976138e+01   4.7857146762e+01    0.4160331    0.3048389 -33.46  0.001286482    1.490    0.329
       296 -11.6243     85.1996    100.8084   4.7192167469e+01   4.5850955589e+01    0.2172748    0.1873557 -17.02 0.0004308003    1.318    0.241
       297 -13.3850     78.2442     92.2462   4.7179537494e+01   4.9277153969e+01    0.3937236    0.3228379  72.78  0.001873297    1.461    0.316
       298 -12.9838     74.0160     90.7508   4.8303580962e+01   5.0420691094e+01    0.3655507    0.2113252  49.22  0.001252443    1.943    0.485
       299 -12.0160    178.3631     96.3745   2.1753245958e+01   2.6084010080e+01    0.3033203    0.1985177 -67.61  0.001069982    1.990    0.498
       300 -11.4537     41.4423     92.0068   6.1868732552e+01   5.5052151791e+01    0.2096723    0.2016978  12.99  0.000598566    1.121    0.108
       301 -11.5296    125.4913     89.6517   3.1459579372e+01   3.9715301653e+01    0.3297647    0.2866077 -48.70    0.0016267    1.127    0.113
       302 -12.6281     58.6201     89.6143   5.4021765341e+01   5.3294993621e+01    0.3929877    0.3009107  -7.53  0.001597266    1.607    0.378
       303 -12.7344     54.7894     85.9445   5.4556621710e+01   5.4804063473e+01    0.5221333    0.4469979 -19.02  0.002464142    1.247    0.198
       304 -11.0750     28.0096     90.4278   6.7367041142e+01   5.6923643207e+01    0.2014946    0.1431058  19.37 0.0006680044    1.565    0.361
       305 -13.1388      4.1105     88.1975   7.7639985328e+01   5.9248401645e+01    0.4553074     0.259686 -48.78  0.002277004    1.573    0.364
       306 -12.4772    149.2735     87.9723   2.5219039670e+01   3.4412579591e+01     0.331215    0.1960959 -37.57  0.001208456    1.665    0.399
       307 -12.6690    151.5334     81.4933   2.2832155811e+01   3.5107934707e+01    0.3838331    0.2950662  -3.36  0.001477099    1.814    0.449
       308 -11.4264     11.8839     86.9145   7.3931848758e+01   5.9140660523e+01    0.2173545    0.1622969 -47.50 0.0003891605    1.229    0.186
       309 -11.0591    100.5412     86.4585   3.7715263038e+01   4.6092610717e+01    0.1571539    0.1545211 -27.30 7.021533e-05    1.029    0.028
       310 -11.1139    170.2192     84.0279   1.9905298769e+01   3.0196999547e+01    0.2042246    0.1164587 -37.98 0.0008642776    1.651    0.394
       311 -11.5802    133.7972     84.0758   2.7631765744e+01   3.8888575865e+01    0.3475907    0.2233628  40.98  0.001209619    1.717    0.418
       312 -11.4785    164.6454     83.3175   2.0743730925e+01   3.1635623923e+01    0.1615442    0.1132544 -72.18 0.0007046062    1.746    0.427
       313 -13.2360     66.8768     82.6730   4.8586466482e+01   5.3651955223e+01    0.3961077    0.2794602  52.06  0.001646687    1.616    0.381
       314 -12.2790     88.4096     79.5185   3.9474090385e+01   5.0239990530e+01    0.4398841    0.2526093 -37.02  0.001757983    1.866    0.464
       315 -11.5425      4.4965     79.9302   7.6174061937e+01   6.1391900049e+01    0.2179653    0.1949606  -9.64 0.0006320991    1.255    0.203
       316 -12.0313      8.5561     78.2753   7.3935379942e+01   6.1600831207e+01     0.271097    0.2366749 -58.25 0.0007534248    1.023    0.022
       317 -12.4211    111.8286     77.9007   3.1488027138e+01   4.5367043787e+01    0.4685176    0.3290992 -83.29 0.0006797975    2.136    0.532
       318 -11.4323    102.2271     77.0762   3.4089219534e+01   4.7750931929e+01    0.2204868    0.2051808 -10.29 0.0003008372    1.151    0.131
       319 -12.3099    117.3730     75.6772   2.9191783763e+01   4.4504419025e+01    0.4494945     0.267495  65.93  0.001551125    2.109    0.526
       320 -12.0802    105.8969     73.4097   3.1712712307e+01   4.7664530790e+01    0.3939639    0.2757849  68.47  0.001164213    1.745    0.427
       321 -12.4009     68.7655     72.1326   4.4301115575e+01   5.5769883635e+01    0.2548685    0.2257124  31.03 0.0006311449    1.150    0.131
       322 -11.8357     71.5187     69.4585   4.2241424398e+01   5.5847149033e+01    0.3060718    0.2098808   3.63 0.0006430114    2.156    0.536
       323 -13.4854     54.7236     68.7841   4.9107028356e+01   5.8951009384e+01    0.3670931    0.2819445 -39.23 0.0005744902    1.246    0.198
       324 -12.3752    189.1782     70.4750   1.3139218874e+01   2.8119108333e+01    0.2553359    0.2144208 -49.03 0.0002884543    1.061    0.058
       325 -12.5731     61.2340     70.9952   4.7032805836e+01   5.7366401006e+01    0.3089157    0.1496874 -52.58  0.001202428    2.070    0.517
       326 -11.3185    154.4692     68.0710   1.8225241978e+01   3.6795017494e+01    0.2224881    0.2006537  73.87 0.0005600824    1.113    0.102
       327 -11.7735     48.6704     67.4449   5.1410741407e+01   6.0193223371e+01     0.402196    0.2642695 -18.75  0.001790671    1.935    0.483
       328 -12.1062      2.7903     72.0984   7.5652189015e+01   6.3487482870e+01    0.2750142    0.1435958 -53.31  0.001350245    1.565    0.361
       329 -11.5669     12.4594     59.8076   6.7760450008e+01   6.5991387425e+01      0.24441     0.180335  39.13 0.0009359018    1.599    0.374
       330 -11.9427      8.6856     67.1542   7.1610338134e+01   6.4424086202e+01    0.2907712    0.1997181  18.72  0.001117388    1.631    0.387
       331 -11.7490      9.9533     63.2916   7.0034045221e+01   6.5306041293e+01    0.2632716    0.1657599 -55.14 0.0005395966    1.323    0.244
       332 -12.3495    173.2801     62.6292   1.3378035709e+01   3.3097008732e+01    0.2562956    0.2263899 -58.60 0.0003200051    1.028    0.027
       333 -11.1836    124.9809     62.4144   2.2742126777e+01   4.5127334548e+01    0.3063954    0.1503986  66.24  0.001088349    2.506    0.601
       334 -12.6784    103.8397     59.3747   2.7294372049e+01   5.0840622280e+01    0.2676355    0.2579102 -35.96  0.000281974    1.057    0.054
       335 -12.0172     42.0819     58.7200   5.1470946939e+01   6.3129678399e+01    0.4371734    0.2552977 -42.89  0.002033164    1.601    0.376
       336 -11.6588    180.8464     59.1200   1.1268250299e+01   3.1836044548e+01    0.2202286    0.1761232 -67.22 0.0004203227    1.189    0.159
       337 -12.8459    111.4413     56.3019   2.4023221712e+01   4.9541007471e+01    0.3473699    0.1785423 -43.07 0.0009348853    1.983    0.496
       338 -11.4991    153.8064     57.5974   1.5142855885e+01   3.8684452855e+01    0.2105048    0.1393157  78.92 0.0009472335    1.674    0.403
       339 -12.7206     36.8985     54.7089   5.2632534122e+01   6.4724338143e+01    0.5225136    0.2374022 -44.43  0.002006477    2.028    0.507
       340 -11.4303     40.8353     53.1085   4.9948639807e+01   6.4535860204e+01    0.1959791    0.1931394  89.60  0.000337458    1.219    0.180
       341 -11.6953     31.2844     56.3929   5.6256876931e+01   6.5042828230e+01    0.1864686    0.1261195  35.11 0.0009462619    1.614    0.380
       342 -12.6275     24.0903     55.1697   5.9800770467e+01   6.6103885909e+01     0.324509    0.2173378 -13.25  0.001058963    1.650    0.394
       343 -12.4123     19.8592     53.0959   6.1519221695e+01   6.6987246450e+01    0.2468443    0.1846762 -77.02 0.0004424135    1.606    0.378
       344 -12.9047    114.9341     48.8816   2.0374277760e+01   4.9895302832e+01    0.4193057    0.2640263 -12.82  0.001059099    2.268    0.559
       345 -11.6580    161.1782     52.8502   1.2439786758e+01   3.7574533195e+01    0.1894523    0.1734375  28.56 0.0003532222    1.318    0.241
       346 -11.7108    120.3355     51.9609   2.0186861147e+01   4.8048712304e+01    0.2076045    0.1915655 -41.79 0.0004029858    1.112    0.100
       347 -12.0576    174.0321     50.6601   9.8599167217e+00   3.4733190644e+01     0.380329    0.2162858 -75.85  0.001592155    2.265    0.558
       348 -13.2068     30.1328     49.5908   5.4354160028e+01   6.6695451682e+01    0.3213742    0.2893769 -77.15  0.001080557    1.379    0.275
       349 -12.2696     19.3466     47.8333   5.9994120352e+01   6.8230954394e+01    0.3212619    0.1621145 -46.11  0.001149839    1.702    0.412
       350 -12.6081    115.5457     42.9236   1.7992668063e+01   5.0647634486e+01    0.2659154    0.2566813 -70.46 0.0004017434    1.053    0.051
       351 -11.8315    119.4767     40.0924   1.6031382159e+01   5.0055833347e+01    0.2920868      0.25214 -15.04   0.00100218    1.309    0.236
       352 -10.9656    194.5339     43.5457   5.3605940629e+00   3.0873459318e+01    0.1354952    0.1177656 -62.58 0.0008076739    1.035    0.033
       353 -12.6448    100.1926     49.8881   2.4730878215e+01   5.3358851715e+01     0.371374    0.2751629 -76.07  0.001678418    1.806    0.446
       354 -12.0713     87.9374     39.8415   2.4319464316e+01   5.7866452081e+01    0.2593499    0.2114051 -30.27 0.0008693802    1.278    0.218
       355 -12.4428     34.3234     40.1202   4.7949315354e+01   6.8128457381e+01    0.3241742    0.1767334  20.53  0.001481265    2.068    0.516
       356 -11.7191     80.4577     35.9065   2.5031738624e+01   6.0184586771e+01    0.4424948     0.206917 -43.21  0.001779087    2.380    0.580
       357 -13.2672     27.8567     36.0636   4.9891575624e+01   6.9782085657e+01    0.3465046    0.1845741 -44.09   0.00168634    1.729    0.422
       358 -12.6746     31.6107     31.9959   4.5616689671e+01   7.0056608111e+01     0.307299    0.2462912 -35.33  0.001165835    1.204    0.169
       359 -10.9504      9.5518     36.4964   6.2033547804e+01   7.1548320210e+01    0.1301156    0.1072101 -32.84 0.0001223553    1.008    0.008
       360 -12.0051     95.6366     33.9318   1.9485498958e+01   5.6879464970e+01    0.2480583    0.1985612  62.46 0.0003044238    1.215    0.177
       361 -10.7175     52.6302     34.2921   3.5495908969e+01   6.6220818451e+01    0.1316338    0.1122386  81.76 0.0007025735    1.720    0.419
       362 -10.6040      1.2927     34.3115   6.7013818446e+01   7.2562366262e+01    0.1353023    0.0732948 -35.87 0.0002397415    1.590    0.371
       363 -11.6276    218.7488     32.9592   4.6251374825e-01   2.6895358720e+01    0.1983342    0.1600667 -78.05 0.0004133786    1.160    0.138
       364 -11.8695    120.4478     32.5759   1.3011253778e+01   5.0815179088e+01    0.2474459    0.2181173  72.52 0.0006406389    1.062    0.059
       365 -11.8018    106.8479     32.3180   1.5920174574e+01   5.4312471246e+01    0.2446026    0.1927143 -49.37 0.0007743256    1.360    0.265
       366 -11.4491     14.6768     33.0992   5.7100198992e+01   7.1827509933e+01    0.1818039    0.1434431 -32.01 0.0003869713    1.078    0.072
       367 -11.0131    238.0000    248.9425   4.1753560204e+01  -8.0170342763e+00    0.1605457   0.05086843 -35.18 0.0008045785    2.957    0.662
       368 -11.6432     77.7671     30.5823   2.3478244569e+01   6.1561022906e+01    0.1862271    0.1330683  64.42 0.0002891035    1.531    0.347
       369 -12.1067     62.7520     28.8928   2.8267569535e+01   6.5073437144e+01    0.2731836     0.166385  59.00  0.001271268    1.924    0.480
       370 -10.8673     19.4324     28.1803   5.1497460232e+01   7.2311563674e+01    0.1646094    0.1200374 -56.83 0.0007362833    1.619    0.382
       371 -12.0453     69.1863     25.7185   2.4144169633e+01   6.4139988986e+01    0.2124675    0.1728376  68.87  0.000635418    1.431    0.301
       372 -11.6244      1.5474     25.6660   6.3479064421e+01   7.4382802403e+01    0.1915412    0.1395572 -60.97  0.001172768    1.428    0.300
       373 -12.7830     85.0363     24.1152   1.8133236440e+01   6.0702506512e+01    0.2949638    0.2146429 -41.90 0.0007187618    1.518    0.341
       374 -12.3279     70.0665     21.4399   2.1645033355e+01   6.4492050372e+01    0.2774046    0.1946812 -27.10 0.0006490345    1.504    0.335
       375 -10.7630    122.3297     21.2852   8.4106777795e+00   5.1659189144e+01    0.1445579   0.09819247  41.16 0.0004356845    1.613    0.380
       376 -10.7786     60.4891     20.5026   2.4770002929e+01   6.6690751949e+01    0.1357002    0.1211611  25.41 0.0001494172    1.008    0.008
       377 -10.7450     98.3435     19.6821   1.2637279951e+01   5.7948919248e+01    0.1444144    0.1031686 -69.88 0.0007049051    1.718    0.418
       378 -12.2008    114.7323    247.5978   6.5124019191e+01   7.2483590624e+00     0.348677    0.1430631 -48.47  0.001653965    2.922    0.658
       379 -10.8418     92.3132     17.6799   1.3201547406e+01   5.9659415550e+01    0.1392138     0.103288 -68.25 0.0007038262    1.652    0.394
       380 -11.3900     66.8484     16.1905   2.0028731289e+01   6.5826891682e+01    0.1867438     0.179664  64.76 0.0003780722    1.177    0.151
       381 -10.7399    214.7362    247.3451   4.5436531235e+01  -5.3601837850e+00   0.09185343   0.08425552   3.98 0.0003293765    1.603    0.376
       382 -12.0430     98.0172    246.8541   6.8621896467e+01   9.5912353251e+00     0.309384      0.14607  31.53 0.0009068276    1.744    0.427
       383 -10.9098    131.6360    244.2920   6.1157612020e+01   5.5323952552e+00    0.1255784   0.08329243  50.42 0.0007027854    1.706    0.414
       384 -11.5300    124.9171    249.3692   6.3173704827e+01   5.5973855108e+00    0.2009931    0.1679284 -27.54 0.0006260423    1.402    0.287
       385 -11.6332    126.3865    241.5642   6.1938728773e+01   6.7017454213e+00    0.1958507     0.178372  38.52 0.0005203644    1.174    0.148
       386 -15.2747     45.0528    217.4931   7.7961942143e+01   2.2142610668e+01     2.329012     1.058615 -86.03   0.01056234    2.544    0.607
       387 -11.2287    167.3185    240.4296   5.3305596092e+01   1.3658210908e+00    0.1568964    0.1499925  86.11 0.0001977574    1.611    0.379
       388 -10.6281    181.2212    240.3218   5.0561213495e+01  -4.1743689736e-01    0.1146984    0.0764006  -7.80 0.0001583627    1.497    0.332
       389 -11.1886    248.3182    248.0065   3.9964375329e+01  -8.9294362705e+00    0.1467367   0.09945704  -9.80 0.0004172312    1.093    0.085
