#   1 NUMBER                 Running object number                                     
#   2 MAG_AUTO               Kron-like elliptical aperture magnitude                    [mag]
#   3 X_IMAGE                Object position along x                                    [pixel]
#   4 Y_IMAGE                Object position along y                                    [pixel]
#   5 X_WORLD                Barycenter position along world x axis                     [deg]
#   6 Y_WORLD                Barycenter position along world y axis                     [deg]
#   7 A_WORLD                Profile RMS along major axis (world units)                 [deg]
#   8 B_WORLD                Profile RMS along minor axis (world units)                 [deg]
#   9 THETA_WORLD            Position angle (CCW/world-x)                               [deg]
#  10 FWHM_WORLD             FWHM assuming a gaussian core                              [deg]
#  11 ELONGATION             A_IMAGE/B_IMAGE                                           
#  12 ELLIPTICITY            1 - B_IMAGE/A_IMAGE                                       
         1 -14.9130    157.4312     49.4225   8.1698809355e+01   3.9703234467e+01     1.346918     1.147921 -21.84  0.003557612    1.137    0.120
         2 -14.9997    167.7303     18.0414   6.8651512253e+01   4.1106426195e+01     1.719987     1.198705 -80.79  0.006020273    1.869    0.465
         3 -14.3972    188.7685     13.6817   6.4100039398e+01   3.5986950647e+01     1.551315     0.831561 -56.74  0.006193934    2.384    0.581
         4 -13.4854    197.0715      6.8895   6.0893052565e+01   3.4447076921e+01    0.8492912    0.3935324 -37.35  0.003507862    2.090    0.522
         5 -10.5213     20.8306    180.5541   1.4079568130e+02   3.5207269981e+01    0.2480399    0.1022334  79.40  0.001207018    2.390    0.582
         6 -20.4548     83.1717    179.0971   1.2852139762e+02   2.8665675735e+01     12.59079     5.951092 -67.35   0.06783471    2.260    0.557
         7 -12.9600    204.1011    174.6937   1.0414077035e+02   9.8501058423e+00    0.4795462    0.3919946 -70.58  0.002044554    2.147    0.534
         8 -11.5845    207.6739    171.5765   1.0292586853e+02   9.6303482033e+00    0.3237079    0.2117782 -49.26  0.001453928    2.263    0.558
         9 -12.9246    195.8159    173.7506   1.0547414244e+02   1.1432764759e+01    0.7034859    0.3939057 -48.83  0.003265555    2.570    0.611
        10 -13.0630    189.9041    155.6411   1.0315331093e+02   1.5093957424e+01    0.5006672     0.458795  31.18  0.001653146    1.138    0.122
        11 -12.7132    192.4611    164.7269   1.0442794534e+02   1.3295034251e+01    0.3269014    0.2555342  -1.43 0.0006865758    1.328    0.247
        12 -12.8854    189.9448    160.9853   1.0418927818e+02   1.4297334641e+01    0.3658917    0.3076648  64.44  0.001499242    1.560    0.359
        13 -12.8702    230.4858    167.3241   9.8148569211e+01   6.1716724856e+00    0.3719547    0.2066825 -38.88  0.001926732    2.213    0.548
        14 -10.1006      9.8395    168.2522   1.4221608771e+02   3.8411686847e+01    0.1186785   0.09979583 -82.99 0.0003811893    1.296    0.228
        15 -12.2664    167.3569    241.7907   1.2028657278e+02   7.4501527636e+00    0.3786252    0.2280539 -18.84  0.002055604    2.863    0.651
        16 -12.1541    164.1777    239.1861   1.2051170489e+02   8.1971492762e+00    0.2886991    0.1819125  54.47  0.001282131    1.673    0.402
        17 -11.4679     22.6867    156.1580   1.3891285026e+02   3.9689157531e+01     0.197915    0.1502552  62.67 0.0006601771    1.163    0.140
        18 -10.9312    162.0173    244.4492   1.2144256252e+02   7.9053106982e+00    0.1385046    0.1188017  34.86 7.657308e-05    1.184    0.156
        19 -12.7747    161.1575    152.9270   1.0834378905e+02   2.0903689086e+01    0.3014989    0.2703676  30.71 0.0009111494    1.011    0.011
        20 -12.1432    174.0964    148.5622   1.0484515336e+02   1.9190206207e+01    0.3785363    0.3046125 -48.80  0.001375684    1.461    0.315
        21 -10.7507      8.6813    149.2849   1.4139638163e+02   4.2178079801e+01    0.1637867    0.1159738  78.55 0.0003750216    1.090    0.082
        22 -12.4833     10.9304    144.1970   1.4060027572e+02   4.3031825805e+01    0.3060891    0.2274132 -38.34  0.001851544    1.969    0.492
        23 -10.9783      9.6582    237.0063   1.4498119923e+02   2.6916953331e+01    0.1010632   0.05463019  69.89 0.0003807727    1.348    0.258
        24 -11.7042     27.8859    231.1609   1.4203391272e+02   2.6127772034e+01    0.1399291    0.0963725  76.47  0.001224713    1.191    0.161
        25 -10.7905    171.0436    137.4869   1.0316625031e+02   2.1613681736e+01    0.2126971    0.1301346  44.94 0.0006970803    1.551    0.355
        26 -12.9670    160.6908    128.0460   1.0329186828e+02   2.5310025760e+01    0.4408827    0.3691359 -53.92  0.001613509    1.363    0.266
        27 -13.3288    207.7706    224.4290   1.1149135805e+02   3.4244743986e+00    0.3484108    0.2280684 -30.72  0.001451913    1.881    0.468
        28 -10.3046      6.7142    227.6536   1.4512858483e+02   2.8565704397e+01   0.07424754   0.06306561 -74.82 0.0007020027    1.650    0.394
        29 -11.3648     32.2737    222.2824   1.4094947927e+02   2.7066819023e+01    0.1449883    0.1248401 -78.79 0.0006955626    1.505    0.335
        30 -10.9381     26.3203    220.9749   1.4184214056e+02   2.7841680832e+01    0.1224232   0.08589697  86.55  0.000560286    1.289    0.224
        31 -11.1498    167.5956    112.8626   9.8215431462e+01   2.6577003120e+01    0.3360041    0.2659881 -69.90  0.001273096    1.748    0.428
        32 -10.5380    217.5688    218.0414   1.0897098788e+02   2.6161900944e+00    0.1435183    0.1039137 -20.45 0.0005784869    1.572    0.364
        33 -10.9107    205.4536    110.1816   8.9971016807e+01   1.8838353587e+01    0.3138446    0.1947212  38.62  0.001013317    1.575    0.365
        34 -10.9833     31.5041    104.5141   1.3178703251e+02   4.9896840691e+01    0.2025718    0.1866484 -27.26 0.0008588299    1.378    0.274
        35 -11.3045     35.1761    103.1688   1.3057592325e+02   4.9877661590e+01    0.2055585    0.1933474 -24.67 0.0007480434    1.340    0.254
        36 -11.1763     24.8662    214.4748   1.4178695562e+02   2.9011351639e+01     0.122939   0.08906879  63.67 0.0003110794    1.053    0.050
        37 -10.5894     20.7910    210.6772   1.4228524718e+02   3.0002541580e+01    0.1106293   0.07895532  85.79 0.0003508682    1.236    0.191
        38 -13.9050     11.5975    205.6320   1.4358808397e+02   3.1644271870e+01    0.3581185     0.297722 -66.86  0.002744483    1.644    0.392
        39 -13.0776     53.8472     91.5912   1.2318761142e+02   5.0630315434e+01    0.4135239    0.3457401  33.19  0.001355665    1.387    0.279
        40 -11.2034    142.3829     82.3544   9.5768275849e+01   3.7631763078e+01     0.333006     0.231267 -19.94  0.001503336    1.637    0.389
        41 -11.2373     23.7354    191.1854   1.4084122225e+02   3.3040293902e+01    0.1658356    0.1360605 -62.30   0.00116399    1.609    0.379
        42 -11.1148     15.3528    187.6830   1.4216167888e+02   3.4400686264e+01    0.1180465    0.1062479 -81.69 0.0004628062    1.428    0.300
        43 -10.8103    105.0449     82.1031   1.0560231093e+02   4.5226607577e+01    0.2104774    0.2001211 -37.39  0.000338552    1.010    0.010
        44 -14.6904    146.9234     63.7701   8.8885769935e+01   3.9936411756e+01     1.240102      1.16252 -11.10   0.00109787    1.018    0.018
        45  -9.8056     32.1668    249.5633   1.4213882219e+02   2.3051936670e+01   0.08705282   0.04370355  71.88 0.0005754832    1.665    0.399
        46 -13.5608    161.5824     40.2408   7.7659166264e+01   3.9982231260e+01    0.5476174     0.521345   6.88 0.0008366641    1.016    0.016
        47 -11.3505     13.3861     59.9067   1.3067603671e+02   6.1272296219e+01    0.1992715    0.1677098 -88.36 0.0004292932    1.221    0.181
        48 -11.0598     26.0656     58.9039   1.2578249204e+02   6.0642159172e+01    0.3855362    0.1829118   6.89  0.001788687    3.383    0.704
        49 -13.2480    210.3719    242.3568   1.1348793849e+02   1.2840521228e+00    0.3975912    0.2496695   4.59  0.002755038    1.840    0.456
        50 -10.6303    148.9562    247.7445   1.2388495094e+02   9.3422708552e+00    0.1847057    0.1233216  23.46  0.001324432    1.671    0.401
