#   1 NUMBER                 Running object number                                     
#   2 MAG_AUTO               Kron-like elliptical aperture magnitude                    [mag]
#   3 X_IMAGE                Object position along x                                    [pixel]
#   4 Y_IMAGE                Object position along y                                    [pixel]
#   5 X_WORLD                Barycenter position along world x axis                     [deg]
#   6 Y_WORLD                Barycenter position along world y axis                     [deg]
#   7 A_WORLD                Profile RMS along major axis (world units)                 [deg]
#   8 B_WORLD                Profile RMS along minor axis (world units)                 [deg]
#   9 THETA_WORLD            Position angle (CCW/world-x)                               [deg]
#  10 FWHM_WORLD             FWHM assuming a gaussian core                              [deg]
#  11 ELONGATION             A_IMAGE/B_IMAGE                                           
#  12 ELLIPTICITY            1 - B_IMAGE/A_IMAGE                                       
         1 -14.8495    156.9302     49.5699   8.1998831514e+01   3.9530191073e+01     1.232816     1.117941 -21.58  0.003507544    1.078    0.072
         2 -14.9698    166.9892     18.4073   6.9774687674e+01   4.0857029413e+01     1.685569     1.095682 -79.35  0.006017985    1.878    0.468
         3 -14.1738    190.1741     14.6886   6.5797944936e+01   3.5389445905e+01    0.5940154    0.4929069 -58.10  0.002031042    1.192    0.161
         4 -14.2262    173.6401      3.7040   6.4102426648e+01   4.0537819245e+01     1.267991    0.4960212  86.95  0.004414785    3.416    0.707
         5 -10.4931    148.9782    247.4276   1.2545487421e+02   8.0439462422e+00     0.157147    0.1261306   7.29 0.0004482174    1.267    0.211
         6 -20.4879     83.7375    179.7406   1.3128649551e+02   2.7551217911e+01     13.59867     6.685995 -65.95   0.06721365    2.283    0.562
         7 -12.9079    189.9476    160.9838   1.0442437191e+02   1.4244347098e+01    0.3457191    0.3030353  50.22  0.001450435    1.502    0.334
         8 -13.3689    230.1490    168.2535   9.8554034068e+01   6.8003750544e+00    0.4472201    0.2412609 -27.01  0.002458451    1.706    0.414
         9 -11.1424    167.4446    241.5046   1.2142247177e+02   6.4254107993e+00    0.1714867     0.146262   0.24 0.0005455425    1.266    0.210
        10 -11.8790     27.7960    231.1229   1.4695887525e+02   2.4207867527e+01    0.1593817    0.1307098  69.32 0.0009603525    1.178    0.151
        11 -13.4471    196.1774    229.5465   1.1471363784e+02   4.1170556585e+00    0.3278507    0.2053268 -18.00  0.002098531    1.700    0.412
        12 -12.9524    207.7168    224.1474   1.1191863868e+02   3.2303880918e+00    0.3493167    0.1852651 -33.97  0.001356279    2.148    0.534
        13 -11.6913     22.8852    156.1097   1.4404952306e+02   3.9120398089e+01    0.2177528    0.1980744  61.69 0.0005613434    1.122    0.108
        14 -12.9995    160.8337    153.0042   1.0888637178e+02   2.0602739753e+01    0.3897984    0.2846357  34.06  0.001450172    1.272    0.214
        15 -12.2170    174.1680    148.4257   1.0507912711e+02   1.9010212901e+01    0.3526919    0.3028126 -42.48  0.001465336    1.360    0.265
        16 -11.1514     32.4210    222.1388   1.4569230635e+02   2.5294713137e+01    0.1529847    0.1488577 -65.58  0.000711539    1.406    0.289
        17 -11.2848    171.1738    137.8112   1.0343684682e+02   2.1372103094e+01    0.2011458    0.1934805  20.89 0.0005579347    1.184    0.156
        18  -9.8511     26.4461    220.4893   1.4676846671e+02   2.6125751094e+01   0.09983086   0.08340073  55.14 0.0008050382    1.128    0.113
        19 -11.6327    163.5388    238.1997   1.2173285814e+02   7.3326405375e+00    0.2648194    0.1713796  42.20  0.001142922    1.529    0.346
        20 -10.9566     24.9149    214.3453   1.4679933627e+02   2.7338768661e+01    0.1347113    0.1014948  48.35  0.000434325    1.092    0.084
        21 -10.7580     20.9050    210.1845   1.4741225160e+02   2.8434958792e+01    0.1197765    0.1008357 -89.28 0.0002994039    1.282    0.220
        22 -13.9034     11.7026    205.3907   1.4905280936e+02   3.0075987921e+01    0.5267276    0.3350987 -60.30  0.003673152    1.939    0.484
        23 -10.7003     23.7928    191.1686   1.4592911280e+02   3.1753062273e+01    0.1903965    0.1468298 -52.93   0.00122362    1.645    0.392
        24 -13.0960    160.7911    128.0440   1.0351046981e+02   2.5095656416e+01     0.447229    0.4133714 -59.06  0.001642555    1.320    0.243
        25 -12.5832    211.1378    240.3265   1.1363043128e+02   1.0611269634e+00    0.1952061    0.1693218 -15.03  0.001594328    1.583    0.368
        26 -10.3746     15.2734    187.8065   1.4760437887e+02   3.3125901432e+01    0.1313245    0.1081757 -70.50  0.000452419    1.382    0.277
        27 -12.0829    140.8118    120.8185   1.0653851619e+02   3.0377456830e+01    0.4726273    0.2775142  60.79  0.001831678    2.646    0.622
        28 -12.9358     37.7219    116.7451   1.3601078174e+02   4.7013384349e+01    0.5226821     0.341894 -12.18  0.001645704    2.176    0.541
        29 -10.4228    158.8365    240.8671   1.2291320384e+02   7.6078993670e+00    0.1627261    0.1178356  16.23 0.0005064132    1.203    0.169
        30 -11.1483    167.7091    112.9186   9.8314598918e+01   2.6441776694e+01    0.3445741     0.281842 -76.23  0.001220526    1.803    0.445
        31 -10.2129     40.2663    244.6744   1.4526893848e+02   2.0877268968e+01    0.1035245   0.05348149  56.40 0.0006966179    1.568    0.362
        32  -9.9601      9.5598    236.6705   1.5043715791e+02   2.4877527657e+01    0.1011785   0.06176453  51.71 0.0004517363    1.163    0.140
        33 -10.8057    205.5283    110.2067   9.0212945666e+01   1.9209982110e+01    0.2394906    0.1911532  36.56 0.0006033587    1.291    0.225
        34 -12.8864    204.0242    174.6845   1.0437275970e+02   9.9623350308e+00    0.4645931    0.3649481 -54.44   0.00205372    2.104    0.525
        35 -11.6315    207.6948    171.5993   1.0311944900e+02   9.8120556723e+00    0.3220348    0.2062327 -46.41  0.001360533    2.219    0.549
        36 -12.5620    195.7862    173.6168   1.0571865751e+02   1.1414218918e+01    0.5568266    0.3827255 -51.59  0.002349191    2.249    0.555
        37 -13.0238    189.9164    155.6468   1.0336216204e+02   1.5070231729e+01    0.4995742    0.4384803  19.18  0.001616063    1.134    0.118
        38 -11.2918    142.1930     81.8811   9.5680917416e+01   3.7655525855e+01    0.2763354    0.2236297 -19.31 0.0007128989    1.262    0.208
        39 -11.0452    105.7505     82.3228   1.0594576431e+02   4.5349940899e+01    0.2365218    0.2261042 -89.37 0.0003597403    1.186    0.157
        40 -14.7360    146.8319     64.3278   8.9044215788e+01   3.9684982670e+01     1.376194     1.210445  24.65  0.001434506    1.147    0.128
        41  -9.9126     32.1731    249.5617   1.4690355258e+02   2.0889630917e+01   0.09497143   0.05064074  65.52  0.000574943    1.668    0.400
        42 -13.5840    161.1607     40.4010   7.8126362573e+01   3.9746073783e+01    0.5276377    0.5087503 -21.50 0.0008412792    1.025    0.024
        43 -12.8048    192.6918    164.9003   1.0465620070e+02   1.3194067471e+01    0.3509173    0.2837489  -7.04 0.0007730255    1.121    0.108
        44 -11.3882     13.4476     59.8663   1.3635697721e+02   6.2900743217e+01    0.2142131    0.2046908 -77.69 0.0004070413    1.152    0.132
        45 -11.6723     26.8237     58.7037   1.2986646297e+02   6.2273256071e+01    0.3598081    0.2181076  -1.72  0.001440767    2.070    0.517
        46 -10.2451    155.6056    248.1732   1.2433621966e+02   7.1202469925e+00    0.1368644    0.1088227  17.02 0.0002729094    1.138    0.121
        47 -10.1560    157.9250    244.9513   1.2355306959e+02   7.2202257568e+00    0.1553335    0.1124452  17.91 0.0003354564    1.172    0.147
