#   1 NUMBER                 Running object number                                     
#   2 MAG_AUTO               Kron-like elliptical aperture magnitude                    [mag]
#   3 X_IMAGE                Object position along x                                    [pixel]
#   4 Y_IMAGE                Object position along y                                    [pixel]
#   5 X_WORLD                Barycenter position along world x axis                     [deg]
#   6 Y_WORLD                Barycenter position along world y axis                     [deg]
#   7 A_WORLD                Profile RMS along major axis (world units)                 [deg]
#   8 B_WORLD                Profile RMS along minor axis (world units)                 [deg]
#   9 THETA_WORLD            Position angle (CCW/world-x)                               [deg]
#  10 FWHM_WORLD             FWHM assuming a gaussian core                              [deg]
#  11 ELONGATION             A_IMAGE/B_IMAGE                                           
#  12 ELLIPTICITY            1 - B_IMAGE/A_IMAGE                                       
         1 -10.9943      1.4546     25.7315   9.5898673223e+01   7.0780595602e+01    0.4736296    0.1080081 -56.86  0.001753247    4.618    0.783
         2 -14.1369    246.4942      8.8660   3.0706570296e+01   2.4561487835e+01     2.040595     1.310211 -60.29   0.01355744    1.213    0.176
         3 -11.3404     13.1854     12.7542   8.3925356004e+01   7.1927094232e+01     0.327348    0.1474753 -31.50  0.001732753    2.022    0.505
         4 -11.4421      8.5979      2.3527   8.1477345932e+01   7.3817961151e+01    0.7521101    0.2056488  28.35  0.003407148    3.581    0.721
         5 -12.2578      6.1562     11.4233   8.7354862803e+01   7.2757753419e+01    0.6775478    0.3793866 -23.85   0.00428421    1.557    0.358
         6 -11.5222     14.9015      7.3844   8.0375055758e+01   7.2508062193e+01    0.4147287    0.2254102   3.39  0.002373054    2.055    0.513
         7 -11.3658     19.5926     14.6020   8.1272853204e+01   7.1005221162e+01    0.3460383    0.1629997 -26.02  0.001828802    2.171    0.539
         8  -9.3429    149.2386      9.3950   4.0166619820e+01   4.6285809212e+01    0.1875781    0.1092964  81.67  0.000948863    1.673    0.402
         9 -12.0050     25.3924      4.5663   7.3288806297e+01   7.1645447391e+01    0.5029806    0.3162125   6.01  0.003205336    1.522    0.343
        10  -9.0254    144.6397      5.3221   3.9622427355e+01   4.7756547746e+01    0.1353317   0.08616637 -71.74 0.0007043058    1.774    0.436
        11 -12.3252     12.0500     24.7236   8.9719236756e+01   7.0165993047e+01    0.6853905    0.3098372 -20.76  0.003271779    2.749    0.636
        12 -10.9066    166.8868      3.4652   3.6297999598e+01   4.2653255652e+01    0.3148226    0.1581257  52.63  0.001409408    2.016    0.504
        13 -10.2672     40.9558      2.9037   6.5076912983e+01   6.9622848250e+01    0.3402938    0.1731266  14.86   0.00167801    2.576    0.612
        14  -8.9797    137.3712      1.7006   3.9576051377e+01   4.9789599419e+01    0.1319874    0.0859423 -74.16 0.0007030203    1.742    0.426
        15 -10.5360     56.9487    242.1608   1.1373034237e+02   1.6207545114e+01    0.4905624    0.1669684  52.07  0.002121793    2.622    0.619
        16 -11.3028    248.0042    215.1026   7.1382525114e+01  -7.3414539801e+00    0.6103113    0.2630685 -28.43  0.002965427    2.297    0.565
        17 -10.1157    245.0374    229.9839   7.4421325512e+01  -9.0535213924e+00    0.2559671    0.1530371 -13.89  0.001165669    1.641    0.390
        18 -11.1982    248.0871    224.6424   7.3007309613e+01  -8.6977018315e+00    0.4724655    0.3001544  -9.23  0.002909901    1.510    0.338
        19 -10.5742    249.6314    232.8633   7.4125855628e+01  -1.0002560661e+01     0.363753     0.196314 -27.27  0.002165549    1.658    0.397
        20 -11.2029    243.0835    245.8477   7.7341605811e+01  -1.0916134985e+01    0.5811066    0.2690531 -22.31  0.003064138    2.332    0.571
        21 -10.9039    247.2281    239.3658   7.5596368916e+01  -1.0571469371e+01    0.4272771     0.236769 -12.64  0.002055275    1.889    0.470
        22 -10.0385    249.5098    250.0325   7.6918891718e+01  -1.2188875136e+01    0.3874494    0.1542023  27.33  0.002051876    2.384    0.581
        23 -10.0108    248.8402    245.8559   7.6369608474e+01  -1.1591852192e+01     0.255889    0.1768734 -14.59  0.001055286    1.206    0.171
        24 -10.8296    225.6513    248.4162   8.0786183893e+01  -9.1141211182e+00    0.3433323    0.2216184   1.59  0.002147922    1.497    0.332
        25 -11.7490    211.9630    247.2594   8.3085464249e+01  -7.1777038846e+00    0.5620901    0.3166022  12.49  0.003038637    1.964    0.491
        26 -10.4665     64.9770    248.9598   1.1268691055e+02   1.3825224361e+01    0.4648449    0.1619569  48.37  0.002111514    2.337    0.572
        27  -9.8967     50.6436    250.1555   1.1559170343e+02   1.5429081389e+01    0.3418591    0.1244342  40.30  0.001661121    2.176    0.540
        28 -10.5824     36.1138    248.4137   1.1825915276e+02   1.7520454674e+01    0.4709945    0.1946789  54.44  0.002455479    1.977    0.494
        29 -10.4556     19.8740    249.1494   1.2133258254e+02   1.9197919272e+01    0.3319512    0.1799682  51.83  0.001915552    1.426    0.299
        30 -10.3512     11.8432    249.1836   1.2279193024e+02   2.0037398503e+01    0.3933238    0.1342445  46.48  0.002090467    2.130    0.530
        31  -9.9308      3.7294    250.2638   1.2428345279e+02   2.0647883634e+01      0.26393    0.1476093  28.02  0.001628009    2.216    0.549
        32 -10.9406      3.4059    243.6827   1.2405219443e+02   2.1957835205e+01    0.4096196    0.2130785  68.64  0.002563292    1.514    0.340
        33 -10.6603     29.6447    240.8750   1.1901635534e+02   1.9759986660e+01    0.4768246    0.2092683  63.52  0.002452765    2.088    0.521
        34 -10.8745     15.5237    240.5663   1.2167847401e+02   2.1353837300e+01     0.538617    0.2064641  48.56  0.002884075    1.994    0.499
        35 -11.4963    226.3722    240.4612   7.9396465697e+01  -8.1271146073e+00    0.3899967    0.2196951   2.38  0.002055706    2.180    0.541
        36 -11.7090    230.8405    234.4593   7.7625701371e+01  -7.8716973919e+00    0.4591785    0.2643552   0.67   0.00246523    2.075    0.518
        37 -10.4389     72.4420    240.3489   1.1041699847e+02   1.4517655191e+01    0.3047537    0.1490738  51.86  0.001539202    1.783    0.439
        38  -9.3336     37.8657    240.6029   1.1740180140e+02   1.8868448481e+01    0.2471088    0.1055259  49.17  0.001045074    1.869    0.465
        39  -9.9991    203.0108    240.0105   8.3623700116e+01  -4.9066702227e+00    0.2026754    0.1314902   2.62   0.00113953    1.698    0.411
        40  -9.8551    127.5961    240.2003   9.8853313558e+01   6.4330610579e+00    0.1658012     0.120596 -41.69 0.0009503876    1.649    0.394
        41  -9.3109     64.6397    240.3002   1.1201414357e+02   1.5577369140e+01     0.136026   0.07433791  60.68 0.0004373642    1.717    0.417
        42 -10.7150    168.5622    249.6393   9.1759929450e+01  -1.4041339371e+00    0.4874264    0.1313262  32.84  0.001720341    3.666    0.727
        43 -10.7617    107.7907    241.1087   1.0312420706e+02   9.2807082325e+00    0.3507689    0.1174708  48.47  0.001341162    2.953    0.661
        44  -9.9355    119.9975    239.0000   1.0029981368e+02   7.8253813732e+00    0.2228814   0.06467301  36.58  0.000807283    2.976    0.664
        45  -9.6480     45.0202    237.4886   1.1575944109e+02   1.8645445442e+01    0.2372377    0.1237581  62.23  0.001275447    1.733    0.423
        46 -10.4006      6.1138    236.2168   1.2320935910e+02   2.3181270168e+01    0.3144356    0.1599616  66.82  0.001449312    1.586    0.370
        47 -10.1661     94.5528    235.8865   1.0532670378e+02   1.2267027362e+01    0.2861819    0.1335864  49.66  0.001333414    1.950    0.487
        48  -9.7661    205.4064    232.7968   8.2015395586e+01  -4.1592530698e+00    0.1741774    0.1054317 -26.18 0.0009539715    1.724    0.420
        49 -10.0227     13.7761    232.0823   1.2154764431e+02   2.3259660480e+01    0.3475616    0.1777564  53.61  0.002056058    1.566    0.362
        50 -10.3000     39.3043    231.3775   1.1645600721e+02   2.0595865977e+01    0.3409771    0.1271336  59.23  0.001479691    2.705    0.630
        51 -10.4247     26.0279    230.0391   1.1903064962e+02   2.2388370521e+01    0.2904254    0.1512344  88.52  0.001603742    1.799    0.444
        52 -10.7513    216.6115    227.8371   7.9100640919e+01  -4.9923940582e+00    0.4293644    0.2277796 -39.84  0.002298755    1.927    0.481
        53 -10.5638      4.5757    228.4106   1.2311244660e+02   2.4928251021e+01    0.3858967    0.1817948  66.66  0.002177527    1.775    0.437
        54 -10.7898    236.1763    227.5033   7.5530380426e+01  -7.5840450490e+00    0.3269218     0.185391 -22.84  0.001787846    1.710    0.415
        55  -9.9110     32.1897    229.3992   1.1775346825e+02   2.1835379860e+01    0.1790159   0.08433281  47.51 0.0009479899    1.749    0.428
        56  -9.8766     11.1547    226.3103   1.2173433342e+02   2.4725082095e+01    0.2979899    0.1516006  56.66  0.001444035    1.598    0.374
        57 -10.2833     18.5237    222.1508   1.2002804456e+02   2.4859287024e+01    0.2520618    0.1411644  62.54  0.001326119    1.495    0.331
        58 -10.3553      2.0500    220.6863   1.2320734948e+02   2.6784066545e+01     0.305814    0.1393787 -86.93  0.001575494    1.885    0.469
        59 -10.5680    238.5015    218.0700   7.3515655228e+01  -6.5300368460e+00    0.3518969    0.1819247 -25.45  0.001849635    1.919    0.479
        60  -9.2799     43.9730    221.0000   1.1467046304e+02   2.2252320480e+01    0.1982777   0.06479795  33.10 0.0008052322    2.962    0.662
        61  -9.8093    227.5035    218.9883   7.5612580638e+01  -5.1750311196e+00    0.1795562   0.09128036 -18.57 0.0008105055    2.562    0.610
        62 -10.6464     12.2814    217.0584   1.2097522017e+02   2.6586000514e+01    0.3794547    0.2008781  70.57  0.002147321    1.636    0.389
        63  -9.6035     56.2041    216.2577   1.1159805003e+02   2.1763048849e+01    0.2569749    0.1329347 -67.68 0.0004631842    1.907    0.476
        64  -8.9666     24.3216    217.6695   1.1854684827e+02   2.5217677308e+01    0.1336868   0.07021751  64.55 0.0007049224    1.695    0.410
        65 -10.5819      2.3218    213.0608   1.2275322100e+02   2.8392866324e+01    0.3037392    0.1564297  74.59  0.001728121    1.649    0.394
        66  -9.8408    153.2447    211.7893   8.9196814806e+01   7.6826641134e+00    0.2116191    0.2004411  38.86 0.0004990249    1.069    0.064
        67  -9.0141     28.3360    211.6916   1.1726768355e+02   2.6102553339e+01    0.1352413    0.0730723  63.66 0.0004117867    1.677    0.404
        68  -9.9067    246.9993    205.6861   6.9891383605e+01  -5.8308982972e+00    0.2793109    0.1697685 -21.00  0.001601482    1.549    0.354
        69 -10.1875    250.4048    200.7889   6.8449165146e+01  -5.5530848653e+00     0.389764     0.158845 -33.30  0.001846261    2.212    0.548
        70 -10.8852    123.9942    206.0040   9.4832931902e+01   1.3806799996e+01      0.19751    0.1821709  47.56  0.001158393    1.006    0.006
        71 -11.3174     12.3041    204.4741   1.2017872792e+02   2.9358087819e+01    0.4810715    0.1804242  48.47  0.002331053    2.275    0.560
        72 -10.6475    243.1096    199.7429   6.9474863312e+01  -4.4012066106e+00    0.3039278    0.1365573 -29.73  0.001431897    2.184    0.542
        73 -10.9188      3.6200    197.4497   1.2158357356e+02   3.1734653127e+01    0.3640748    0.1821731  75.21  0.001947984    1.791    0.442
        74 -10.8978    246.5226    192.6011   6.7597869042e+01  -3.7705234341e+00    0.3084771    0.1555694 -34.06   0.00159538    1.738    0.425
        75  -9.0554     11.3080    191.3357   1.1949429372e+02   3.2447608180e+01    0.1185669   0.08411648 -53.01 0.0007042148    1.676    0.403
        76 -10.2899      3.8105    188.8631   1.2099506066e+02   3.3679098114e+01    0.2264305    0.1542159  59.53  0.001261254    1.308    0.235
        77 -10.0404    249.5967    184.9972   6.5683928791e+01  -3.0123671446e+00    0.2822686    0.1038193 -38.63  0.001187697    2.355    0.575
        78  -9.6445     11.5182    183.4855   1.1886650564e+02   3.4262040967e+01     0.126226     0.100264  83.60 0.0004891602    1.005    0.005
        79 -10.1290      1.8787    178.5628   1.2073549688e+02   3.6233986331e+01    0.2855587    0.1322579 -85.48   0.00144108    1.839    0.456
        80 -10.1956    245.5964    157.7680   6.1085950800e+01   2.0335317005e+00    0.1893761    0.1065191 -45.93 0.0009528667    1.675    0.403
        81  -9.6489      3.5961    155.1838   1.1850620227e+02   4.1686620123e+01    0.1869901   0.09066446 -66.07 0.0009301566    1.705    0.414
        82 -10.7391    249.7637    151.4501   5.9192145125e+01   2.4333687194e+00    0.2594035    0.1545372 -38.81 0.0009621414    1.413    0.292
        83  -8.5003    182.2253    144.0649   6.9677931135e+01   1.6158930605e+01    0.1807945    0.1186043 -41.61 0.0002907791    1.466    0.318
        84 -12.3576    248.2662    111.6840   5.1344118473e+01   9.3863369396e+00    0.6809766    0.1773183 -43.41  0.002417858    3.149    0.682
        85 -11.5452    248.3555    135.1099   5.6126610161e+01   5.4174784362e+00    0.4053241    0.2109771 -27.70  0.001848836    2.178    0.541
        86 -11.6072    248.2628    129.6311   5.5026612284e+01   6.3615633910e+00    0.3578947    0.1948252 -49.52  0.001771744    1.735    0.424
        87  -9.6273    242.3203    134.3263   5.6859918820e+01   6.5787045562e+00    0.1316657   0.09855545  -8.87 0.0005715436    1.682    0.405
        88  -9.7554     91.9442     92.9950   7.9943018912e+01   4.6101433949e+01    0.2086881     0.201692 -32.92  0.001163622    1.006    0.006
        89 -11.0502    249.5497     87.7074   4.6231585483e+01   1.3076231780e+01    0.3625439     0.119094 -34.13  0.001307708    3.387    0.705
        90 -11.5931    248.7019     75.4688   4.3807372746e+01   1.5156282486e+01    0.5300433     0.140453 -46.39  0.001963833    3.106    0.678
        91 -11.2538    249.0038     64.8788   4.1603359889e+01   1.6702211211e+01    0.3268975    0.1597773 -37.27  0.001625094    1.890    0.471
        92 -10.5573    250.3907     56.1927   3.9701478035e+01   1.7702849941e+01    0.2667101   0.09564456 -41.43  0.001195108    2.262    0.558
        93 -10.0194      3.1612     52.0809   1.0309838903e+02   6.5703613465e+01    0.2004292    0.1269162 -37.38  0.001249258    1.300    0.231
        94 -10.7243    248.4687     44.3196   3.7492688516e+01   1.9740901578e+01     0.286939    0.1346206 -69.28  0.001204151    2.521    0.603
        95  -9.6612      8.0000     43.9975   9.8529637821e+01   6.7009010155e+01    0.1952865   0.05705251 -57.65 0.0008090726    2.989    0.665
        96 -10.3220      2.1821     40.9159   1.0048793153e+02   6.7960335873e+01    0.2809362    0.1123842 -50.93  0.001472022    1.897    0.473
        97 -11.3098    247.4545     33.6211   3.5447649851e+01   2.1365441583e+01    0.2886005    0.1867798  88.96  0.001777704    1.479    0.324
        98 -10.5935    127.1786    248.2858   9.9955655103e+01   5.0393589443e+00    0.4141927    0.1615543  51.93  0.001605985    3.217    0.689
        99 -10.0321     18.3626     31.1411   8.8926825718e+01   6.8529105261e+01     0.236463    0.1351532  -8.44  0.001305237    1.948    0.487
       100 -10.0452     75.7190    250.3272   1.1066422835e+02   1.2122947769e+01    0.3426879   0.08944418  37.25  0.001340041    3.069    0.674
       101 -10.5433    240.1487    239.2598   7.6785360654e+01  -9.7016756620e+00    0.2752465    0.1735837 -13.49  0.001702855    1.476    0.322
       102 -10.6236    243.4042    235.7902   7.5660950109e+01  -9.6376511022e+00    0.2697738     0.169803 -13.57  0.001325808    1.469    0.319
       103 -10.8249    192.6665    244.6783   8.6320263164e+01  -4.1404520300e+00    0.2883507    0.2063751  -4.31  0.001759442    1.462    0.316
       104 -10.1400     45.1271    245.2184   1.1630641205e+02   1.7075984396e+01    0.3277972    0.1466242  51.29  0.001729192    1.808    0.447
       105 -11.6860    143.5625    247.0596   9.6441707321e+01   2.7700579484e+00    0.5049697     0.169603  34.16  0.002021619    2.695    0.629
       106 -10.6119    158.1782    245.7302   9.3289259827e+01   7.7786288326e-01    0.3116533   0.09789712  34.71  0.001210982    2.835    0.647
       107 -10.6451    116.3745    244.8471   1.0177153546e+02   7.2899190344e+00    0.2632498     0.140518  53.05  0.001298791    1.897    0.473
       108 -10.4436     97.6211    244.3562   1.0560946476e+02   1.0167915358e+01    0.3789595    0.1369147  47.25  0.001604097    2.441    0.590
       109 -10.8314    178.3046    243.3330   8.8916927370e+01  -1.8473371919e+00    0.3305645    0.1935399   6.71  0.001566827    2.473    0.596
       110 -11.3483    234.3976    244.2748   7.8589495084e+01  -9.6584023692e+00    0.4442316    0.2512979   7.24    0.0024965    1.929    0.482
       111 -10.4731     84.2846    244.1788   1.0834597756e+02   1.2117864473e+01    0.2970323    0.1463571  39.32   0.00151037    1.716    0.417
