#   1 NUMBER                 Running object number                                     
#   2 MAG_AUTO               Kron-like elliptical aperture magnitude                    [mag]
#   3 X_IMAGE                Object position along x                                    [pixel]
#   4 Y_IMAGE                Object position along y                                    [pixel]
#   5 X_WORLD                Barycenter position along world x axis                     [deg]
#   6 Y_WORLD                Barycenter position along world y axis                     [deg]
#   7 A_WORLD                Profile RMS along major axis (world units)                 [deg]
#   8 B_WORLD                Profile RMS along minor axis (world units)                 [deg]
#   9 THETA_WORLD            Position angle (CCW/world-x)                               [deg]
#  10 FWHM_WORLD             FWHM assuming a gaussian core                              [deg]
#  11 ELONGATION             A_IMAGE/B_IMAGE                                           
#  12 ELLIPTICITY            1 - B_IMAGE/A_IMAGE                                       
         1 -13.4760     54.9257    146.5356   1.1076830424e+02   3.8610796510e+01     2.203622     1.152607 -52.48   0.01035563    1.868    0.465
         2 -15.1381     68.5648    144.1269   1.0671573387e+02   3.7433505054e+01     6.117467     2.949985  65.64  0.003571254    3.632    0.725
         3 -14.1739    198.2824     38.0571   4.7175990765e+01   3.0952707211e+01     1.439981     1.251799 -20.54  0.004406554    1.316    0.240
         4 -14.5492    208.9532     26.9249   4.2929910113e+01   2.9747500085e+01     1.483222     1.075876  -4.48  0.002599553    1.951    0.487
         5 -10.0838    120.5926      8.3595   5.0532617532e+01   5.3745914091e+01     0.405907    0.2275146 -84.02  0.001597943    3.277    0.695
         6  -9.2938    151.8486      8.7874   4.5183529973e+01   4.6019792186e+01    0.1833337    0.1479453 -77.20 0.0004210475    1.317    0.241
         7 -10.8134     60.9350      7.6821   6.7025287482e+01   6.6329310463e+01    0.1732675    0.1392472  23.87 0.0003759859    1.104    0.095
         8 -12.7223    234.9993      3.1323   3.4881859244e+01   2.6362599991e+01    0.6773751    0.3412389  60.38  0.002920462    2.088    0.521
         9 -12.1326    230.2013      2.4074   3.5073628570e+01   2.7514853542e+01    0.4347162    0.2192761  73.15  0.001862173    1.832    0.454
        10 -10.6123     29.4847      3.0395   7.8495193633e+01   7.1567704298e+01    0.1726785   0.09627953 -29.41  0.001033344    1.593    0.372
        11 -11.4520     55.7983      2.4394   6.6341950530e+01   6.7760960522e+01    0.2971256   0.09961058  44.96   0.00131193    2.676    0.626
        12 -11.2262    108.4783    203.4792   1.0594679304e+02   1.7665185445e+01    0.2498654    0.2163374  56.71   0.00134831    1.023    0.022
        13 -11.8308    139.6785    249.1443   1.0543877637e+02   4.3542750213e+00    0.3389397    0.2583352 -82.62   0.00216168    1.779    0.438
        14 -10.1531    124.8536    249.8368   1.0833626259e+02   6.5326298166e+00    0.1689228    0.1200697  57.94 0.0006103299    1.318    0.241
        15 -13.7263     47.8416    221.4933   1.2043813793e+02   2.2585805312e+01     1.401124    0.8550772  63.58  0.005910021    1.366    0.268
        16 -12.9306     16.7205    191.2425   1.2438080785e+02   3.2297974856e+01      0.31133    0.2220767  53.10 0.0005147675    1.321    0.243
        17 -14.9148     86.5130    227.1855   1.1336213951e+02   1.6306876820e+01     2.149519     1.639454  65.09  0.005166306    1.124    0.110
        18  -9.2890     97.3691    189.8430   1.0654001088e+02   2.2361743683e+01    0.1862864    0.1213239 -52.47 0.0009407452    1.670    0.401
        19 -16.5528      6.5036    208.7767   1.2741705029e+02   2.9567819111e+01     5.393514    0.7751632 -68.66   0.02042567    4.736    0.789
        20 -10.1188     71.5924    185.9909   1.1194486506e+02   2.7079388939e+01    0.2279584    0.1661656  56.74 0.0003217508    1.259    0.206
        21 -10.8203     99.1716    180.9909   1.0482534295e+02   2.4041382646e+01    0.3510938    0.2913303  -0.18  0.001891647    1.696    0.410
        22 -11.1457    145.5620    181.5806   9.4111109118e+01   1.5691022609e+01    0.3041797    0.2589895  69.04  0.001557267    1.289    0.224
        23 -10.4642    115.7526    181.3884   1.0097905502e+02   2.1156606192e+01    0.1977524    0.1326337  31.41 0.0004779279    1.615    0.381
        24 -11.7481     69.4971    176.4756   1.1123543279e+02   2.9549598461e+01     0.254666    0.2180441  60.43 0.0001074232    1.117    0.105
        25 -12.5514     73.4154    171.7590   1.0966289539e+02   3.0102532642e+01    0.5668356    0.3357413 -35.81  0.001859502    2.709    0.631
        26 -14.1345     68.3500    243.0538   1.1828196325e+02   1.5854658454e+01    0.8164532    0.4733905  73.60  0.004890903    1.699    0.411
        27  -9.9019    204.6887    176.4722   8.0441503460e+01   5.3922471775e+00    0.3308412    0.1888449 -47.74  0.001226203    2.015    0.504
        28 -11.6096    140.6487    173.3281   9.3708271553e+01   1.8359286873e+01    0.6381787    0.4287216  89.46  0.002645184    2.464    0.594
        29  -9.3534    188.6203    175.7202   8.3553140994e+01   8.5734595714e+00    0.1949434    0.1353555 -48.47 0.0009471629    1.599    0.375
        30  -9.9278     84.0147    174.6606   1.0750700973e+02   2.7872224816e+01    0.3345589    0.1714782 -52.03 0.0009196585    2.051    0.512
        31 -14.2137     58.4886    242.8963   1.2006935511e+02   1.7163109347e+01    0.6368372    0.3721221  74.64  0.002216681    1.597    0.374
        32 -17.2098      8.6630    243.3836   1.2868505204e+02   2.2708053276e+01     10.42837     5.759603 -85.30   0.01969201    1.568    0.362
        33 -15.7010     45.4679    249.7565   1.2283978495e+02   1.7531569816e+01     8.913384     2.337386  30.52   0.01994221   15.014    0.933
        34  -9.1567    187.0000    164.9499   8.1651958426e+01   1.0920954515e+01    0.2362552   0.08264805 -42.04 0.0007507915    2.892    0.654
        35 -10.6038     32.4696    165.0412   1.1871548591e+02   3.6669020549e+01    0.1949218    0.1774666 -35.89 0.0006306788    1.465    0.317
        36 -12.9510     82.7080    161.6731   1.0585780348e+02   3.1129594473e+01     1.129075    0.4919147  58.09 0.0004170352    3.292    0.696
        37 -10.8733    158.9551    162.1250   8.7226704055e+01   1.7139768059e+01    0.3520372    0.2924134 -86.92 0.0006404793    1.523    0.343
        38 -12.2983     89.6174    154.6252   1.0290687892e+02   3.1744777731e+01    0.6263759    0.4712196 -24.00  0.002287806    1.877    0.467
        39 -13.8243     71.0999    156.7503   1.0806006297e+02   3.4005901455e+01    0.5924495    0.4994548 -43.25  0.001815946    1.372    0.271
        40 -11.5485    133.6356    144.2381   8.9457697388e+01   2.6199473686e+01     1.165102    0.2984817 -54.07  0.002831863    5.275    0.810
        41  -9.1583    112.5857    150.7626   9.6213695297e+01   2.8731389840e+01    0.2021122    0.1420508 -67.69  0.000469186    1.532    0.347
        42 -10.7232    174.3862    148.6504   8.0793703803e+01   1.6744747406e+01    0.3442497    0.2949465 -77.90  0.001009559    1.438    0.305
        43 -10.8491    144.3815    146.3160   8.7255227004e+01   2.3540436505e+01    0.3466787     0.246376 -78.14  0.001470643    1.990    0.498
        44 -11.1156     40.1982    146.9265   1.1471420039e+02   4.0189377342e+01    0.2592236     0.223906  22.31 0.0009941254    1.453    0.312
        45 -10.0711     84.7110    144.0174   1.0230835167e+02   3.5090810506e+01    0.2248997     0.202522  54.59 0.0003842772    1.138    0.121
        46 -11.0563    103.1777    139.8541   9.6481023783e+01   3.3023764326e+01    0.5725033    0.3527538 -30.15  0.002300224    2.363    0.577
        47 -12.4195     90.5671    139.8618   9.9919307387e+01   3.5169185952e+01    0.2887278    0.2616924 -48.40 0.0005349299    1.144    0.126
        48  -9.4370     79.9129    140.1287   1.0290310345e+02   3.6778616408e+01    0.2106809    0.1805015  83.83 0.0002852224    1.171    0.146
        49 -11.5532    135.8647    128.2183   8.5169187067e+01   2.9390605808e+01    0.7408142    0.1715478 -49.15  0.001861063    4.556    0.780
        50 -10.5694    105.9421    130.7285   9.3757752391e+01   3.4717542737e+01    0.3556944    0.3047308 -82.16  0.001312196    1.244    0.196
        51 -11.3107     32.8669    131.0148   1.1457470967e+02   4.4790396128e+01    0.2941852    0.2089598 -71.81  0.001139841    1.174    0.148
        52 -10.4746    112.0020    130.2100   9.1975231874e+01   3.3713699858e+01    0.3305823    0.2755918  -3.72    0.0012061    1.515    0.340
        53 -13.4234     42.5882    126.2695   1.1110046142e+02   4.4982829219e+01     1.066554    0.5491493  84.76  0.004269061    2.928    0.658
        54 -12.3286     43.3795    109.0101   1.0787172223e+02   4.9116343816e+01    0.4615421    0.3224036 -67.16  0.001210243    1.258    0.205
        55 -11.0777     99.2404    126.4409   9.4669808664e+01   3.6951863399e+01    0.2905284    0.2531915 -17.78 0.0005815346    1.343    0.255
        56 -11.5487    118.9886    123.4572   8.8472894845e+01   3.3947458765e+01     0.643605    0.4053471  -9.52  0.002129147    3.528    0.717
        57 -10.2881    160.5377    127.5479   7.8937553140e+01   2.4177416131e+01    0.3565713    0.2640179 -70.04  0.001557415    1.745    0.427
        58 -10.0132    108.0986    119.1072   9.0436537163e+01   3.7082255451e+01    0.2175545    0.2117024 -44.03 0.0003163702    1.036    0.035
        59 -11.3443    111.6216    197.4742   1.0440682161e+02   1.8398118514e+01    0.3688934    0.2703561  23.08  0.001833286    1.674    0.402
        60  -9.7398    168.2553    113.1656   7.3479120702e+01   2.5439651492e+01    0.3559465    0.2377599 -72.05   0.00122426    2.310    0.567
        61 -10.6787    134.7721    105.1215   7.9461241019e+01   3.4777701219e+01    0.7346651    0.1908318 -42.60  0.001981786    3.856    0.741
        62 -11.9841    118.3211    108.6439   8.4880364876e+01   3.7496713185e+01    0.8150944    0.6095825 -54.69   0.00381821    1.353    0.261
        63 -11.9582     32.3917    108.6884   1.1128106303e+02   5.0259343866e+01    0.6106838    0.1709225 -56.21  0.002361072    2.642    0.622
        64 -10.0891    205.4886    110.1782   6.5087293060e+01   1.7449743867e+01    0.3092813     0.216235  41.85  0.001049874    1.540    0.350
        65 -10.2330    152.0962    197.2493   9.5422856439e+01   1.1351956097e+01    0.2615365    0.2115092 -61.67  0.001445974    1.431    0.301
        66 -10.7444     33.2176    100.4042   1.0953034844e+02   5.2175753515e+01    0.3247379    0.2006612  40.76  0.001741437    1.887    0.470
        67 -10.2015     32.0800     96.1694   1.0909992537e+02   5.3285093355e+01    0.3022445    0.1613604 -58.16 0.0002435162    1.509    0.337
        68 -10.6467    241.1620     99.1251   5.6526478212e+01   1.1645589018e+01    0.1971536    0.1531058 -56.14 0.0003755324    1.315    0.240
        69 -11.5489     52.6708     92.8265   1.0137080627e+02   5.1957984593e+01    0.5869143    0.2825119 -58.88  0.002603333    1.855    0.461
        70  -9.9755     41.7934     91.6685   1.0484867476e+02   5.3426632878e+01    0.2302074    0.1534941 -50.25 0.0008054434    1.276    0.216
        71  -9.1655     75.8302     85.1468   9.1440922868e+01   5.0551988444e+01     0.191308    0.1589341 -19.14 0.0003768001    1.264    0.209
        72  -9.9889    157.9727     81.3228   6.6909253797e+01   3.4184015550e+01    0.2186637    0.2069995  53.54 0.0005126193    1.060    0.056
        73 -10.1554     58.8650     67.4781   9.2194616784e+01   5.6848662823e+01    0.2272727    0.2048491 -76.87 0.0005689492    1.386    0.278
        74 -11.3002     13.2718     59.7625   1.0818528870e+02   6.2937228454e+01    0.2479155    0.2090668 -69.07 0.0004897314    1.261    0.207
        75 -13.7480    188.5683     45.4876   5.0620533800e+01   3.2368161790e+01     1.213708    0.9105909  32.71 0.0009393253    1.642    0.391
        76  -9.6415     81.8023    194.5220   1.1068489374e+02   2.3717718784e+01    0.2171302    0.1871431  69.61  0.001342588    1.014    0.013
        77 -15.4613     50.6570    198.5213   1.1791283747e+02   2.7034963285e+01     5.285904     2.455232 -87.46   0.01132355    2.410    0.585
        78 -11.8067    146.6350     50.9460   5.9969055174e+01   4.2173980040e+01    0.5422704    0.3526116 -82.89  0.001797159    2.458    0.593
        79 -11.7022     11.3829     52.1578   1.0705383079e+02   6.4659979970e+01     0.236214    0.1994901   1.96   0.00141752    1.361    0.265
        80 -11.0114    148.1103     44.3755   5.7505066952e+01   4.2777545404e+01     0.304498    0.2549185  78.68 0.0004932847    1.271    0.213
        81 -11.6182     21.5154     33.6133   9.6532661418e+01   6.7591775051e+01    0.3205066    0.1931281  31.92  0.001806759    2.008    0.502
        82  -9.6913     20.3421     52.3287   1.0320958282e+02   6.4023346641e+01    0.1279978    0.1048811 -43.88 0.0008506189    1.069    0.064
        83  -9.3930    189.6761     14.9890   4.1991035082e+01   3.5868904397e+01    0.1858282    0.1670292 -56.84 0.0005742912    1.128    0.113
        84 -11.0127    105.7803    211.5015   1.0759032501e+02   1.6466912688e+01    0.4000067    0.2942395  -8.62  0.002009342    2.456    0.593
        85 -10.8573    113.6509    207.8284   1.0541685354e+02   1.5934599782e+01    0.3074311    0.2124277  71.13  0.001502744    1.637    0.389
        86  -9.5667     34.8788    205.9147   1.2178337527e+02   2.7292494545e+01    0.2477857     0.102178  56.54  0.001224674    2.186    0.543
        87 -11.1937    207.8666    195.6788   8.3600984095e+01   1.5765520185e+00    0.2713529    0.1938612  -3.77  0.001447927    1.534    0.348
        88 -12.1855    194.3910    196.8558   8.6485265159e+01   3.7541826358e+00     1.245339    0.7344149 -67.22  0.004271197    4.875    0.795
        89 -11.6374    204.3024    199.9748   8.5101624595e+01   1.4989124927e+00    0.3459121    0.3039882 -20.41  0.002136651    1.173    0.147
