#   1 NUMBER                 Running object number                                     
#   2 MAG_AUTO               Kron-like elliptical aperture magnitude                    [mag]
#   3 X_IMAGE                Object position along x                                    [pixel]
#   4 Y_IMAGE                Object position along y                                    [pixel]
#   5 X_WORLD                Barycenter position along world x axis                     [deg]
#   6 Y_WORLD                Barycenter position along world y axis                     [deg]
#   7 A_WORLD                Profile RMS along major axis (world units)                 [deg]
#   8 B_WORLD                Profile RMS along minor axis (world units)                 [deg]
#   9 THETA_WORLD            Position angle (CCW/world-x)                               [deg]
#  10 FWHM_WORLD             FWHM assuming a gaussian core                              [deg]
#  11 ELONGATION             A_IMAGE/B_IMAGE                                           
#  12 ELLIPTICITY            1 - B_IMAGE/A_IMAGE                                       
         1 -16.6752     33.4369    135.8215   1.2760304638e+02   4.4169445718e+01      3.98549     1.819737 -62.50   0.01219932    1.822    0.451
         2 -11.9230    175.3854     38.7118   6.5419478000e+01   3.6651402428e+01    0.2721094    0.2380827  14.75 0.0008903486    1.551    0.355
         3 -13.9569    188.7584    246.4392   1.0850522345e+02  -5.6801091814e+00     2.157584    0.8454972  28.75  0.008484409    2.891    0.654
         4 -16.6006    194.0558    193.9677   9.7910615002e+01   3.2248633177e+00     5.875979     4.411067 -69.44   0.02811654    1.826    0.452
         5  -9.6922     47.2937    189.2800   1.3168951710e+02   2.9338639405e+01    0.1270124   0.09934249 -43.52 0.0002654569    1.532    0.347
         6 -11.9066    101.2014    200.0639   1.2028620079e+02   1.8774444601e+01    0.4557184     0.278363  73.20   0.00173964    2.276    0.561
         7 -11.5587     27.9176    184.6711   1.3571392935e+02   3.2676635088e+01     0.211386    0.1775226 -62.44 0.0006578843    1.232    0.188
         8 -10.5852    119.9255    213.2977   1.1800255726e+02   1.2498195557e+01    0.2016252    0.1786363  49.29 0.0004480765    1.074    0.069
         9 -13.0870     81.8390    190.2582   1.2344591822e+02   2.4286182725e+01    0.4820956    0.2608861 -47.68  0.001303164    2.012    0.503
        10 -10.6841     44.5407    177.4875   1.3083712230e+02   3.2591013123e+01    0.2509364    0.1383252  29.66  0.001127477    2.110    0.526
        11 -11.1651     49.8964    169.1062   1.2831051107e+02   3.4040899741e+01    0.2598543    0.1957096  28.78 0.0008846786    1.556    0.358
        12 -11.5723     96.3492    166.7576   1.1570507594e+02   2.7802468487e+01    0.3986424    0.3023402 -28.43   0.00145756    1.653    0.395
        13 -10.3471     98.4964    162.4969   1.1431472354e+02   2.8502963194e+01    0.2794254    0.1756713 -39.32  0.001186083    1.813    0.448
        14 -10.5006    107.8116    204.1922   1.1937287111e+02   1.6678662231e+01    0.1870221    0.1728971 -25.46 0.0003967528    1.280    0.219
        15 -12.2608     92.9229    148.7991   1.1305455870e+02   3.2887499109e+01    0.3471895    0.3006202 -34.60 0.0007203894    1.234    0.189
        16 -10.3073    106.2809    150.3512   1.0973054396e+02   3.0147419113e+01    0.1582998    0.1194268 -25.33 0.0007013899    1.650    0.394
        17 -14.2401     68.3243    143.9113   1.1899514685e+02   3.7955103677e+01    0.8117575    0.5379785  76.73  0.002635433    2.115    0.527
        18 -10.9455    116.3342    145.6823   1.0600457362e+02   2.9408515928e+01    0.3266239    0.2230399  61.02  0.001397555    1.766    0.434
        19 -10.8347    113.1410    143.3927   1.0634443982e+02   3.0576081588e+01    0.2964076    0.2258258  68.69 0.0007864411    1.581    0.367
        20 -11.0972     84.9963    145.9967   1.1468351750e+02   3.4900235526e+01    0.2338459    0.1780948  76.30 0.0004670118    1.600    0.375
        21 -12.3893     80.8576    143.5631   1.1535108273e+02   3.6166658087e+01    0.3655804    0.2014239 -48.03  0.001248876    1.727    0.421
        22 -14.7070    238.5981    101.5598   7.0488911804e+01   1.2883140558e+01     1.417282     1.107397  23.05  0.007660959    2.039    0.509
        23 -14.2850    237.5106    134.9800   7.7589078703e+01   6.9481683656e+00     1.655927    0.8508993 -44.35  0.007629321    1.675    0.403
        24 -11.0241    104.4787    135.4189   1.0689335308e+02   3.4132773452e+01    0.2513703    0.2476068 -46.67 0.0002567177    1.036    0.035
        25 -13.6596     67.3799    134.2617   1.1733105760e+02   4.0484114896e+01     0.523504    0.2851003  44.11  0.002285586    2.044    0.511
        26 -11.2080    103.0490    154.7255   1.1152661441e+02   2.9645312118e+01    0.2772191    0.2123448 -85.80 0.0007529307    1.544    0.352
        27 -12.6971     74.2965    126.4571   1.1358753271e+02   4.1376892662e+01    0.3920305    0.2821538   6.41  0.001860088    1.826    0.452
        28 -12.7718     59.2717    124.9744   1.1781681372e+02   4.3851408328e+01    0.3002051    0.2115792  30.80 0.0008140763    1.571    0.363
        29 -18.9984     53.3919    231.0570   1.3500116594e+02   1.8734804240e+01     4.474899     3.090489  41.61   0.01885586    1.456    0.313
        30 -13.1587      6.7352    110.6385   1.3144270067e+02   5.2301202118e+01    0.5452769    0.3615528 -28.40  0.003267833    1.624    0.384
        31 -15.0893    224.5531     73.8624   6.6582771662e+01   2.0471047224e+01     1.470426     1.174698  87.19  0.008798919    1.196    0.164
        32 -11.6080    157.6142     60.8960   7.4115778126e+01   3.7680807247e+01    0.2802131    0.1975508  68.29 0.0008785843    1.399    0.285
        33 -10.3854    125.0425     56.3203   7.9755505799e+01   4.5773739830e+01    0.1882453    0.1644037  50.66 0.0004192349    1.066    0.062
        34 -12.8301    171.1916     45.2339   6.7680639037e+01   3.6766398185e+01    0.3295821    0.2873983  37.51  0.001993146    1.367    0.268
