#   1 NUMBER                 Running object number                                     
#   2 MAG_AUTO               Kron-like elliptical aperture magnitude                    [mag]
#   3 X_IMAGE                Object position along x                                    [pixel]
#   4 Y_IMAGE                Object position along y                                    [pixel]
#   5 X_WORLD                Barycenter position along world x axis                     [deg]
#   6 Y_WORLD                Barycenter position along world y axis                     [deg]
#   7 A_WORLD                Profile RMS along major axis (world units)                 [deg]
#   8 B_WORLD                Profile RMS along minor axis (world units)                 [deg]
#   9 THETA_WORLD            Position angle (CCW/world-x)                               [deg]
#  10 FWHM_WORLD             FWHM assuming a gaussian core                              [deg]
#  11 ELONGATION             A_IMAGE/B_IMAGE                                           
#  12 ELLIPTICITY            1 - B_IMAGE/A_IMAGE                                       
         1 -14.1830    197.9200     39.0428   4.6143148624e+01   3.1363646386e+01      1.46802     1.206851 -20.37  0.003732982    1.376    0.273
         2 -14.6237    208.0254     28.5109   4.2130241896e+01   3.0265586359e+01     1.695533     1.252878  13.53  0.002151918    1.989    0.497
         3 -12.8099    234.8374      3.9137   3.3843736616e+01   2.6906003758e+01    0.6325772    0.4416212  59.75  0.002992958    1.596    0.373
         4 -12.5926    229.4215      3.7292   3.4203607659e+01   2.8110252249e+01    0.4574576    0.3218448 -71.87  0.002316265    1.243    0.196
         5 -10.4179     61.6818      7.9700   6.5493763333e+01   6.6081248829e+01    0.1728099    0.1397207   0.14 0.0004535076    1.098    0.090
         6 -10.9170    113.7222    207.3018   1.0420741855e+02   1.6106994717e+01    0.3821344    0.2342655  66.50  0.001808764    2.074    0.518
         7 -12.0960    139.8954    248.5422   1.0420171920e+02   4.5438878388e+00    0.4712174    0.3351399 -65.39  0.002930422    1.848    0.459
         8 -13.2789     17.6467    191.6827   1.2335133851e+02   3.1808179987e+01    0.6487581      0.20817  40.60 0.0006807721    2.691    0.628
         9 -15.1645     49.7523    220.7629   1.1908901103e+02   2.2269655268e+01     4.459522     1.438542  35.63   0.02004982    2.869    0.651
        10 -14.0397     56.8387    189.4756   1.1469023536e+02   2.8105958601e+01     1.889318     1.160033  72.22     0.010076    1.672    0.402
        11 -14.2176     57.5442    240.7793   1.1916210292e+02   1.7446936200e+01    0.6164293    0.3109224  57.93  0.003552136    1.708    0.414
        12 -16.9506      6.2017    210.7991   1.2674603777e+02   2.8810430044e+01     10.46768     1.043759 -74.58   0.02744568    6.268    0.840
        13  -9.4006    134.3839    197.1508   9.8089888405e+01   1.4749647703e+01    0.1907976    0.1330386 -68.28 0.0008721485    1.753    0.430
        14  -9.5058    128.5411    195.9163   9.9205387791e+01   1.6001336644e+01    0.1980104    0.1376769 -56.29 0.0005174266    1.550    0.355
        15  -9.5597     81.5286    194.3302   1.0967444912e+02   2.3746153340e+01    0.3331109    0.2100162  78.67  0.001661916    1.852    0.460
        16 -10.0675     71.1232    185.6365   1.1097877196e+02   2.7138567087e+01    0.2261562    0.1639811  84.16 0.0004557069    1.372    0.271
        17 -16.6910     36.0177    249.0937   1.2355053805e+02   1.8439554240e+01     10.46787     3.353968  26.36   0.02767843   11.939    0.916
        18 -11.0240     99.1378    180.9435   1.0369823661e+02   2.4106647723e+01    0.3567139    0.2581924  21.06  0.001562293    1.708    0.414
        19 -10.9672    150.8209    179.3682   9.1226755717e+01   1.5467702708e+01    0.4349141    0.2887582 -75.43  0.001840399    2.437    0.590
        20 -11.2979    145.0253    180.4839   9.2767741189e+01   1.6303002151e+01    0.3805776     0.328525 -82.49  0.001328634    1.376    0.273
        21  -9.8508     41.0188    178.2035   1.1711148379e+02   3.2507472511e+01    0.2084594    0.1523973 -82.54 0.0002706202    1.182    0.154
        22 -10.5013    188.4633    175.2756   8.2125833890e+01   9.2114557830e+00    0.5439841    0.2143025 -50.88  0.001836913    3.443    0.710
        23 -12.2511     70.7860    174.4683   1.0961612120e+02   2.9767904213e+01    0.4355866    0.2765918 -38.37  0.002103604    2.133    0.531
        24 -12.0975     74.9557    169.7767   1.0793864581e+02   3.0304156332e+01    0.3553386    0.2690558 -42.19 0.0008046685    1.548    0.354
        25 -10.0499    204.1824    175.6786   7.8986218867e+01   6.2325613610e+00     0.239762     0.185922 -40.58 0.0006920792    1.348    0.258
        26  -9.9843    196.6285    174.9985   8.0374722580e+01   7.7419947798e+00    0.2948027     0.250201 -82.20  0.001550525    1.759    0.431
        27 -12.2829     42.0888    145.7562   1.1306285365e+02   4.0134688360e+01     1.035412    0.3955532  24.54   0.00418697    3.301    0.697
        28 -13.7939     43.3792    110.8705   1.0713991170e+02   4.8585161395e+01     2.011993     1.362688  55.58  0.008609924    1.794    0.443
        29 -13.0273     83.0965    161.1563   1.0456105365e+02   3.1197093488e+01     1.318468    0.5863815  59.20 0.0004098618    3.640    0.725
        30 -13.8408     71.6761    156.0165   1.0671142453e+02   3.4063764328e+01    0.6077415    0.4945604 -50.03  0.001958532    1.278    0.218
        31 -14.9232     68.5975    144.2421   1.0562504852e+02   3.7365536338e+01     6.088115     2.352397  53.61  0.003533685    3.964    0.748
        32 -10.3324     32.3920    165.1827   1.1780783543e+02   3.6436810106e+01     0.217653    0.1724499 -53.43 0.0006886705    1.396    0.283
        33 -10.5374    157.7188    160.2883   8.5788575393e+01   1.8154224979e+01     0.371707    0.2862377 -87.30  0.001703981    1.896    0.472
        34  -9.1851     49.5007    161.1132   1.1313797830e+02   3.5599153529e+01    0.1897686    0.1157645 -69.81 0.0003250275    1.450    0.310
        35  -8.8249    161.2921    199.7090   9.2597725079e+01   9.5555416936e+00    0.1311511    0.1074414  68.62 0.0002486788    1.549    0.354
        36 -12.1989     89.9510    154.1026   1.0157391380e+02   3.1859397396e+01    0.6511876    0.4536451 -27.22  0.002798002    1.985    0.496
        37  -9.8892     48.7881    171.1293   1.1452042391e+02   3.3294757576e+01    0.3817863    0.1932206 -42.51  0.001672651    2.795    0.642
        38  -9.5353     48.9830    154.4989   1.1241543632e+02   3.7256900830e+01    0.2110395    0.1610205 -75.76 0.0007868822    1.147    0.128
        39 -10.0628    187.8062    152.2010   7.7293531163e+01   1.3777153149e+01    0.2427834    0.1714397 -85.78 0.0009484844    2.823    0.646
        40 -11.3632    133.8220    144.8077   8.8226160597e+01   2.6292245463e+01     1.198907    0.3285556 -54.76  0.002925491    5.271    0.810
        41  -9.2705    112.5893    150.7712   9.4977965372e+01   2.8879037032e+01    0.2007394    0.1422287 -66.63 0.0003196297    1.527    0.345
        42 -10.6080    174.4232    148.5645   7.9378930729e+01   1.7233936503e+01    0.3752898    0.2996598 -63.55  0.001186207    1.523    0.344
        43 -10.8643    103.5021    139.4027   9.5064861844e+01   3.3190690838e+01    0.5591372    0.3428749 -27.18  0.002206514    2.434    0.589
        44 -12.3893     90.8994    139.4118   9.8547346400e+01   3.5285335810e+01    0.2884184    0.2535706 -45.42 0.0003781146    1.146    0.127
        45  -9.0539     42.5421    167.5378   1.1561737818e+02   3.4836448295e+01    0.1865449    0.1270516  31.87 0.0005176489    1.663    0.399
        46  -9.4240     45.4895    165.9124   1.1471496553e+02   3.4900543039e+01    0.2136318    0.1612739  73.43  0.001260643    1.252    0.201
        47 -12.6041     44.3657    129.7856   1.1010117584e+02   4.3828110961e+01    0.5778944    0.3525512  84.56  0.002621069    1.998    0.500
        48 -12.2835     39.3401    124.1287   1.1067432866e+02   4.5730195760e+01    0.4146074    0.3060866  16.17  0.002327203    1.686    0.407
        49 -11.3895    207.5858    193.7487   8.1915130267e+01   2.5251149434e+00    0.3113824    0.1798961  24.86  0.001480379    1.817    0.450
        50 -10.6491    105.9554    130.7688   9.2499866382e+01   3.4836135723e+01    0.3586094    0.3112046 -71.67  0.001257114    1.199    0.166
        51 -11.0482     33.7080    131.0717   1.1334885433e+02   4.4555959609e+01    0.2556105    0.2313936 -55.68  0.001076661    1.166    0.142
        52 -11.0930    135.7971    128.0468   8.3795123109e+01   2.9715610837e+01    0.5917785    0.1900634 -49.86  0.001758636    3.262    0.693
        53 -10.1793    160.7150    128.2269   7.7669135892e+01   2.4397843734e+01    0.3723501    0.2211822 -48.08   0.00153097    1.710    0.415
        54 -11.0400     99.5341    126.0811   9.3251166902e+01   3.7091033930e+01    0.3182717    0.2546769 -21.99  0.001005824    1.469    0.319
        55 -11.4272    119.0298    123.6297   8.7185651695e+01   3.4088689015e+01    0.6290869    0.4205731  -9.93  0.002355823    2.485    0.598
        56 -10.4804    112.3349    129.9728   9.0545410264e+01   3.3866204423e+01    0.3353077    0.2575392 -21.27 0.0007974872    1.590    0.371
        57  -9.9512    108.2956    119.0147   8.9059494003e+01   3.7208191160e+01    0.2282941     0.213514  31.32 0.0003486389    1.118    0.105
        58  -9.7590    168.3384    113.3032   7.2075650704e+01   2.5828948703e+01    0.3155616    0.2291955 -79.05    0.0011772    2.083    0.520
        59 -10.3201    135.0004    104.7379   7.7906186301e+01   3.5061341628e+01    0.6483464    0.1937831 -38.97  0.001799785    3.696    0.729
        60 -11.7535    117.9702    108.6131   8.3622360081e+01   3.7752856321e+01    0.7917686    0.5617473 -48.36  0.003639466    1.373    0.272
        61 -11.4714     18.3029    110.7596   1.1498579033e+02   5.0751164777e+01    0.3116897    0.1708281  34.92  0.001667296    2.122    0.529
        62 -10.1406    205.5079    110.1532   6.3640752652e+01   1.8098116357e+01    0.3088373    0.2173288  39.09 0.0008589711    1.556    0.357
        63 -10.2712    241.9923    101.7610   5.5601292596e+01   1.1880844702e+01    0.1687813    0.1194093  54.46 0.0005004821    1.619    0.382
        64 -10.8115     33.5362    100.3840   1.0835838198e+02   5.2058515161e+01    0.2620051    0.2265868 -74.15 0.0009676326    1.135    0.119
        65 -11.4417     52.8906     93.5084   1.0029069185e+02   5.1735243552e+01    0.4875018    0.3032124 -67.84  0.002119331    1.701    0.412
        66 -10.5457     43.1747     89.4538   1.0273360580e+02   5.3745908314e+01    0.2953907    0.1013556  37.03  0.001141194    3.301    0.697
        67 -10.0500    157.9782     81.7063   6.5592843148e+01   3.4437453569e+01     0.217479    0.2045247  53.69 0.0005415128    1.083    0.077
        68  -8.9452    184.6900     76.7087   5.8661612271e+01   2.8893435535e+01    0.1495513    0.1177966  18.35 0.0002971438    1.584    0.369
        69 -10.0642     59.0720     67.5735   9.0875914054e+01   5.6780715644e+01    0.2873313    0.2068176  46.39  0.001321195    1.755    0.430
        70 -13.8057    187.6209     46.7906   4.9758764159e+01   3.2831628918e+01     1.213391    0.9394048  30.25 0.0008924492    1.569    0.362
        71 -16.9928      7.4176    244.9532   1.2813770318e+02   2.2135883192e+01     7.550202     1.485399 -78.54   0.01847441    4.588    0.782
        72 -14.2868     46.5863    200.7878   1.1803758771e+02   2.6824022463e+01     1.322324    0.8348314  63.91  0.004914478    1.436    0.304
        73 -11.9021    146.6674     50.9135   5.8538498382e+01   4.2364987852e+01    0.5335388    0.3575747 -82.94  0.002235311    2.330    0.571
        74 -10.9269    148.2181     44.3336   5.6065735791e+01   4.2941130147e+01    0.2921543    0.2433173 -89.96  0.000447005    1.376    0.273
        75  -9.9180     31.0467     36.0442   9.1677871252e+01   6.6209494906e+01     0.163957    0.1540585  61.55 0.0006812385    1.648    0.393
        76 -11.1259     24.3902     34.4134   9.4222606148e+01   6.7134133555e+01    0.2424906    0.1935113  31.95  0.001288127    1.619    0.383
        77  -8.9719     73.2568     54.4160   8.1056927608e+01   5.7282581350e+01    0.1795613     0.130819  45.16 0.0009378613    1.607    0.378
        78  -9.7483    189.6586     14.9958   4.0701502347e+01   3.6211860091e+01    0.1799538    0.1640403 -52.37 0.0005695961    1.134    0.118
        79  -9.6827     34.8394    205.9188   1.2089077561e+02   2.7029893389e+01    0.2388865    0.1057807  56.76  0.001212675    2.078    0.519
        80 -11.9815    109.9179    200.6079   1.0410903738e+02   1.8095302172e+01    0.6704218    0.4461968 -25.08  0.001328199    2.467    0.595
