#   1 NUMBER                 Running object number                                     
#   2 MAG_AUTO               Kron-like elliptical aperture magnitude                    [mag]
#   3 X_IMAGE                Object position along x                                    [pixel]
#   4 Y_IMAGE                Object position along y                                    [pixel]
#   5 X_WORLD                Barycenter position along world x axis                     [deg]
#   6 Y_WORLD                Barycenter position along world y axis                     [deg]
#   7 A_WORLD                Profile RMS along major axis (world units)                 [deg]
#   8 B_WORLD                Profile RMS along minor axis (world units)                 [deg]
#   9 THETA_WORLD            Position angle (CCW/world-x)                               [deg]
#  10 FWHM_WORLD             FWHM assuming a gaussian core                              [deg]
#  11 ELONGATION             A_IMAGE/B_IMAGE                                           
#  12 ELLIPTICITY            1 - B_IMAGE/A_IMAGE                                       
         1 -10.0950     30.3062     23.7116   8.3783300977e+01   6.7989217689e+01    0.5451476    0.1836788 -34.89  0.002372151    2.626    0.619
         2 -10.1146     29.3910     17.6454   8.1370531987e+01   6.9010367818e+01    0.3028699    0.1835529 -22.83 0.0004948079    1.378    0.274
         3 -10.7457    101.8678     16.3345   5.4855165595e+01   5.6644357010e+01    0.5083948    0.3356565  30.09  0.001757081    1.447    0.309
         4 -11.6391    111.7300     19.3453   5.3689223672e+01   5.4167674190e+01    0.5235315    0.3829927  31.78  0.002509976    1.286    0.223
         5 -11.0167    149.9223     18.4560   4.6014111310e+01   4.5315764538e+01    0.3173005    0.2836854 -41.07 0.0005435356    1.195    0.163
         6 -10.1687    154.5636     16.0592   4.4530740980e+01   4.4433664635e+01    0.4319036    0.3094477   8.82  0.002319371    1.704    0.413
         7 -10.1101    156.7308      9.5399   4.2192239038e+01   4.4517576664e+01    0.4866934    0.2697265  23.43  0.002196322    2.540    0.606
         8  -9.9114     87.1287     18.0095   5.9495181633e+01   5.9560485425e+01    0.3669409    0.2320994 -38.68 0.0008729657    1.863    0.463
         9  -8.1677     62.1581     18.3543   6.7813122002e+01   6.4181897499e+01    0.3837457    0.2923025 -66.45  0.001994688    2.810    0.644
        10 -10.9797     56.8010     14.0143   6.7749754214e+01   6.5594869475e+01    0.5533102    0.2902232  26.90  0.002256026    1.896    0.473
        11  -9.8598     22.8618     16.2195   8.3892598668e+01   6.9950283969e+01    0.2772453    0.2660989  -6.63  0.001372504    1.637    0.389
        12  -9.8063     17.2609      3.2299   8.0086076340e+01   7.2363677281e+01    0.2626874    0.2184545 -21.33  0.001709779    1.429    0.300
        13  -9.4996      6.9740      3.0134   8.5710324808e+01   7.3412235837e+01    0.2963863    0.2462854  12.30  0.002101377    1.499    0.333
        14 -10.5381     18.5207     10.4340   8.3244772639e+01   7.1249393532e+01    0.3095431    0.2879892  26.85  0.001604467    1.766    0.434
        15 -10.4253     12.4183      6.6100   8.4548004394e+01   7.2401532492e+01    0.3081553    0.2258488 -32.39  0.001394196    1.380    0.275
        16  -9.8940     10.5249     15.3059   8.9899534873e+01   7.1267351901e+01    0.2763115    0.2278747 -15.20  0.002057498    1.226    0.184
        17 -11.2542    181.3302     13.0549   4.0092666467e+01   3.8299162064e+01    0.8602173    0.3253678  46.07  0.003353643    3.121    0.680
        18 -10.3337    186.0341     13.5302   3.9683229293e+01   3.7137153043e+01    0.3399804    0.2520473  49.33  0.001217063    1.416    0.294
        19 -11.9388    122.3431     11.0485   4.8334728514e+01   5.2537210129e+01    0.6737269    0.3486999  56.59 0.0007214584    1.686    0.407
        20 -10.3790    127.3164      4.7085   4.5145701655e+01   5.1909437442e+01    0.3214035    0.2300832  46.15 0.0004906625    1.245    0.197
        21  -9.7808    216.4662      7.9527   3.5307454098e+01   3.0698439584e+01    0.2641422    0.1926307 -32.94  0.001609869    1.407    0.289
        22 -10.6607    210.8341     10.7355   3.6461914878e+01   3.1678680502e+01    0.3775094    0.2425238 -48.88  0.001317055    1.446    0.308
        23 -10.3196    212.7650      5.8299   3.5117207493e+01   3.1731252703e+01    0.3634819    0.2217114 -37.68  0.002083266    1.565    0.361
        24  -9.0982     92.9958     10.3200   5.4612954031e+01   5.9111781980e+01    0.2223516    0.1708766  66.14 0.0008083597    1.519    0.342
        25  -9.1782     47.3851      9.6832   6.9320455312e+01   6.7598710033e+01    0.2640312    0.1599268   6.86  0.001092557    1.646    0.393
        26  -9.0533    144.3111     13.8895   4.5434606372e+01   4.7101736394e+01    0.2336141    0.1707806  16.16  0.001141309    1.575    0.365
        27  -8.3181      8.2706      9.2877   8.8231840884e+01   7.2387527284e+01    0.1148682   0.06480581 -18.83 0.0001839541    1.505    0.336
        28  -8.8357    102.1002      7.8744   5.1383141755e+01   5.7372437185e+01    0.2478649    0.1416753  18.02  0.001213755    1.986    0.496
        29 -10.3401     78.6115      6.7789   5.7006276478e+01   6.2365044080e+01    0.3075083    0.2445365  13.13  0.001959616    1.099    0.090
        30  -9.9622     23.9617      3.0694   7.6501325538e+01   7.1613345712e+01    0.3387228    0.1490442  34.52  0.001639363    2.304    0.566
        31  -9.9255     25.3669      7.1617   7.8018928314e+01   7.0929061319e+01    0.2066908    0.1531995 -16.81 0.0002201406    1.144    0.126
        32  -8.6257     56.9994      6.9777   6.4207619217e+01   6.6329702373e+01    0.1619872    0.1464156 -40.08  0.000575939    1.613    0.380
        33  -9.2621      2.1637      5.8003   8.9981321056e+01   7.3407261197e+01    0.3144562     0.169221 -42.12  0.001974068    1.641    0.391
        34  -9.9007    107.9594      4.0479   4.8576240143e+01   5.6388269183e+01    0.4108816     0.315918 -41.50  0.001694347    1.560    0.359
        35  -9.3725    102.7318      1.5774   4.8702596650e+01   5.7734816073e+01    0.2440711    0.1683558  69.43 0.0008073761    1.558    0.358
        36 -10.6079     90.2323      3.4098   5.2367088093e+01   6.0282468271e+01    0.3106092     0.282575  83.03  0.001236771    1.419    0.295
        37 -10.9400     84.5601      1.3742   5.2927771421e+01   6.1619403540e+01    0.2483176    0.1274631  59.08 0.0005123354    1.929    0.482
        38  -9.8009     38.5959      4.9052   7.0569494528e+01   6.9452726203e+01    0.2473032    0.1700693  31.49 0.0008791775    1.417    0.294
        39  -8.1768    175.2903      3.7090   3.8186464665e+01   4.0591382121e+01    0.1280252   0.08745731 -65.18  0.000457567    1.546    0.353
        40  -9.2229     39.9898      1.4070   6.8070539766e+01   6.9625545711e+01    0.2469129    0.1057466  44.73  0.001064476    2.465    0.594
        41  -8.3818    241.9965      1.5017   3.1987125011e+01   2.5886520218e+01      0.14578   0.08309761  51.12 0.0004895295    2.251    0.556
        42  -8.6274    185.5516      1.5282   3.6522079039e+01   3.8362248522e+01    0.1244606    0.1101196 -86.44  9.29197e-05    1.018    0.017
        43  -8.4002    170.5443      1.3519   3.8051948780e+01   4.1915618076e+01    0.1263151    0.1066907  64.88 9.296644e-06    1.099    0.090
        44  -8.3528    137.1660      1.3535   4.2398124478e+01   4.9853810800e+01    0.1785978    0.1123189  80.35 0.0004356176    1.677    0.404
        45  -9.0712     65.4957      1.3211   5.8458616935e+01   6.5348767467e+01    0.2065035   0.09977905  49.72  0.001058962    1.913    0.477
        46  -9.5106     56.3764      1.8477   6.1839119639e+01   6.6934434410e+01    0.4740413   0.04476622  45.89  0.001419494    5.782    0.827
        47 -10.8040     20.6934    110.0228   1.1225262233e+02   5.0606703342e+01     0.427463    0.1974926  42.67  0.002012564    2.666    0.625
        48  -9.4854    127.8189    109.6579   7.9794961854e+01   3.5433134365e+01    0.2441427    0.1954123  20.72  0.001162784    1.397    0.284
        49  -8.5352     91.4174    109.3692   9.0040273745e+01   4.2293634238e+01    0.3151198    0.1106939 -40.12 0.0009697191    3.240    0.691
        50  -9.3030     28.6652    109.6956   1.0971805464e+02   5.0056781710e+01    0.2801925    0.1622516 -42.17  0.000846629    1.672    0.402
        51  -8.9112    100.3282    109.0464   8.7314307329e+01   4.0836855918e+01    0.2210169      0.17869 -45.35 0.0005746096    1.146    0.127
        52 -10.5653      6.7957    107.6872   1.1616132471e+02   5.2085802620e+01    0.3929774    0.2778928  82.94  0.001398043    1.512    0.339
        53 -10.0113      8.5395    103.5170   1.1501164047e+02   5.2977835172e+01    0.2786171    0.2070707 -78.09  0.001065038    1.206    0.171
        54 -10.6913     79.9424    103.7787   9.2105813937e+01   4.5438278601e+01    0.3938284    0.3689984  31.34   0.00161691    1.185    0.156
        55  -8.7975     85.0149    103.7736   9.0526314198e+01   4.4644587960e+01    0.2620153    0.2010783  21.82  0.000555875    1.469    0.319
        56  -9.5064     64.8425    104.0466   9.6965169640e+01   4.7533229681e+01    0.2551125    0.1653689 -40.76  0.001241821    1.440    0.305
        57  -9.0399    142.5003    103.4895   7.4299528379e+01   3.3655859951e+01    0.3544924    0.1363471 -28.19 0.0008104712    5.724    0.825
        58  -9.8176    108.3921    103.2767   8.3398097464e+01   4.0670827309e+01    0.3949794    0.2529371  25.78 0.0008787543    1.877    0.467
        59  -9.7066     16.6084    104.1220   1.1256364039e+02   5.2318726750e+01    0.2377419    0.1455213 -26.82  0.001284252    1.955    0.488
        60  -9.4920    134.6707    102.9991   7.6142289259e+01   3.5439023149e+01    0.2301589    0.1977966 -36.55 0.0005799479    1.105    0.095
        61 -10.4678     53.2831     99.1607   9.9563515254e+01   5.0137192925e+01     0.471254    0.2452263 -54.23  0.002170324    1.620    0.383
        62 -10.2952     45.2908    102.0114   1.0285436409e+02   5.0345751146e+01    0.2651287    0.2330493  73.86 0.0004607738    1.363    0.266
        63  -8.7643     94.7929    101.6595   8.6963031949e+01   4.3499905244e+01    0.2178069    0.1761713 -37.53 0.0008067852    1.144    0.126
        64  -9.1213     11.5303    101.5253   1.1375564126e+02   5.3270841129e+01     0.204795     0.173974 -68.72 0.0005822711    1.101    0.092
        65 -10.1395     69.2735     96.5564   9.3628748019e+01   4.8689915897e+01    0.3597566    0.2275943 -56.11   0.00120417    1.496    0.332
        66  -9.3714    147.9943     96.6158   7.0994412038e+01   3.3847835847e+01    0.2202905    0.2014927  38.43 0.0004604461    1.134    0.118
        67  -8.3924     28.9695     97.7632   1.0737330728e+02   5.2903290487e+01    0.1354069    0.1124838   9.90  0.000245876    1.449    0.310
        68 -10.2925     16.0937     95.2551   1.1119683028e+02   5.4465806241e+01    0.4432441    0.2376488  55.24  0.002110798    2.768    0.639
        69  -9.7920     79.2142     94.9248   8.9957027723e+01   4.7594789862e+01    0.4017526    0.2838404 -16.25  0.001211988    1.714    0.416
        70 -10.0629     35.3107     95.0995   1.0467893065e+02   5.2979751602e+01     0.460682     0.244116 -31.85  0.001706422    2.166    0.538
        71  -8.9871    103.9219     96.1225   8.2662710067e+01   4.3092022250e+01    0.2468335     0.183195  74.35   0.00108137    2.085    0.520
        72 -10.1929    132.7847     93.2194   7.3791180812e+01   3.7869695157e+01    0.3995561    0.2704585  29.00  0.001132301    1.702    0.413
        73  -9.3382    137.9315     92.3199   7.2210225025e+01   3.6931838925e+01    0.2160078    0.1999426  35.40 0.0004289169    1.118    0.105
        74  -9.1983      1.4900     93.1278   1.1567771801e+02   5.5811808223e+01    0.3952596    0.0699786 -65.44  0.001412788    3.355    0.702
        75 -10.4477     87.6256     90.1085   8.5889721787e+01   4.7310642749e+01    0.6964396    0.4039174 -66.49  0.001862114    2.836    0.647
        76  -9.7363    125.9366     91.6867   7.5137161619e+01   3.9642788421e+01    0.2176002    0.2027184  36.99  0.001144594    1.128    0.113
        77  -8.9628     52.0728     90.8492   9.7924948307e+01   5.2228605497e+01    0.3888812    0.1449059 -46.41  0.001527776    2.267    0.559
        78  -9.7023     33.9711     89.6004   1.0391581562e+02   5.4396118277e+01    0.4228463    0.2057608  15.55  0.001935421    2.670    0.625
        79  -9.5586     28.2525     85.7731   1.0506635943e+02   5.5783077796e+01    0.3635234    0.2068517  42.14  0.001847481    2.276    0.561
        80 -10.9302    119.9496     87.7941   7.5583849758e+01   4.1689275834e+01    0.4266629    0.3681861  36.46 0.0008945441    1.202    0.168
        81  -9.7641    124.4754     85.4829   7.3640746041e+01   4.1203925286e+01    0.2415628    0.1988739 -44.88 0.0006955144    1.220    0.180
        82  -9.6392    109.6117     88.4335   7.8703396358e+01   4.3646282143e+01    0.2799631    0.2336906 -42.19 0.0007794028    1.158    0.136
        83  -8.2432     56.6804     89.2801   9.5929555613e+01   5.2035589585e+01    0.1293025    0.1089875  81.08  0.000326407    1.582    0.368
        84  -9.1386     47.9215     89.0062   9.8894414921e+01   5.3128258953e+01    0.2081396    0.1703539 -42.30 0.0003474375    1.039    0.038
        85  -9.0903     15.8914     88.3049   1.0995938388e+02   5.6112955954e+01    0.3013645    0.1396252 -62.84  0.001483892    1.687    0.407
        86  -8.5488    162.6276     88.6906   6.5354477649e+01   3.2053061154e+01    0.1626886    0.1194195  13.18 0.0004268044    1.772    0.436
        87  -8.7916    139.9090     88.5101   7.0579128239e+01   3.7248246738e+01    0.2302199     0.153456  45.22 0.0008766107    1.550    0.355
        88 -11.8833    132.2639     86.4174   7.1877470409e+01   3.9342001421e+01    0.5271309    0.3500314  28.05 0.0005234496    1.776    0.437
        89 -11.0188    175.3209     83.4408   6.1216151906e+01   3.0057820676e+01    0.6457263    0.4360792  -4.49  0.002367496    2.124    0.529
        90 -10.9198    157.4767     83.6065   6.4996519238e+01   3.4180924460e+01    0.4200885    0.2733473  41.13  0.001860364    1.623    0.384
        91  -9.0577     70.8575     83.0216   8.9298732644e+01   5.1517308771e+01    0.2606554    0.2270283 -23.62  0.001294139    1.067    0.063
        92  -9.1628     81.9192     84.7149   8.6115824032e+01   4.9432628859e+01    0.2631572    0.1957577 -50.48 0.0002528259    1.323    0.244
        93 -10.1372     75.9728     82.9804   8.7558863529e+01   5.0753181275e+01    0.3106704    0.2624354 -68.21 0.0004756568    1.444    0.307
        94  -9.5960     80.0189     80.9833   8.5598816176e+01   5.0541995405e+01    0.2144087    0.1902668 -30.00  0.001199657    1.020    0.020
        95  -9.0103     39.1459     85.1225   1.0101824615e+02   5.4944417158e+01    0.2086538    0.1474562 -38.85 0.0006385507    1.247    0.198
        96  -9.1433     34.2220     84.4431   1.0261721878e+02   5.5569438415e+01    0.2640377    0.1956237  72.10  0.001011836    1.966    0.491
        97  -8.5881     45.8655     83.8575   9.8290674957e+01   5.4535493371e+01    0.1742763    0.1484364 -64.90 0.0003698119    1.257    0.204
        98 -10.4081      6.4823     80.7484   1.1182413427e+02   5.8423861915e+01     0.403197    0.1833553 -38.93  0.001337219    2.033    0.508
        99  -9.4536      4.7263     76.0748   1.1155338061e+02   5.9580345207e+01     0.201688    0.1772274 -64.47 0.0005029974    1.185    0.156
       100  -8.8107      1.8168     73.3465   1.1209418098e+02   6.0339314131e+01    0.1516979    0.1187852   1.48  0.000454203    1.560    0.359
       101  -8.6268     16.8156     81.5293   1.0824968358e+02   5.7620557807e+01    0.2310785     0.134274 -85.05  0.001036805    2.328    0.570
       102  -9.5015    143.8717     80.6295   6.7222781640e+01   3.7855410948e+01    0.2116677    0.1941987  53.38 0.0007169839    1.159    0.137
       103  -9.3468    108.5533     80.5285   7.6544113733e+01   4.5470528673e+01    0.2434411    0.2183012 -14.09 0.0007303241    1.060    0.057
       104 -11.3864    104.7588     78.5039   7.7012356654e+01   4.6622292697e+01    0.8874582     0.544084  -8.42  0.003365541    2.677    0.626
       105 -10.0793     54.9180     80.3666   9.4090519415e+01   5.4265672933e+01    0.3680086    0.2573712   7.44  0.001924729    1.691    0.409
       106 -10.4718    154.9649     79.3915   6.4295287198e+01   3.5527173850e+01    0.3310604    0.2829785 -12.64  0.001340748    1.223    0.182
       107  -9.5307     39.3196     80.6741   9.9823495999e+01   5.5941760423e+01    0.2280473    0.1262417  31.80   0.00113357    2.101    0.524
       108  -9.1247     36.4280     79.2163   1.0050629323e+02   5.6554117303e+01    0.3416272    0.1177488 -59.47  0.001307177    2.673    0.626
       109  -8.5576     22.1978     80.4322   1.0604458564e+02   5.7489831808e+01     0.143832    0.1227961  32.85 0.0004353429    1.466    0.318
       110  -8.4020    124.6922     78.6946   7.1454870723e+01   4.2478791868e+01    0.1554194    0.1172444   4.18 0.0002795447    1.608    0.378
       111  -9.5943    101.6509     68.5221   7.4635164122e+01   4.9157383386e+01    0.2537991    0.1709438 -54.51 0.0006142638    1.842    0.457
       112 -10.2592     97.8589     75.7571   7.8208551894e+01   4.8492217861e+01    0.5372684    0.3577721  67.34  0.002215277    2.615    0.618
       113 -11.0463     97.4539     69.5081   7.6250686264e+01   4.9783521692e+01    0.4339114     0.289557 -48.79  0.001222115    1.623    0.384
       114 -10.9619     78.2482     74.9044   8.4268181015e+01   5.2102911301e+01    0.5499623    0.3053163  21.22  0.001149309    2.360    0.576
       115 -10.5227     74.4840     75.4465   8.5722505157e+01   5.2588096302e+01    0.3832276    0.2783718  -6.44  0.001146295    1.587    0.370
       116 -10.4721     45.7387     72.9422   9.5303323494e+01   5.6978048388e+01    0.3029241    0.2066257 -48.93 0.0003552461    1.262    0.207
       117  -9.4974    173.9325     74.2970   5.8866486661e+01   3.1956230206e+01    0.2704667    0.1975511 -14.06 0.0006989441    1.594    0.373
       118 -11.4213    151.7222     73.1497   6.3116478302e+01   3.7383665551e+01    0.4854546    0.4378479  87.47  0.002422114    1.277    0.217
       119 -11.7500    153.6170     67.5536   6.0975773426e+01   3.7887788232e+01    0.6507149    0.4588334 -79.67  0.002808479    2.154    0.536
       120  -8.0758     11.4871     75.4427   1.0890808060e+02   5.9346735472e+01    0.1283507   0.09608243 -49.49 7.097999e-05    1.042    0.041
       121  -9.9020    129.6724     75.2780   6.9061235208e+01   4.2031633743e+01    0.3149932    0.1961051  37.75 0.0008821921    1.698    0.411
       122 -11.4925    137.6768     69.7131   6.5283972432e+01   4.1228141510e+01    0.5349845    0.3653443  44.52 0.0006572959    1.477    0.323
       123  -8.7062     31.2371     72.6064   1.0071540730e+02   5.8510940306e+01    0.1614749    0.1164325  -7.66 0.0005358986    1.544    0.352
       124  -8.6743    183.8707     70.8255   5.6039825800e+01   3.0181848916e+01    0.2021169    0.1648169 -62.37 0.0004063267    1.328    0.247
       125 -10.3134     64.6442     70.6645   8.7636094876e+01   5.5052302778e+01    0.3623177     0.249999  40.84  0.001376299    1.706    0.414
       126 -10.1628     59.9120     66.1646   8.7886096312e+01   5.6638890329e+01    0.4470725    0.2564224 -21.17  0.001252686    2.144    0.534
       127  -8.5455     39.2436     71.3465   9.7300729609e+01   5.8020542560e+01    0.1555418    0.1213173  31.68 0.0002836816    1.535    0.349
       128  -9.3504     17.7183     70.0379   1.0528023559e+02   6.0152682391e+01    0.3034967    0.1485663 -53.91  0.001171959    1.543    0.352
       129  -9.1865     49.0120     76.9892   9.5262337240e+01   5.5720162420e+01    0.2186944    0.1764366 -37.94 0.0006658686    1.037    0.036
       130  -8.9985     51.8426     69.6344   9.2010715145e+01   5.6969818745e+01    0.2252723    0.1562607 -37.59 0.0005163884    1.226    0.185
       131  -8.4465     33.7642     69.4190   9.8863221744e+01   5.8977653074e+01    0.1653841    0.1161757  -7.12 0.0005432124    1.587    0.370
       132  -9.5941    121.1447     67.6754   6.8810577286e+01   4.5273391587e+01    0.3243999    0.2414411   8.83  0.001198423    1.597    0.374
       133  -9.9679     90.4436     67.0915   7.7631335583e+01   5.1551365463e+01    0.3829069    0.2825396  13.57  0.001573035    1.506    0.336
       134  -8.1705    194.2982     67.6938   5.3401735372e+01   2.8232968701e+01    0.1479658    0.1068131 -64.08 0.0007005025    1.590    0.371
       135  -9.9551     55.5036     73.8637   9.1958486762e+01   5.5611504581e+01    0.5686747    0.2921404 -10.77  0.001876139    4.426    0.774
       136 -10.1080    109.5767     64.0236   7.0765196544e+01   4.8375034033e+01    0.4315973      0.32233 -68.24  0.001997859    2.022    0.505
       137  -8.5719     70.8997     66.4862   8.4019157757e+01   5.4969662778e+01    0.1900913    0.1372539  32.76 0.0006105104    1.492    0.330
       138  -8.5353     49.4772     65.4746   9.1590487533e+01   5.8128333988e+01    0.1377802    0.1131194 -30.24 0.0008096555    1.015    0.015
       139 -10.3478     43.4756     63.3387   9.3234244325e+01   5.9269452031e+01    0.3541287    0.3331355  24.30  0.002309841    1.321    0.243
       140  -9.3385     32.4132     64.3369   9.7925529260e+01   6.0196580074e+01    0.2275772    0.1818773 -25.14 0.0007689213    1.141    0.124
       141 -12.2233      7.0562     57.5029   1.0643326241e+02   6.3543424595e+01    0.5397383    0.2486441 -33.02 0.0009128025    2.018    0.505
       142 -10.3745    172.3234     62.1670   5.5627825892e+01   3.4295620060e+01    0.4463349    0.2956639   7.96  0.001875849    2.306    0.566
       143  -9.7994    170.9630     59.0000   5.4940723758e+01   3.5106249262e+01    0.3115842    0.1998769  79.65  0.001063047    2.066    0.516
       144  -9.5320    147.1401     62.8480   6.0906741582e+01   4.0184230624e+01    0.2225237    0.1999914 -61.88 0.0004761616    1.234    0.190
       145 -10.1971     69.9808     62.3134   8.2906993228e+01   5.5929262222e+01    0.5309805    0.2323886  37.23  0.002220518    2.455    0.593
       146  -8.8871    219.1787     61.6182   4.8155635049e+01   2.3477093566e+01    0.1868814    0.1241029  51.13 0.0009450986    1.664    0.399
       147  -8.8820    120.8948     60.8461   6.6568685535e+01   4.6504546700e+01    0.2294274    0.1878937  11.82 0.0005277256    1.284    0.221
       148  -9.0021     97.3900     61.1704   7.3377081996e+01   5.1330118339e+01    0.2213787    0.1901654 -47.54 0.0003971124    1.316    0.240
       149 -10.5655     95.3749     56.7756   7.2420853163e+01   5.2489594616e+01    0.5344874    0.3436694 -11.11  0.002420049    1.902    0.474
       150  -8.6274     88.4562     60.5289   7.5968670939e+01   5.3132476067e+01    0.1448434    0.1280736 -10.93 1.945405e-05    1.006    0.006
       151 -11.4696    150.1538     57.3593   5.8511180796e+01   4.0336704800e+01    0.5442881     0.370408  72.77  0.002487744    1.817    0.450
       152 -10.1609     59.6516     58.0695   8.5204418839e+01   5.8277293345e+01    0.3577846    0.2900019  14.48  0.001246116    1.264    0.209
       153  -9.0755    212.0725     49.6530   4.6050205738e+01   2.6767542540e+01    0.3620816    0.1858923  71.16   0.00161145    2.186    0.543
       154 -10.0765    199.8028     56.4304   4.9502895051e+01   2.8640251849e+01    0.5422134    0.3492205  -2.95  0.002358756    2.403    0.584
       155  -9.1543    200.9889     49.0118   4.7352601155e+01   2.9407279324e+01    0.3332899    0.2193534 -56.42   0.00144444    1.586    0.369
       156 -10.0151    159.5969     56.9179   5.6457059864e+01   3.8148882343e+01     0.328573    0.2553143  32.75 0.0009730665    1.393    0.282
       157 -10.1394    162.7446     52.6917   5.4555175600e+01   3.8017548049e+01     0.513454    0.2423967 -43.20  0.002057365    2.187    0.543
       158  -9.0963     34.4650     57.6950   9.5041343170e+01   6.1382639254e+01    0.2111735    0.1631719 -58.09 0.0007300694    1.427    0.299
       159  -8.9961    213.7634     57.5707   4.7851310214e+01   2.5274354853e+01    0.1811979    0.1311257  84.19 0.0003775131    1.566    0.362
       160  -8.8501    185.3200     56.8157   5.1838647367e+01   3.1997023048e+01    0.2035848    0.1817139  78.18  0.001136808    1.155    0.134
       161  -9.2140    105.4058     56.3034   6.9247747811e+01   5.0561859358e+01    0.2818851    0.2081268  27.63 0.0009630306    1.384    0.277
       162  -9.5497     69.8464     55.5271   8.0518559726e+01   5.7226753085e+01    0.3765662    0.2940632  -4.52  0.002110102    1.251    0.200
       163  -8.7775     86.0940     54.3299   7.4478886645e+01   5.4660597582e+01    0.2619315    0.1795013 -35.77  0.001332055    1.391    0.281
       164  -9.8865     80.5110     53.7207   7.6113902248e+01   5.5767065391e+01    0.6146902    0.3154039 -21.10  0.002441776    2.552    0.608
       165  -9.8477     84.6122     48.3356   7.2701471660e+01   5.5938402031e+01    0.3837054    0.2502579 -23.91  0.001145529    1.490    0.329
       166  -8.3261     26.0036     56.4601   9.8164116085e+01   6.2420956655e+01    0.1666469    0.1203423  10.73  0.001011925    1.538    0.350
       167  -9.6078     22.2098     55.8032   9.9560630719e+01   6.2871832839e+01    0.3079518     0.143612 -39.02 0.0004108453    1.771    0.435
       168  -9.4505    207.5051     49.9759   4.6727201854e+01   2.7767016261e+01    0.2938009    0.2300433 -44.14 0.0007588252    1.188    0.158
       169 -10.8963    173.9040     52.8577   5.2604557696e+01   3.5305262888e+01    0.5482486    0.2520455 -29.53  0.002192373    2.219    0.549
       170 -10.0812    136.2425     52.0716   5.9825007938e+01   4.4413696430e+01    0.3972187    0.2695619 -20.70  0.001785441    1.569    0.363
       171  -8.2775     50.5481     59.5297   8.9207415808e+01   5.9204169513e+01    0.1371196    0.1117212 -26.49 0.0001803687    1.022    0.022
       172  -9.9950     44.3165     52.4201   8.9209049925e+01   6.1355489258e+01    0.3707595    0.2877408 -55.77  0.001228697    1.537    0.350
       173  -9.8822     49.2192     49.5498   8.6173069552e+01   6.1291990155e+01    0.2459242    0.1660142 -20.51 0.0005569888    1.396    0.284
       174 -10.4209     45.9811     47.2439   8.6626559579e+01   6.2127020301e+01    0.3629107    0.2328798  38.63 0.0002020939    1.906    0.475
       175  -9.5071    112.1039     56.0203   6.7255026408e+01   4.9204319164e+01    0.2753666    0.2150878  22.80  0.001063631    1.312    0.238
       176 -10.0095    115.6953     50.6321   6.4365957834e+01   4.9281970435e+01    0.4509131    0.3046641  75.40  0.001569056    2.351    0.575
       177 -11.2937    106.4825     50.6243   6.6881486112e+01   5.1256322047e+01    0.4942816    0.3305442  66.00 0.0001652764    2.115    0.527
       178  -8.6917     29.4693     52.5032   9.5431899413e+01   6.2913587264e+01    0.1321235   0.09961143 -31.53  0.000222071    1.064    0.060
       179  -8.2911      1.2876     52.2730   1.0754032675e+02   6.4948986786e+01     0.122506   0.06481043 -38.69  0.000263213    1.509    0.337
       180  -9.6577    126.5086     50.3126   6.1513113682e+01   4.6917689392e+01    0.2903172    0.2167127  18.25 0.0002198335    1.490    0.329
       181  -9.6327     95.2481     48.1907   6.9275786140e+01   5.3929082193e+01    0.5074478    0.2868461 -26.80  0.002235827    1.776    0.437
       182 -10.1451     17.1429     50.5475   1.0012929629e+02   6.4338594584e+01    0.3580247    0.2745104   4.89  0.002120666    1.434    0.303
       183  -8.5395     73.2880     49.9993   7.7210634197e+01   5.7648294758e+01    0.1919855    0.1584598 -17.19 0.0004752657    1.062    0.058
       184  -8.8827     55.4517     50.0410   8.3882077332e+01   6.0369184595e+01     0.195844    0.1427283 -28.92 0.0006157584    1.176    0.150
       185 -10.3917     59.4103     47.4774   8.1366761861e+01   6.0264296802e+01    0.3468861    0.2382605 -13.57  0.001145765    1.454    0.312
       186  -9.2016    121.8551     48.7977   6.2130035201e+01   4.8194233806e+01    0.2420238    0.2021055  83.84 0.0007069952    1.560    0.359
       187 -10.4073      5.8576     48.1764   1.0441374522e+02   6.5557027809e+01    0.2150788    0.1383738 -38.88 0.0002725084    1.194    0.163
       188  -9.1382    186.9330     47.2170   4.8884613095e+01   3.2968784872e+01    0.3086969    0.1438515 -53.32   0.00117882    2.655    0.623
       189  -9.2254    170.1183     48.1222   5.1850795555e+01   3.6885629517e+01    0.2151644    0.2080079 -72.93 0.0004251104    1.037    0.036
       190 -10.5363    167.3139     43.0613   5.0808843242e+01   3.8248357035e+01     0.459886    0.3451917  -7.10  0.002353709    1.573    0.364
       191  -9.1391     34.4448     46.7228   9.1293310252e+01   6.3547287925e+01    0.2600666    0.1943462 -58.83  0.001527734    1.676    0.403
       192  -9.1802     25.4370     48.4163   9.5802562128e+01   6.4091352101e+01    0.2560867    0.1194235  15.38  0.001236171    2.570    0.611
       193 -10.9378    153.1038     45.9278   5.4272145738e+01   4.1293966133e+01    0.3825439    0.3659896 -25.53  0.000464394    1.059    0.056
       194  -9.4885    149.0432     38.3930   5.2625205951e+01   4.3267656370e+01    0.3722597    0.1997544 -40.68 0.0008919937    1.941    0.485
       195 -10.4894    142.6137     43.7622   5.5665165292e+01   4.4098429607e+01    0.5073701    0.3634173   5.92  0.001420605    1.713    0.416
       196  -8.9687    126.0007     55.5120   6.3432776164e+01   4.6234897963e+01     0.208426    0.1425905  50.82 0.0003635206    1.474    0.321
       197 -10.0307    109.2191     43.9142   6.3648945202e+01   5.1686896467e+01     0.332136     0.273188  68.13 0.0008362093    1.511    0.338
       198  -9.1188     69.6282     43.6256   7.6028738770e+01   5.9325066254e+01    0.3764015    0.2141734  -2.87  0.001316209    2.693    0.629
       199  -9.0081     20.2541     43.4732   9.6418431317e+01   6.5497511618e+01    0.2874602    0.1916497 -44.92  0.001764971    1.237    0.191
       200  -8.5768      1.3018     44.8475   1.0551380778e+02   6.6478185776e+01    0.1627779   0.07501363 -50.67 0.0008897955    1.538    0.350
       201  -9.0686     75.9601     43.9326   7.3905024473e+01   5.8200921365e+01    0.2099725    0.1610718   2.72 0.0004524795    1.264    0.209
       202  -8.7236     54.0000     44.0274   8.2134720795e+01   6.1642586510e+01    0.1875541    0.1342846 -48.13 0.0007703762    1.611    0.379
       203  -8.8701     56.2520     41.4293   8.0203348663e+01   6.1765468213e+01    0.2411801    0.1520195  42.10  0.001195615    1.906    0.475
       204  -8.4037    187.4443     43.2151   4.7689068714e+01   3.3382203874e+01    0.1966486    0.1181707 -44.55 0.0009117979    1.634    0.388
       205  -9.0387     99.3108     41.3568   6.5457195406e+01   5.4140426149e+01    0.2615322    0.1983409 -64.86  0.001003017    2.041    0.510
       206  -9.2167     27.8443     41.3317   9.2214763629e+01   6.5224868419e+01    0.2323175    0.1405233 -22.62 0.0005698169    1.544    0.352
       207  -8.7500    204.4258     40.7179   4.4713703515e+01   2.9710290688e+01     0.269341    0.1118349 -36.99   0.00112996    2.179    0.541
       208 -10.2867    205.5270     53.0611   4.7799145547e+01   2.7793554252e+01    0.5601239    0.3402632 -85.85   0.00248611    2.269    0.559
       209 -10.3058     63.5295     39.8013   7.6732920590e+01   6.0929279901e+01    0.4774145    0.2160961 -37.58  0.001762004    2.056    0.514
       210  -9.7481     36.3739     39.6616   8.7781890322e+01   6.4636922010e+01     0.353039    0.2001932 -46.96  0.001884296    1.710    0.415
       211 -10.5477     33.2028     35.8328   8.7660240999e+01   6.5663455952e+01    0.4609369    0.2003219 -30.69  0.001326635    2.228    0.551
       212  -8.5755    213.6524     40.6738   4.3578216515e+01   2.7600740114e+01     0.133467    0.1010191  28.85 1.660422e-05    1.751    0.429
       213  -9.8103    111.9494     38.7447   6.1000960486e+01   5.1816950561e+01    0.4139792    0.2638476 -53.47  0.001888008    2.193    0.544
       214 -10.1721    106.9547     35.0098   6.0896950676e+01   5.3398852158e+01      0.21061    0.1845165  30.01            0    1.063    0.059
       215  -8.6563    181.8219     37.8805   4.7004481565e+01   3.5414230007e+01    0.1971398    0.1486667 -55.03 0.0008530482    1.362    0.266
       216  -9.7102    161.2522     37.3989   5.0109872396e+01   4.0445277474e+01     0.384313      0.27261  45.01  0.001279865    1.419    0.295
       217  -8.7539    132.4606     37.9618   5.5849963595e+01   4.7260802839e+01    0.2090336    0.1356842 -29.86 0.0006770233    1.567    0.362
       218  -9.4724     48.6578     37.0305   8.1467263454e+01   6.3564762243e+01    0.2497704    0.1962272 -75.22  0.001295021    2.705    0.630
       219  -8.4889    249.6640     37.3015   3.9080591405e+01   2.0285391704e+01    0.1327365   0.07821817 -61.53 0.0005109732    1.661    0.398
       220  -9.7122    127.7264     36.5421   5.6396835250e+01   4.8544371501e+01    0.2605951    0.2468545  19.78 0.0007556733    1.026    0.025
       221 -11.2121     79.4088     32.2944   6.7974835121e+01   5.9313255283e+01    0.5588052    0.4543293 -74.37   0.00300903    2.158    0.537
       222  -8.8515     86.4296     33.5393   6.6232427064e+01   5.7810341811e+01    0.2073176    0.1476638   9.26 0.0005984024    1.443    0.307
       223  -9.8647     69.7920     36.5233   7.3067761259e+01   6.0413435243e+01    0.3498251    0.2651305  31.82  0.002032103    1.317    0.241
       224  -8.7766    215.6611     35.0399   4.1940578787e+01   2.7857121713e+01    0.1828785    0.1577592 -52.41 0.0005369454    1.065    0.061
       225  -9.7556    192.8523     33.9014   4.4380415009e+01   3.3275195413e+01    0.3834716    0.2224942  48.48  0.001847652    1.855    0.461
       226 -10.1596    239.1227     22.1750   3.6657422554e+01   2.4275019568e+01    0.3123046    0.2705777  79.14  0.001110426    1.220    0.180
       227 -10.9463    236.4970     30.6892   3.8800137817e+01   2.3828051933e+01    0.5189335    0.3585982 -67.73  0.002573677    1.390    0.281
       228  -9.6019    237.4993     26.4905   3.7760145433e+01   2.4116159396e+01    0.2558326    0.1773862 -51.81 0.0006853975    1.250    0.200
       229  -9.9030    114.6225     32.1507   5.7863012493e+01   5.2076555017e+01     0.275609    0.2055167  53.48 0.0003146366    1.326    0.246
       230  -9.9452    110.6679     29.1880   5.7716613604e+01   5.3313856206e+01    0.3220785    0.2467992  57.11  0.001093478    1.353    0.261
       231  -9.1043    221.3015     30.9670   4.0342721705e+01   2.7091823041e+01    0.1731762    0.1485075 -49.08 0.0002557578    1.087    0.080
       232  -8.3142    143.5070     31.4640   5.1396766274e+01   4.5444817008e+01     0.139554    0.1276886  37.31 6.837789e-05    1.051    0.048
       233  -9.9948     42.9958     29.3889   8.0590707729e+01   6.5549025446e+01    0.2843855    0.1570769 -36.53 7.238151e-05    1.626    0.385
       234 -10.0354     47.6220     28.3545   7.8158185350e+01   6.5080036248e+01    0.2741548    0.2128932  23.83 0.0008972839    1.317    0.241
       235  -9.2172    151.2179     30.2120   4.9580378629e+01   4.3738025819e+01    0.3027166    0.1304508  35.06  0.001042633    3.440    0.709
       236  -8.4778    125.3298     30.3012   5.4703257256e+01   4.9864628059e+01    0.1470549   0.09680018  28.02 0.0007032627    1.646    0.393
       237  -8.4428     65.4396     30.1908   7.1950957464e+01   6.2071952623e+01    0.1792077    0.1143798 -38.76 0.0009489252    1.690    0.408
       238  -9.1630    229.6990     28.7744   3.8994867112e+01   2.5513308897e+01    0.3271038    0.1301537 -40.60  0.001425304    2.130    0.531
       239  -9.3190    226.8182     22.9489   3.7907448380e+01   2.6817051871e+01    0.2918915    0.1841757 -86.90  0.001348546    1.648    0.393
       240  -9.5598    215.8533     27.8779   4.0153604514e+01   2.8676147401e+01    0.3265175    0.2376491  40.39  0.001838558    1.717    0.418
       241  -8.5712    201.1929     29.3953   4.2153393121e+01   3.1855608012e+01    0.1771562    0.1190544  87.70 0.0002943648    1.575    0.365
       242 -10.3207    182.1504     27.3219   4.3969768624e+01   3.6598061578e+01    0.4895206    0.2706576  36.56  0.001608418    2.373    0.579
       243  -8.1089    158.3356     29.2935   4.8079848134e+01   4.2123523761e+01    0.1437834    0.0978136  34.18 0.0007026244    1.642    0.391
       244  -8.2920     15.0004     23.9442   9.1415698591e+01   6.9474924021e+01    0.1658972    0.1203282 -29.01 0.0004182046    1.068    0.064
       245  -9.2797     15.0032     29.0117   9.3515493906e+01   6.8600258659e+01    0.1961482    0.1461389  -9.38 0.0007069538    1.217    0.178
       246  -8.6415     17.2807     26.6796   9.1425949222e+01   6.8812872940e+01    0.1717286    0.1268782 -17.59 0.0003982692    1.096    0.087
       247  -9.7739    206.6192     26.2678   4.0734990748e+01   3.0963527903e+01    0.2557609    0.2246496   3.27 0.0009592797    1.406    0.289
       248  -9.7377     81.4412     26.4149   6.4825639282e+01   5.9702684675e+01     0.296134    0.2882605  45.84  0.001424898    1.341    0.254
       249  -9.7491     75.9588     22.6658   6.4972400368e+01   6.1199899989e+01    0.2751932    0.2479952 -63.58  0.001703962    1.660    0.398
       250  -8.6494    106.6501    247.1489   1.0965004576e+02   9.6744719426e+00    0.1550663    0.1040998 -47.38 0.0008434796    1.835    0.455
       251 -12.3980     75.9585    219.1288   1.1269066433e+02   1.9137549514e+01    0.8907433    0.6476668  51.28  0.004638941    1.229    0.186
       252  -8.5540    197.6261     26.2586   4.1749172313e+01   3.3051137590e+01    0.1382488   0.09101431 -70.45 0.0001987152    1.654    0.396
       253 -10.2098    120.8183     25.8594   5.4084901513e+01   5.1412412885e+01     0.391884    0.2210877  52.75  0.001292082    1.622    0.384
       254  -8.9833     22.5839     25.6344   8.8359192232e+01   6.8496905556e+01    0.2511713    0.0705791 -35.57 0.0009643408    3.315    0.698
       255  -9.8820    179.0244     22.8941   4.3132244010e+01   3.7838342118e+01     0.264674     0.248874  23.79  0.001044308    1.184    0.156
       256  -8.9598     98.6838     22.9458   5.8345682298e+01   5.6629053195e+01     0.311842     0.165138 -25.46 0.0009545775    1.910    0.476
       257 -10.9411     69.1339    217.6635   1.1392488519e+02   2.0323911584e+01    0.4127946     0.269293  89.61  0.001278277    1.592    0.372
       258  -8.2599     58.2746     24.3388   7.2043376641e+01   6.4054978125e+01     0.132713   0.08531985   0.84 0.0003809288    1.611    0.379
       259 -10.1218    164.4083     21.9707   4.4887312615e+01   4.1459032725e+01    0.3054227    0.2305984  35.53 0.0009070741    1.441    0.306
       260  -9.9484     90.8455    214.8271   1.0913055097e+02   1.7972958488e+01    0.3718745    0.1698889  29.68  0.001332583    2.554    0.608
       261  -9.7083      1.6898     21.9263   9.7538430229e+01   7.0806468297e+01    0.2377664    0.1245293 -47.23 0.0005225752    1.521    0.343
       262  -9.2228    218.1572     21.7949   3.8446669362e+01   2.8857054315e+01    0.1841079    0.1509772 -68.53 0.0002842976    1.101    0.092
       263 -10.5115    142.0683     21.2462   4.8251662961e+01   4.6917443025e+01    0.3047547    0.2713507 -45.37 0.0005871782    1.220    0.180
       264  -9.3184      7.6620     22.2498   9.4499066988e+01   7.0345278238e+01    0.1878591    0.1409555  -3.25 0.0005628189    1.282    0.220
       265  -8.8406    205.8301     21.1883   3.9533970845e+01   3.1715760993e+01     0.163441    0.1400679  53.68            0    1.279    0.218
       266  -8.5534     19.6047     21.6941   8.8093995602e+01   6.9429400363e+01    0.1298607   0.07155452 -15.15 0.0007005544    1.827    0.453
       267  -8.8754    222.9238     20.0173   3.7577599679e+01   2.7999388706e+01     0.185174    0.1459668  35.06 0.0008186927    1.669    0.401
       268  -8.3521    132.4496    210.5297   9.9705784005e+01   1.2505505503e+01    0.1308528    0.1217366  34.47 0.0001031177    1.020    0.020
       269  -9.2959      1.3341    184.8780   1.2498179605e+02   3.4429799192e+01    0.2771794   0.08067378 -74.74  0.001245692    2.654    0.623
       270  -9.1266      6.9871    168.7032   1.2261871265e+02   3.7617210796e+01    0.1640843    0.1352361  84.55 0.0007294446    1.092    0.084
       271  -9.3869     23.5303    162.7353   1.1828892498e+02   3.7639912614e+01    0.1741972    0.1011574 -87.17 0.0009331171    1.564    0.361
       272  -9.6152     85.4017     13.7935   5.8168873560e+01   6.0345529605e+01    0.2111067    0.1368069  40.66 0.0009274399    1.364    0.267
       273  -8.6416     69.5271     20.0330   6.5962104529e+01   6.2692682585e+01    0.1880856    0.1154917 -20.20  0.000659322    1.551    0.355
       274  -8.7428    130.4563     19.5518   4.9815341450e+01   4.9843349153e+01    0.1331989     0.122791  44.25 3.917921e-05    1.020    0.020
       275  -9.3132    119.0668     18.9169   5.1900786582e+01   5.2549802223e+01     0.206287    0.1814805  37.20 0.0006264046    1.020    0.019
       276  -9.0608      7.0147    163.4715   1.2218510980e+02   3.8817888775e+01     0.145453     0.119223  31.84 0.0004356667    1.524    0.344
       277 -10.3389     55.4335     17.5281   6.9967197300e+01   6.5395035906e+01    0.3171576    0.1878332  -1.54 0.0009888227    1.836    0.455
       278 -10.0103      7.0574    155.8962   1.2152114542e+02   4.0576012095e+01     0.215011     0.168497   7.22  0.001058356    1.798    0.444
       279  -9.1522     43.5475     15.2447   7.3729391124e+01   6.7492742066e+01    0.2687367    0.1425384  -5.99  0.001295481    2.315    0.568
       280 -10.7534      3.1684    152.7874   1.2216325840e+02   4.1577226443e+01    0.3381075    0.2591449 -41.62  0.002260029    1.593    0.372
       281  -9.4695     21.1911    152.4089   1.1776475751e+02   4.0295685777e+01    0.2552639   0.07438705 -68.36  0.001018507    2.623    0.619
       282 -10.3851     22.2528    142.3456   1.1634033370e+02   4.2629419059e+01    0.3663383    0.2080892  71.95 0.0004656262    2.048    0.512
       283  -9.6604     11.9390    145.0728   1.1928835716e+02   4.2777808809e+01     0.184316    0.1444283 -78.87  0.000290447    1.003    0.003
       284 -10.2884     36.8759    141.2155   1.1231523030e+02   4.1591754307e+01    0.3216229    0.2246177 -36.60  0.001249561    1.684    0.406
       285 -10.5358      5.5672    140.7419   1.2045009470e+02   4.4255350490e+01     0.529355    0.2853949 -11.91  0.002599037    3.280    0.695
       286  -9.8456     29.7071    137.9811   1.1380076919e+02   4.3051814234e+01    0.2527726    0.1974989  15.23 0.0007782748    1.641    0.390
       287  -9.9005    227.0182    134.5464   6.4764915272e+01   9.7743179682e+00     0.382751    0.2732725  59.51  0.001926487    1.856    0.461
       288  -9.0195     45.4579    135.4421   1.0908896752e+02   4.2140792450e+01    0.1360123    0.1161609 -70.72 5.220628e-05    1.018    0.017
       289  -9.3675     30.4216    133.2126   1.1294038810e+02   4.4155295199e+01    0.1909594    0.1097232 -80.21 0.0009482065    1.670    0.401
       290  -8.7944     34.6664     12.7019   7.6423908194e+01   6.9042424603e+01    0.1882562    0.1031621 -26.53 0.0008247234    1.583    0.368
       291  -8.6155     32.1268     10.6153   7.6543846303e+01   6.9644010847e+01     0.166732    0.1045369  26.44   0.00102469    1.534    0.348
       292  -9.2798     36.2805    132.0252   1.1112788444e+02   4.3906937633e+01    0.1910889    0.1513581 -67.25 0.0007263895    1.050    0.047
       293  -9.3108     15.9630    131.5131   1.1668771818e+02   4.5743798345e+01    0.2055362    0.1388675 -71.67 0.0005896311    1.174    0.148
       294  -8.6953      4.6151    130.8052   1.1965761550e+02   4.6684821103e+01    0.1734385   0.09502895 -84.28 0.0001037056    1.593    0.372
       295  -9.8756     37.3213     17.6991   7.7689528570e+01   6.8018874656e+01    0.4057443    0.2133581  11.36  0.001953542    2.335    0.572
       296  -8.7284     80.7880    129.1545   9.7835144793e+01   3.9211873497e+01    0.1987697    0.1660517 -28.13  0.001013141    1.300    0.231
       297  -9.4461     88.4944     10.1705   5.5736723648e+01   6.0063051484e+01    0.2672415    0.1293086  54.55  0.001280616    1.944    0.486
       298 -10.3186     12.6772    126.2900   1.1693692377e+02   4.7240791877e+01    0.6432513   0.01544522 -64.10   0.00187635    4.884    0.795
       299 -10.6318    230.6420    123.8937   6.1671159942e+01   1.0930576196e+01    0.6199359    0.3461326 -43.86  0.002842666    1.689    0.408
       300 -10.5171     48.6920    125.3655   1.0644504200e+02   4.4281325760e+01    0.3624552    0.2722945 -24.90  0.001289392    1.601    0.376
       301  -8.9301     23.4805    125.0468   1.1372281927e+02   4.6739404204e+01    0.1838269    0.1585445 -73.60 0.0005122889    1.072    0.067
       302  -9.9884      8.3192    123.8794   1.1784991039e+02   4.8110916267e+01    0.2876581    0.1233903 -53.76  0.001063277    1.938    0.484
       303  -8.8258     69.3648    124.2308   1.0012093853e+02   4.2036417719e+01    0.2116754    0.1272648 -68.12 0.0004866301    1.735    0.424
       304 -10.1328     94.0565    122.7693   9.2580904108e+01   3.8679432578e+01    0.3717392    0.2459091  52.42 0.0008079949    1.803    0.445
       305  -9.8222     90.0735    122.0082   9.3552038478e+01   3.9511494652e+01    0.2304463    0.2129076 -16.58 0.0003143141    1.143    0.125
       306  -9.5892     78.0589    123.0438   9.7301886879e+01   4.1104876743e+01    0.2131646    0.1973146 -54.38 0.0003218569    1.028    0.028
       307 -10.4680     29.6476    124.6995   1.1189683674e+02   4.6310260470e+01    0.4014924    0.2519738 -29.24   0.00208424    2.019    0.505
       308 -10.8939     58.8068    119.1150   1.0221875843e+02   4.4650736523e+01    0.5332184    0.3656024  78.01   0.00253549    2.025    0.506
       309  -9.4818     69.9450    118.1796   9.8647139949e+01   4.3437917380e+01    0.2650316    0.1948967 -56.68 0.0008420089    1.215    0.177
       310  -9.7991     98.5731    117.1912   8.9922591331e+01   3.9243216343e+01    0.2598104    0.2290064  -0.89 0.0004012789    1.250    0.200
       311  -8.6070    232.8730    117.1182   5.9717813732e+01   1.1658905443e+01    0.1867193    0.1535235  -7.81 0.0003767468    1.278    0.218
       312 -10.2884     25.6977    116.4569   1.1176692150e+02   4.8656464027e+01    0.3211894    0.2202875  31.98  0.001854094    1.741    0.426
       313  -9.5450     39.1986    115.1453   1.0743497454e+02   4.7775331996e+01    0.3127666    0.2005052  66.94  0.001361089    2.118    0.528
       314 -11.0009     11.5091    114.5320   1.1571101179e+02   5.0155446780e+01    0.2545362    0.2208708 -31.70  0.000575795    1.337    0.252
       315  -9.1039      1.3728    111.5214   1.1829691353e+02   5.1474547713e+01    0.2057354   0.09558725 -73.76 -2.123217e-06    1.698    0.411
       316  -9.2841     62.6979    111.7941   9.9451606734e+01   4.5950238840e+01    0.2376209    0.1521134 -43.83 0.0009163877    1.439    0.305
       317  -9.7918     49.9703    111.6814   1.0341146209e+02   4.7500257805e+01    0.2673047    0.1812265 -67.79 0.0007401915    1.397    0.284
       318  -9.1236     46.0273    112.7517   1.0486204715e+02   4.7667124808e+01    0.1581129    0.1197512  26.16 0.0005730784    1.551    0.355
