#   1 NUMBER                 Running object number                                     
#   2 MAG_AUTO               Kron-like elliptical aperture magnitude                    [mag]
#   3 X_IMAGE                Object position along x                                    [pixel]
#   4 Y_IMAGE                Object position along y                                    [pixel]
#   5 X_WORLD                Barycenter position along world x axis                     [deg]
#   6 Y_WORLD                Barycenter position along world y axis                     [deg]
#   7 A_WORLD                Profile RMS along major axis (world units)                 [deg]
#   8 B_WORLD                Profile RMS along minor axis (world units)                 [deg]
#   9 THETA_WORLD            Position angle (CCW/world-x)                               [deg]
#  10 FWHM_WORLD             FWHM assuming a gaussian core                              [deg]
#  11 ELONGATION             A_IMAGE/B_IMAGE                                           
#  12 ELLIPTICITY            1 - B_IMAGE/A_IMAGE                                       
         1 -12.5988    129.2357     50.1968   7.9559157764e+01   4.6521659146e+01     2.978958     1.143655  40.26 0.0006074482    2.894    0.654
         2 -12.7445    172.5384     68.8399   7.5695407175e+01   3.2826375353e+01     2.315574    0.9454182 -43.81  0.007880562    2.760    0.638
         3 -14.8106    207.6149     62.5907   6.7577794336e+01   2.5110548086e+01     11.97338      5.38426 -51.74   0.04123878    3.206    0.688
         4 -12.5250    233.3023      6.1606   4.9471501855e+01   2.5474634912e+01    0.8273755    0.7037699  -9.22  0.002866654    1.315    0.240
         5 -13.1968    225.0485     49.9363   6.1666824558e+01   2.2634491086e+01     1.889807     1.589336  80.87   0.00570484    1.313    0.238
         6 -14.9100    241.1861     22.5770   5.2895435532e+01   2.2061388091e+01      6.62138     2.086073  61.68   0.01499136    3.024    0.669
         7 -12.6123    247.2318     37.7376   5.6064033326e+01   1.9081446193e+01     1.507176    0.4033253 -32.34  0.005638321    2.909    0.656
         8 -12.4993    248.2248      3.1067   4.7663309638e+01   2.2414798949e+01    0.7194363    0.5507487  74.65   0.00278576    1.351    0.260
         9  -9.8903    142.4087     13.2286   6.2687841877e+01   4.8005713504e+01    0.5534049    0.3211385 -31.49  0.002513598    1.802    0.445
        10  -9.5647    143.4544      7.8255   6.0461229037e+01   4.8243829851e+01    0.4874368    0.2342072   2.33  0.001799345    2.989    0.665
        11  -9.9228    125.2277     13.4159   6.6245279955e+01   5.2423335283e+01    0.3545262    0.2756549 -41.93  0.001457268    1.467    0.318
        12 -11.0416    119.3534      9.9760   6.6129325058e+01   5.4251027785e+01    0.8204601    0.4482911  47.75  0.003109332    1.617    0.381
        13  -9.9722    209.1054      2.1764   5.0432607042e+01   3.1623540802e+01    0.2187637     0.214151 -57.56 0.0004321059    1.079    0.073
        14  -8.5530    101.6587    162.3920   1.1576298970e+02   2.8917119943e+01    0.1810431    0.1724429 -49.79 0.0004720992    1.160    0.138
        15 -11.9706    240.1315    243.5463   1.0047182375e+02  -4.8399999812e+00     0.214018    0.1617257  12.16 0.0003552816    1.187    0.158
        16  -9.0282     49.3790    243.1705   1.3440897044e+02   2.0834659223e+01    0.1337431   0.07793771  79.04 0.0005019186    1.702    0.413
        17  -7.9028      4.4989    236.8334   1.4164669225e+02   2.6154817276e+01    0.1231368   0.07557866  88.23 0.0009909547    1.482    0.325
        18 -11.1635    198.5598    134.3400   8.7847813965e+01   1.6026677976e+01    0.4867021    0.4239643  50.48  0.002705164    1.331    0.249
        19  -8.9292    180.9980    136.5109   9.1980523052e+01   1.9258379372e+01    0.2270943    0.1371277  42.35 0.0006883307    1.575    0.365
        20  -8.5582    161.6871    136.0247   9.6164937671e+01   2.3299740245e+01     0.198757    0.1807483  -5.40 0.0002244261    1.089    0.082
        21  -8.2880    166.4277    131.5343   9.4048896307e+01   2.3156918599e+01    0.1494411    0.1365752  13.79 0.0001033894    1.014    0.014
        22  -8.8905    161.1655    129.8617   9.4868041201e+01   2.4559970499e+01    0.2148016    0.1731748   4.52 0.0009210546    1.346    0.257
        23 -11.0135    185.9585    120.1856   8.7044460170e+01   2.1031732107e+01    0.5163388    0.3255969 -45.76  0.002311861    1.809    0.447
        24  -9.3482    217.6149    125.7083   8.2204847278e+01   1.3506324568e+01    0.2284601      0.19712  32.78  0.001298092    1.179    0.152
        25 -10.8275    199.2305    123.2549   8.5095680802e+01   1.7686204365e+01    0.4286401    0.2575777  41.56  0.001965957    1.612    0.380
        26 -10.0884    195.0352    119.0352   8.4900488046e+01   1.9270669379e+01    0.4119144    0.2863848 -77.89  0.001595505    3.153    0.683
        27 -10.1300    152.3796    220.9889   1.1306719989e+02   1.0597060674e+01    0.2163933    0.1803151  31.98  0.000331825    1.064    0.060
        28  -9.5227    216.0662    116.0732   8.0180740453e+01   1.5282426178e+01    0.2992406    0.2350755  22.20  0.001597607    1.239    0.193
        29  -7.6393      5.3908    116.7254   1.3562123197e+02   4.9604322185e+01     0.121048   0.07033494  60.62 0.0006993805    1.729    0.422
        30  -9.9880    167.6640    113.9386   8.9471526192e+01   2.6132952016e+01    0.3625525    0.3240501  43.68 0.0006995098    1.147    0.128
        31  -8.2415    135.0000    113.5110   9.7356319572e+01   3.3206943827e+01    0.3295229   0.08648411 -44.34 0.0009302741    3.899    0.744
        32  -9.5918    188.8830    112.6950   8.4562152700e+01   2.1669665648e+01    0.2548039    0.1970457 -15.29 0.0005153828    1.314    0.239
        33 -10.9226    205.5102    110.8744   8.0835547691e+01   1.8330981158e+01    0.5017104    0.3129985  31.45  0.002284505    1.691    0.409
        34  -7.7883     74.6697    219.7040   1.2820595271e+02   2.1762000616e+01   0.09855794   0.08574361   3.71 0.0007026424    1.636    0.389
        35 -11.3473    187.8877    104.6803   8.2696662445e+01   2.3244635814e+01    0.6748176    0.5517212 -11.32  0.003172781    1.225    0.184
        36 -11.4396    186.0500     94.6806   8.0394771620e+01   2.5341704550e+01     1.200855    0.3316903 -41.62  0.003443958    3.918    0.745
        37 -10.0410    195.7752     96.3881   7.8937653013e+01   2.2817090608e+01    0.3764242    0.3185159 -63.31  0.001922279    1.494    0.331
        38  -8.0178    134.2889     96.9498   9.3167931781e+01   3.6728620772e+01    0.2152437    0.1931196 -38.51 0.0005798144    1.137    0.121
        39  -7.9346     25.9647    215.5245   1.3714466271e+02   2.7801857666e+01    0.1151919   0.08887226  -5.11 0.0008059751    2.318    0.569
        40  -9.8842    158.1812     93.9987   8.6314541707e+01   3.1949326476e+01     0.495691    0.3238775  31.64  0.001653364    1.648    0.393
        41  -8.5228    148.0026    100.4334   9.0586355241e+01   3.3039527995e+01    0.2764102    0.2145995 -14.21 0.0007307636    1.437    0.304
        42  -8.7973    203.6957    152.1578   9.0793505062e+01   1.2199370328e+01    0.3176932    0.1646468 -30.18  0.001428715    1.984    0.496
        43  -8.5569    174.0672     89.9343   8.1576226068e+01   2.8956100372e+01    0.2228948    0.2096974  17.43 0.0003430451    1.019    0.019
        44  -7.9392    136.9597     89.9853   9.0474818871e+01   3.7528621529e+01    0.1817798    0.1726902   8.77 0.0009537762    1.002    0.002
        45  -8.9923    141.4838     89.9470   8.9281127153e+01   3.6525704581e+01    0.3074806    0.2726003 -33.48 0.0009251155    1.139    0.122
        46 -10.5995    156.1878     83.7938   8.3827836258e+01   3.4272962901e+01    0.4109842    0.3367242  17.17 0.0007636597    1.289    0.224
        47 -11.8401     53.7449    161.0849   1.2729208055e+02   3.5593439284e+01    0.7519543    0.6482637 -86.20  0.002889803    1.097    0.088
        48  -9.3288     30.8898    211.9036   1.3604908888e+02   2.7969886898e+01    0.1486866    0.1288573  77.48 0.0006605531    1.216    0.178
        49  -9.8421    190.0438     72.9662   7.3514579491e+01   2.7867570351e+01    0.3429469    0.2798752  23.02  0.001404485    1.280    0.219
        50 -10.4962    195.0522     69.9923   7.1756132359e+01   2.7094948122e+01    0.5877126    0.3847364  31.58  0.002226104    1.724    0.420
        51  -8.4478    116.9583     72.5850   9.0730331587e+01   4.5306257242e+01    0.2177552    0.1940275 -29.28  0.000349543    1.104    0.094
        52  -7.6197    153.9627    206.2772   1.1072070323e+02   1.2546364449e+01    0.1635783   0.09296437  38.41 0.0004689246    1.437    0.304
        53  -9.1031    149.5874     62.7567   7.8813087324e+01   3.9509693811e+01    0.2205392    0.1419992 -42.89 0.0005281824    1.655    0.396
        54  -9.4411    162.9879     60.9828   7.5236118019e+01   3.6453665061e+01    0.4692422    0.2075047 -34.19  0.001534066    2.229    0.551
        55 -10.0323    145.6189     61.2806   7.9271635879e+01   4.0729229939e+01    0.5248412    0.2567672 -43.17  0.001970701    2.222    0.550
        56 -10.3218    140.3470     60.9293   8.0450214863e+01   4.2072690979e+01    0.3978444    0.2987626 -76.13  0.001380747    1.991    0.498
        57  -8.3624    100.1541    147.1255   1.1366090454e+02   3.2374204186e+01    0.1828774    0.1753863   9.49 0.0002696465    1.135    0.119
        58  -7.6733    143.6557    141.2101   1.0156656222e+02   2.5890895514e+01    0.1941055    0.1331841 -32.44  0.000299191    1.618    0.382
        59  -8.5512    167.7524    158.8957   9.9667158872e+01   1.7971810980e+01    0.2315931    0.1802347  33.26 0.0004249718    1.154    0.133
        60 -11.4307     68.4434    146.5598   1.2183150374e+02   3.7022128009e+01    0.8514553    0.5936459 -75.47  0.003698332    1.431    0.301
        61  -8.8707    186.5975     22.2824   5.8790674291e+01   3.5418034674e+01    0.3536807    0.2012008 -44.62 0.0009047772    1.840    0.457
        62 -10.1229    214.3801    154.2904   8.9199249102e+01   9.8703311079e+00    0.2437123    0.2108786  14.30 0.0002301754    1.077    0.071
        63  -8.5798    118.2568     21.0017   7.1039732265e+01   5.3315552748e+01    0.2022695     0.179539   0.88 0.0004292401    1.108    0.098
        64 -12.3384     10.5382    189.3386   1.3883502569e+02   3.3962559577e+01     0.746198     0.579626  72.03  0.003754375    1.034    0.033
        65  -9.5998     29.5464    174.2346   1.3401845442e+02   3.5298736820e+01    0.1983621    0.1429328  40.70 0.0006909128    1.362    0.266
        66 -11.9923     41.9862    169.7283   1.3088262549e+02   3.5020729702e+01    0.7752367    0.6505764  -8.58  0.002951633    1.710    0.415
        67  -9.6152    246.2379    166.0517   8.5986257758e+01   2.7238021979e+00    0.4075622    0.1705013  42.78  0.001883658    2.393    0.582
        68 -10.4490    219.8803    135.7147   8.4104805913e+01   1.1563381234e+01    0.3870322    0.2690648   2.29  0.001408132    1.514    0.339
