#   1 NUMBER                 Running object number                                     
#   2 MAG_AUTO               Kron-like elliptical aperture magnitude                    [mag]
#   3 X_IMAGE                Object position along x                                    [pixel]
#   4 Y_IMAGE                Object position along y                                    [pixel]
#   5 X_WORLD                Barycenter position along world x axis                     [deg]
#   6 Y_WORLD                Barycenter position along world y axis                     [deg]
#   7 A_WORLD                Profile RMS along major axis (world units)                 [deg]
#   8 B_WORLD                Profile RMS along minor axis (world units)                 [deg]
#   9 THETA_WORLD            Position angle (CCW/world-x)                               [deg]
#  10 FWHM_WORLD             FWHM assuming a gaussian core                              [deg]
#  11 ELONGATION             A_IMAGE/B_IMAGE                                           
#  12 ELLIPTICITY            1 - B_IMAGE/A_IMAGE                                       
         1  -9.9537     69.5170     25.5935   3.6700615075e+01   6.4511482890e+01     0.765117    0.4631624  82.42  0.003106976    2.522    0.603
         2  -9.1502     27.1958     18.8559   5.6121166881e+01   7.4338180778e+01    0.4153259    0.3179428  24.90 0.0006647212    1.240    0.194
         3  -9.0943     46.1284     20.7493   4.4741501707e+01   7.0503928596e+01    0.4476855    0.2241703 -36.42  0.001965723    2.201    0.546
         4  -9.5111     79.2015     12.3957   2.6795034832e+01   6.3821725067e+01    0.5193668    0.2854576  69.19  0.002122433    1.684    0.406
         5  -8.8801     74.3189     13.3180   2.8689124584e+01   6.4954588613e+01    0.3486184     0.227398  17.72  0.001602652    2.219    0.549
         6  -9.1700     63.7980     13.7374   3.2474220357e+01   6.7503027412e+01    0.4375043    0.2223196  47.72  0.001943478    1.828    0.453
         7  -8.6246     87.7198     13.2390   2.5017201671e+01   6.1535711656e+01    0.3658627    0.1943591  40.63  0.001563281    2.237    0.553
         8  -8.7955     96.1132     12.2908   2.2707752666e+01   5.9451531438e+01    0.3223007    0.2064322  50.56 0.0009670436    1.562    0.360
         9  -9.8771     31.8118     10.7279   4.7193767750e+01   7.4912866866e+01    0.3117242    0.2320097  24.81 0.0002945556    1.355    0.262
        10  -8.7553    107.2892     11.2063   2.0143483256e+01   5.6633344129e+01    0.2943933    0.1797493  85.95  0.001133334    1.577    0.366
        11  -9.8673     20.6291      8.2417   5.4397662757e+01   7.7255565944e+01     0.332756    0.2579888  35.33 0.0002854796    1.210    0.173
        12  -7.7266     13.0033     10.1688   6.3285376471e+01   7.7988192511e+01    0.2863909     0.189868  62.41  0.001382226    2.564    0.610
        13 -10.2198     13.5637      4.0835   5.8146151275e+01   7.9016976637e+01    0.3373951    0.2453229  22.64  0.001993907    1.265    0.209
        14  -8.6733    142.8384      9.1845   1.4712276013e+01   4.7664572284e+01    0.2272871    0.1663917  78.53 0.0003469466    1.254    0.202
        15  -8.6476      3.4134      6.9507   7.2206480387e+01   7.9626092079e+01    0.3950677    0.1701324 -28.03  0.001610958    2.998    0.666
        16  -8.8440    132.4073      6.2170   1.4807209898e+01   5.0593398124e+01    0.3643513    0.1500482 -53.20  0.001477142    2.373    0.579
        17  -9.4974     76.6265      6.4046   2.4366995958e+01   6.5113284151e+01    0.2751577    0.2198589  59.81 0.0001672249    1.123    0.110
        18 -10.3505     84.9800      5.0695   2.1673349189e+01   6.3082441221e+01     0.254439    0.2484843  55.30 0.0003523027    1.152    0.132
        19 -10.0418     49.0494      4.0515   3.2452877622e+01   7.2138883567e+01    0.2883261    0.2093596  42.21 0.0003079005    1.283    0.221
        20  -8.8073     41.7478      5.0873   3.6822731640e+01   7.3664761081e+01    0.3343825    0.2357846  30.09  0.001143609    1.484    0.326
        21  -7.8169    179.5814      5.2649   1.0628684505e+01   3.9297185383e+01    0.1457069    0.1154267 -24.85 0.0002657785    1.465    0.317
        22  -8.1807     92.0821      4.8042   2.0083494323e+01   6.1250577113e+01    0.2907537    0.1517155  65.81  0.001346142    1.639    0.390
        23  -8.0996    125.3322      3.2001   1.4512129241e+01   5.2689850831e+01    0.2045704    0.1621883 -24.44 0.0005802399    1.459    0.314
        24  -9.1376    110.6760      2.5212   1.6063761068e+01   5.6568057960e+01    0.3769432    0.2413578 -53.19  0.001637678    1.541    0.351
        25  -8.3740    153.8739      3.0377   1.1784675462e+01   4.5528230847e+01    0.1941499    0.1598322 -72.66 0.0003924463    1.010    0.010
        26  -8.6694     57.6972      3.3804   2.8475665674e+01   7.0154984589e+01    0.4190993    0.1792745  45.68  0.001750247    2.246    0.555
        27  -7.6961     30.8397      1.8389   4.1019544522e+01   7.6365934475e+01    0.1674841    0.1484238  66.94 0.0002598749    1.297    0.229
        28  -6.9770    157.9721      2.0000   1.1162740479e+01   4.4633184417e+01    0.2066059   0.06532539  79.19 0.0007976344    2.909    0.656
        29  -8.7940     21.1149    113.8982   8.6933007364e+01   5.1151316304e+01    0.2437369    0.1885085  59.60  0.001242271    1.266    0.210
        30 -10.2954    193.9685    249.4776   5.8824655638e+01   1.1575069253e+00    0.4237735    0.1442804  22.11  0.002184464    2.645    0.622
        31  -9.5130    157.8366    247.8156   6.5224525242e+01   4.9524881352e+00     0.204909    0.1856782  40.52  0.001585036    1.615    0.381
        32  -8.2902      1.4514    110.7725   9.5102769984e+01   5.3309756564e+01    0.3413001    0.1229929 -77.82  0.001270086    2.528    0.604
        33  -8.1396    124.4655    106.5481   4.8115202831e+01   3.6265829062e+01    0.3444981    0.2410554   0.35  0.001390555    2.479    0.597
        34  -8.5236     62.0309    105.9816   6.8437498258e+01   4.8343785661e+01    0.2545269    0.1780545  62.83 0.0008399851    1.621    0.383
        35  -8.8122     15.4298    104.6313   8.8379911168e+01   5.4177366842e+01    0.5286369    0.2221245 -28.40  0.001747426    3.567    0.720
        36  -7.5105    109.6439    105.7171   5.1977834418e+01   3.9520372916e+01    0.1544895    0.1238644   3.34 0.0003206269    1.666    0.400
        37  -7.7159     94.1520    102.8131   5.6003414094e+01   4.3334189976e+01    0.2102862    0.1875859   9.44  0.000852165    1.295    0.228
        38  -9.5650    248.8988    100.5246   2.6118470972e+01   1.4636916295e+01    0.2389175    0.1531836 -15.46  0.001489834    1.865    0.464
        39  -8.0488     64.7662    101.2355   6.6257026697e+01   4.9142481632e+01    0.2484877    0.1333186  19.99 0.0008863639    2.456    0.593
        40  -7.6549    202.1653     97.1555   3.0909307280e+01   2.2542277652e+01    0.1675998    0.1270635 -52.55  0.000287414    1.256    0.204
        41  -7.5563    133.8231    105.7870   4.5578883318e+01   3.4473779778e+01    0.2512985    0.1691248  -0.26 0.0009546842    2.872    0.652
        42  -9.5808     11.9264     94.3703   8.8849910726e+01   5.7269177702e+01    0.5909595    0.2167942 -36.75  0.001929602    3.552    0.718
        43  -7.7893     50.8391     93.8178   7.0347842038e+01   5.3274671323e+01    0.2138149     0.172278  59.92 0.0003126436    1.294    0.227
        44  -8.6776     96.3785     90.4675   5.1902373408e+01   4.5749114667e+01     0.554285    0.3639572 -11.06  0.001946787    3.156    0.683
        45  -8.6587    249.5860     91.7827   2.4382907292e+01   1.5671432611e+01    0.1678029   0.07635602 -42.18 0.0005088746    1.678    0.404
        46  -8.7972     43.6068     91.6812   7.3132575637e+01   5.4859373581e+01    0.3574393    0.2584668   1.72  0.001628686    1.685    0.407
        47  -8.2739     21.9646     90.8172   8.3403544116e+01   5.7490738066e+01    0.2294337    0.1922463 -31.81 0.0007391075    1.270    0.212
        48  -7.5480    109.4726     90.4800   4.7895312759e+01   4.2927508031e+01    0.1518729    0.1497285  64.39 0.0004251487    1.059    0.055
        49  -8.6636      1.3919     88.8420   9.3521085157e+01   5.9355902977e+01    0.2801981    0.1239443 -72.12  0.001155308    2.038    0.509
        50  -7.5771     33.4163     88.2040   7.7250839063e+01   5.7058272975e+01    0.2148381    0.1420866 -87.13 0.0009499456    1.702    0.413
        51  -8.3720     65.2828     85.1019   6.1844514835e+01   5.3164633589e+01    0.4194447    0.2690207 -19.17  0.001566969    2.640    0.621
        52  -7.8860    126.2803     83.2177   4.1312051883e+01   4.0667170544e+01    0.3004706     0.227713   8.78  0.001343537    2.033    0.508
        53 -10.0902     37.8168     80.7124   7.3381033202e+01   5.8536789833e+01    0.7953913    0.4285279  -7.36  0.002685353    3.368    0.703
        54  -9.3742    241.9595     81.4595   2.3083836641e+01   1.8141598155e+01    0.3322279   0.08045861 -45.66  0.001297016    3.592    0.722
        55  -8.7722     88.0681     78.3251   5.1035821362e+01   5.0253669663e+01    0.3445871    0.2716343  17.42 0.0008652314    1.631    0.387
        56  -7.2193     64.3109     79.2779   6.0551893639e+01   5.4774995741e+01    0.1512195    0.1227257  -9.85 0.0003363061    1.560    0.359
        57  -9.9997      8.3466     76.8662   8.8496729198e+01   6.2289838208e+01    0.6496496    0.3057266 -32.05  0.002067941    2.432    0.589
        58  -8.1173     14.6851     72.7038   8.4230046338e+01   6.3005232819e+01    0.2255333    0.1613208 -54.91 0.0004142559    1.332    0.249
        59  -8.0084    249.6717     78.3197   2.1775610755e+01   1.7372634578e+01     0.115249   0.06622116 -54.66 0.0007047518    1.685    0.407
        60  -7.6168    184.2028     77.7642   2.8922511728e+01   2.8960469983e+01    0.1658068    0.1515083 -15.66 0.0006879648    1.266    0.210
        61  -8.7348     49.7088     76.6976   6.6432008284e+01   5.7891739108e+01    0.5301757    0.3120057   2.17  0.001874177    3.014    0.668
        62  -9.5545     29.4394     68.2415   7.4742778919e+01   6.2811612359e+01    0.5726228    0.3100911 -20.40  0.002140743    2.782    0.641
        63  -9.5199     23.8328     73.3436   7.9139439024e+01   6.2059942821e+01    0.5722607    0.2238529 -52.94  0.002150434    2.370    0.578
        64  -8.4368     23.4865     69.4414   7.8461278214e+01   6.3125706050e+01    0.2214493    0.2175806  89.60 0.0006285391    1.035    0.034
        65  -8.0320     74.7217     74.0359   5.4610677210e+01   5.4011998059e+01    0.2077935    0.2040768 -50.49 0.0004068213    1.072    0.067
        66  -8.2839    106.0810     67.2211   4.1696432448e+01   4.8494424967e+01    0.3053755    0.2348759  19.96  0.001398352    1.810    0.448
        67  -8.8409     83.7886     63.8198   4.7677850975e+01   5.4315503636e+01    0.4447652      0.31829  -1.29  0.001359719    2.414    0.586
        68  -8.4119     15.4666     63.8038   8.2019488720e+01   6.5308105284e+01    0.2642182    0.2022851  17.28  0.001394801    1.327    0.246
        69 -10.3476     62.2516     60.8309   5.5315487644e+01   5.9479783780e+01    0.5108238    0.3527214  20.16 0.0004157865    1.847    0.458
        70  -9.6523     35.1802     60.0753   6.9070874116e+01   6.4166096570e+01    0.5345647    0.3525608 -25.58   0.00240408    1.878    0.467
        71  -8.4577    246.0000     61.0461   1.8674766393e+01   2.0079278803e+01    0.1873743   0.04946391 -33.78 0.0007348454    2.904    0.656
        72  -7.8874     25.5154     60.4607   7.4968296782e+01   6.5241817281e+01    0.2763741    0.1072367 -52.79  0.001036274    2.381    0.580
        73  -8.2972     20.0314     60.7683   7.8460095579e+01   6.5710624212e+01    0.2374266    0.1459464 -22.94 0.0004844894    1.906    0.475
        74  -7.9027     96.1338     59.5427   4.2004759469e+01   5.2328007727e+01    0.2763119    0.1906454 -15.83  0.001145182    2.264    0.558
        75  -8.9779     99.7828     54.9498   3.9241064060e+01   5.2310995426e+01    0.2961942     0.267721 -15.21 0.0003927533    1.324    0.245
        76  -8.8620     49.5313     58.4513   6.0615068243e+01   6.2353102710e+01    0.2200552     0.179807  -8.12 0.0001629861    1.460    0.315
        77  -7.3820    111.3782     57.7876   3.7056078801e+01   4.8979110364e+01    0.1947737    0.1458848 -28.91 0.0005188799    1.561    0.360
        78  -9.5307     75.2715     49.7513   4.5494826169e+01   5.9040969310e+01    0.3684451     0.285017  44.17 0.0004459435    1.255    0.203
        79  -7.3542    118.9292     50.8001   3.2809543917e+01   4.8309104340e+01    0.2012537    0.1113098  59.45 0.0006347127    1.730    0.422
        80  -8.9356    106.6165     48.1797   3.4870305738e+01   5.1810277713e+01    0.2959986     0.238455  32.25 0.0007626772    1.508    0.337
        81  -9.1580     45.3472     48.4019   5.8984438563e+01   6.5338363077e+01    0.3441801    0.2439587  10.99 0.0006013387    1.779    0.438
        82  -8.1272      6.2117     46.6095   8.4513063922e+01   7.0343618049e+01    0.2036726    0.1318503  10.72 0.0005903829    1.563    0.360
        83  -8.9004     10.3653     46.9736   8.1513051367e+01   6.9991724013e+01    0.4133221     0.266391 -54.76  0.001067138    1.444    0.307
        84  -9.1809     14.8646     43.8898   7.7289798728e+01   7.0400961782e+01    0.5811867    0.2408683 -41.35  0.002287701    2.518    0.603
        85  -7.6764     96.2152     45.9401   3.6884347568e+01   5.4764904744e+01    0.1951916    0.1212841 -40.58 0.0008658239    1.682    0.406
        86  -8.7733     93.8638     42.1252   3.6061806433e+01   5.5982081301e+01    0.4770716    0.1977917  45.42  0.001696119    2.627    0.619
        87  -9.4536     57.4278     41.3373   4.9592134946e+01   6.4516236674e+01    0.5067474    0.3066776  13.39  0.001776293    3.461    0.711
        88  -7.9865     32.4279     42.8305   6.4505959326e+01   6.8618360267e+01     0.278911   0.09553709  33.75  0.000990206    2.721    0.633
        89  -7.5817    113.7658     41.4421   3.0659373711e+01   5.1085443012e+01     0.201843    0.1277768  51.68 0.0005920026    1.586    0.370
        90  -8.8893     83.1113     39.8768   3.8509104813e+01   5.8986563368e+01    0.3615707    0.2647253  45.65  0.001304158    1.352    0.260
        91  -7.5254     87.7117     37.3254   3.5931822788e+01   5.8279969884e+01    0.2130507    0.1975766 -48.10  0.001184621    1.153    0.132
        92  -8.7563      4.0017     40.0335   8.4673368661e+01   7.2097498261e+01    0.2739957    0.1626165 -83.23   0.00112675    1.864    0.463
        93  -8.1586    123.8995     39.1259   2.7699735165e+01   4.8856327159e+01    0.2195626    0.1792181 -74.39 0.0004576835    1.184    0.155
        94  -9.8346     68.3691     36.8564   4.2631840055e+01   6.2965635161e+01    0.5377809     0.333862  32.49  0.001684407    1.965    0.491
        95  -8.2395     53.0096     37.9858   5.0232896215e+01   6.6058260681e+01     0.214145    0.1934519  65.23  0.000317337    1.173    0.148
        96  -8.3288     55.8649     35.2066   4.7455733410e+01   6.5994116352e+01    0.2083349    0.1907159  67.99 0.0003974197    1.147    0.128
        97  -8.5271     35.5604     36.8041   5.9803233699e+01   6.9455484345e+01    0.3683029    0.1670454 -46.77  0.001510714    2.259    0.557
        98  -8.1403     38.9426     35.0135   5.6786325472e+01   6.9265810634e+01    0.2540111    0.1910433  11.75 0.0005072349    1.529    0.346
        99  -8.4679    105.2792     36.5622   3.0799939958e+01   5.3976813668e+01    0.3123721    0.2075181  37.59 0.0008342426    1.865    0.464
       100  -8.3009     92.3251     36.6229   3.4253303039e+01   5.7243787534e+01    0.2887163    0.1678354  57.71 0.0006924114    1.586    0.370
       101  -9.2069      3.1591     24.8508   8.0951646455e+01   7.5761897115e+01    0.2512822    0.1831965 -54.37  0.001444283    1.295    0.228
       102  -9.6689      5.6817     33.4286   8.1444808590e+01   7.3602397926e+01    0.5915602    0.3379203  18.48  0.002060069    1.718    0.418
       103  -8.4164      1.2441     28.9960   8.4119263049e+01   7.4896864791e+01    0.2794145    0.1428934 -77.45  0.001298334    2.128    0.530
       104  -9.6416     21.2983     32.2569   6.7940470820e+01   7.2442416257e+01    0.4491781    0.3127172 -11.14 0.0004578179    1.646    0.392
       105  -9.2644     95.9580     32.4433   3.1497895133e+01   5.6954964417e+01    0.4530375    0.2777444  74.08  0.001585926    1.709    0.415
       106  -9.1468     70.8271     29.9412   3.8364021081e+01   6.3537435303e+01    0.3951241    0.2015932  53.89  0.001110934    1.792    0.442
       107 -10.3489    210.2376    248.3400   5.5956477509e+01  -1.9534295060e-01    0.3973404    0.2090461  22.51  0.002768647    1.617    0.382
       108  -8.1136    244.3176     28.9773   1.2349620474e+01   2.4066239148e+01    0.1988064   0.01194855 -45.02  0.000422588    4.314    0.768
       109  -8.2248     42.2254     27.4997   5.0868415631e+01   7.0120525264e+01    0.2515803    0.1930836   6.49            0    1.586    0.369
       110  -7.6381    153.0259     26.7317   1.9123775146e+01   4.3207867545e+01    0.1788468    0.1509354   8.45 0.0005976848    1.645    0.392
       111  -8.4578     61.8810     26.6565   4.0332525625e+01   6.6132438025e+01    0.2191592    0.1971934   6.29 0.0004346627    1.251    0.201
       112  -9.3944    109.5630     25.0412   2.5316191067e+01   5.4454186875e+01    0.2568516     0.228945 -87.03 0.0002831165    1.028    0.027
       113  -8.5793     25.5809     24.6890   6.0795101288e+01   7.3464709422e+01    0.4144004    0.1521286 -37.95  0.001423632    3.642    0.725
       114  -8.9748    103.9470    248.4725   7.6455297677e+01   1.0647842759e+01    0.1771503    0.1642413  -1.14 0.0002140803    1.246    0.197
       115 -10.8173     80.1285     23.2530   3.1910160166e+01   6.2244077730e+01      0.42167    0.2773759  42.98 0.0008591064    1.585    0.369
       116  -8.9151     84.5488     21.5007   2.9766135816e+01   6.1360696672e+01     0.244366    0.2361119 -64.69 0.0005840982    1.119    0.106
       117 -10.0583    128.9379     21.9303   2.0776067123e+01   4.9818632867e+01    0.2501423    0.2234031 -88.97  0.000293405    1.051    0.048
       118  -9.3912    167.6839    248.2500   6.3400114640e+01   3.8816361263e+00    0.2048223    0.1058858  30.72  0.001255301    1.709    0.415
       119  -7.1448    150.6843     22.7056   1.8161391967e+01   4.4257577240e+01    0.1283578    0.1006833  43.70 0.0007010965    1.602    0.376
       120  -8.6019     91.7699     21.2603   2.7730488113e+01   5.9542384422e+01    0.3702103    0.1860642  38.74  0.001438945    2.657    0.624
       121  -8.4641    166.9851     20.9528   1.5926820051e+01   4.0544579804e+01    0.1929713    0.1582363 -66.59   0.00118747    1.015    0.015
       122  -8.1143    100.9434     19.9909   2.5044527074e+01   5.7319222538e+01    0.2216862    0.1596066  37.77 0.0005466535    1.648    0.393
       123  -9.1294      8.9168     19.0609   7.2740398725e+01   7.6622761973e+01     0.309605    0.2419542 -35.55 0.0009784979    1.211    0.174
       124  -9.0001     12.6803     17.7023   6.8263177976e+01   7.6533525209e+01      0.45908    0.2205828   7.73   0.00186956    2.798    0.643
       125  -7.3000    111.7987     19.3724   2.2646952853e+01   5.4559473073e+01    0.1983598    0.1150456  60.13 0.0002910626    1.592    0.372
       126  -7.4084    172.2577     18.6881   1.4813722338e+01   3.9572232631e+01    0.1350952   0.07758237 -57.89 0.0002110791    1.528    0.345
       127  -7.0300    146.6719     18.7223   1.7373415860e+01   4.5702061811e+01    0.1296425   0.09826027  47.53 0.0003011825    1.594    0.373
       128  -8.6418    127.8904     16.1175   1.8863963089e+01   5.0746422544e+01    0.2071253    0.1803828 -89.73 0.0005756384    1.039    0.038
       129  -7.4895    189.4638     15.5065   1.2639008661e+01   3.6072305727e+01     0.126341   0.09912511 -60.97 -1.02677e-05    1.010    0.010
       130  -9.8785    187.6931    245.7781   5.9446444503e+01   2.2105103884e+00    0.2899786    0.1386118  -1.19  0.001511598    2.674    0.626
       131  -9.4659    170.0409    244.3050   6.2470656870e+01   4.1661530293e+00    0.1648842    0.1165428  12.36  0.001174958    1.088    0.081
       132  -7.7709     89.2978    243.0327   7.9226991124e+01   1.3150650258e+01     0.199122   0.09977245 -53.27   0.00107644    2.417    0.586
       133  -7.7569    147.1863     14.2103   1.5881260106e+01   4.6064744227e+01    0.1930233    0.1315446 -71.46  0.001040604    1.331    0.249
       134  -9.6350    188.1864    234.2642   5.7846647946e+01   3.6353575031e+00     0.229328    0.1849201 -33.21   0.00119828    1.517    0.341
       135  -7.2053    128.5677    230.4968   6.9155113965e+01   1.0790668040e+01    0.1221063   0.09810092  15.40 0.0001030531    1.009    0.009
       136  -6.9436    151.2863     12.3559   1.4882331131e+01   4.5246840563e+01     0.125702   0.09898698  38.97 0.0005293746    1.673    0.402
       137  -7.6434     37.2078    216.6053   8.9908704513e+01   2.3739605567e+01    0.1734462    0.1102308  12.22 0.0003801644    1.650    0.394
       138  -8.3413     12.1531    214.8301   9.6244901033e+01   2.6365361133e+01    0.2479265    0.1429231  69.23 0.0007935704    1.661    0.398
       139  -8.1385     62.5473    182.2869   8.0170599212e+01   2.8660950896e+01    0.2374298    0.1704629  27.83 0.0003451548    1.260    0.206
       140  -7.1112    150.7026    165.3422   5.4480528378e+01   1.9426800001e+01    0.1274084    0.1088809  80.49 0.0005546297    1.666    0.400
       141  -7.5615    240.5078    152.5018   3.6632440535e+01   8.8126280140e+00    0.1126866   0.08417156 -20.64 1.220738e-05    1.077    0.071
       142  -7.4461    145.5233    150.5281   5.2831069404e+01   2.3137495077e+01    0.1383824    0.1295021  -3.40 8.040696e-05    1.011    0.011
       143  -8.8441     66.6807    143.6811   7.3815008594e+01   3.7713195289e+01    0.4348156    0.2233063  46.57  0.001739627    1.921    0.480
       144  -8.7036    243.2568    137.5187   3.3619125882e+01   1.0479854682e+01    0.2499985   0.06101045 -43.97 0.0009057336    4.468    0.776
       145  -7.2053    139.5202    138.4753   5.1769097625e+01   2.6616054022e+01    0.1438419    0.1334945  -6.22 0.0001010908    1.082    0.075
       146  -8.1358     19.9171    137.7679   8.9755505010e+01   4.4661996063e+01    0.1996857    0.1892797 -30.60 0.0003835754    1.189    0.159
       147  -7.1385    108.6325    137.3015   5.9552899862e+01   3.2447938127e+01     0.158096    0.1149346  67.20 0.0007033646    1.738    0.425
       148  -7.9558     68.3223    127.6454   7.0491148129e+01   4.1651603651e+01    0.1684547    0.1124064  64.82  0.000704659    1.759    0.431
       149 -10.1520     42.1297    125.0450   7.9825706520e+01   4.5932912177e+01    0.2745422    0.2322693  31.74 0.0003629308    1.160    0.138
       150  -7.5859     78.1552    122.7532   6.6082942789e+01   4.1335303335e+01    0.2055292    0.1760041 -35.10 0.0007649005    1.299    0.230
       151  -7.7248     12.3409    121.3037   9.1318470880e+01   4.9761470453e+01     0.150436    0.1008678 -39.73 0.0005216776    1.678    0.404
       152  -7.9696    119.1667    118.6052   5.2485157888e+01   3.4715446290e+01    0.2209648    0.1426833  30.53 0.0009279214    1.747    0.428
       153  -7.7188    100.4115    118.3812   5.7847325342e+01   3.8410196990e+01    0.3001046    0.1447093  24.83 0.0009506077    3.240    0.691
       154  -7.2858     48.0331    117.2261   7.6249138068e+01   4.7340261583e+01    0.1844288    0.1245968  26.71            0    1.475    0.322
       155  -7.2790    158.5282    116.5355   4.2702262855e+01   2.7390061701e+01    0.1388032    0.1314993 -36.84 0.0008089358    1.004    0.004
