#   1 NUMBER                 Running object number                                     
#   2 MAG_AUTO               Kron-like elliptical aperture magnitude                    [mag]
#   3 X_IMAGE                Object position along x                                    [pixel]
#   4 Y_IMAGE                Object position along y                                    [pixel]
#   5 X_WORLD                Barycenter position along world x axis                     [deg]
#   6 Y_WORLD                Barycenter position along world y axis                     [deg]
#   7 A_WORLD                Profile RMS along major axis (world units)                 [deg]
#   8 B_WORLD                Profile RMS along minor axis (world units)                 [deg]
#   9 THETA_WORLD            Position angle (CCW/world-x)                               [deg]
#  10 FWHM_WORLD             FWHM assuming a gaussian core                              [deg]
#  11 ELONGATION             A_IMAGE/B_IMAGE                                           
#  12 ELLIPTICITY            1 - B_IMAGE/A_IMAGE                                       
         1 -14.8284    161.3810     42.6266   2.9018224451e+02   6.3439356326e+00    0.0582171   0.04226136 -52.67  0.003721643    1.337    0.252
         2 -14.6004    174.6942      9.9135   2.8983483445e+02   6.6442062494e+00   0.05292086   0.04634091 -47.64   0.00390139    1.128    0.113
         3 -11.7992    189.8549     14.6773   2.8969052871e+02   6.5013123766e+00   0.01189471  0.008690582 -50.70 0.0008394487    1.338    0.252
         4 -12.4578    125.1076    243.2872   2.9179019845e+02   4.2343964246e+00   0.02440266  0.008229355 -60.14  0.001404456    2.742    0.635
         5 -20.0735     76.9626    175.0747   2.9193372703e+02   5.3009593165e+00    0.8890256    0.3469291 -65.23   0.07058715    2.651    0.623
         6  -9.1828     22.4721    205.4287   2.9273465785e+02   5.2633194179e+00  0.006744217  0.006012153 -30.45 0.0008007687    1.164    0.141
         7 -13.0569    161.5848    197.6586   2.9110412582e+02   4.5514176633e+00   0.02029258   0.01520306  81.12  0.001975585    1.593    0.372
         8 -12.5456    163.8103    202.9695   2.9111037471e+02   4.4771541091e+00   0.01711401   0.01348438  68.05 0.0006877798    1.441    0.306
         9 -13.1439    156.4660    199.5860   2.9117384330e+02   4.5587112149e+00   0.04397764   0.02378131  80.83  0.003296094    3.550    0.718
        10 -10.5087    117.3531    201.7938   2.9163223757e+02   4.7590143083e+00   0.01134122  0.008245296  43.58 0.0006517433    1.415    0.293
        11 -10.9268    139.3184    200.9827   2.9137733158e+02   4.6416075907e+00   0.01194931   0.01035159  70.07 0.0006202161    1.246    0.198
        12 -10.6174    135.9706    196.5040   2.9138883254e+02   4.7127300329e+00   0.01815831   0.01086022  75.44  0.001583961    2.553    0.608
        13 -12.2962    169.7215    195.3161   2.9099759654e+02   4.5314708448e+00   0.01318038   0.01148408  42.58 0.0006860405    1.170    0.145
        14 -13.9400    165.9082    188.8605   2.9100259679e+02   4.6281459547e+00    0.0378112   0.02177583  27.14  0.003668969    1.769    0.435
        15 -13.0802    180.5557    193.1864   2.9086164823e+02   4.4934505056e+00   0.02372225   0.01827175  74.60  0.001738429    1.518    0.341
        16 -13.7818    174.3061    192.3124   2.9092755916e+02   4.5396907821e+00   0.03547947    0.0199035 -81.19  0.002945844    2.368    0.578
        17 -14.7283    174.1918    185.7010   2.9088952537e+02   4.6167800293e+00   0.04858479   0.03057101 -84.63   0.00467475    2.015    0.504
        18 -11.9456    154.7171    190.0172   2.9113685604e+02   4.6794519865e+00   0.01216244    0.0101716  -6.55  0.001412717    1.332    0.249
        19 -12.2291    153.8986    185.5865   2.9111982497e+02   4.7354098969e+00   0.01498972   0.01026562 -79.52  0.001225208    1.656    0.396
        20 -13.9603    207.2995    177.8024   2.9046582432e+02   4.5165247405e+00   0.04899188    0.0296996 -74.41  0.004774997    1.854    0.461
        21 -12.1553    203.4409    171.6806   2.9047325186e+02   4.6096049170e+00    0.0205166   0.01669106 -13.02   0.00212414    1.393    0.282
        22 -11.4407     16.4700    250.1211   2.9306727678e+02   4.7806580269e+00  0.009596802  0.006343078 -62.81 0.0009938015    1.481    0.325
        23 -11.3100     31.4652    183.6779   2.9250334674e+02   5.4633002916e+00    0.0204715   0.01593656 -81.66  0.002095413    1.395    0.283
        24 -10.5615     25.0446    185.3444   2.9258641131e+02   5.4809249653e+00   0.01044456  0.008226377 -44.88 0.0003181777    1.272    0.214
        25  -9.9728     28.8149    243.2118   2.9288589115e+02   4.7896902037e+00   0.01922958  0.006890671 -63.74  0.001470174    2.785    0.641
        26 -11.0865     27.4864    179.8630   2.9252609779e+02   5.5303107729e+00   0.01837337   0.01109383 -17.86  0.001642549    2.431    0.589
        27 -13.6102    195.7079    170.5694   2.9055460976e+02   4.6672074457e+00   0.02992535   0.01988745 -71.44  0.001863861    1.587    0.370
        28 -12.1934    193.8094    165.5812   2.9054650015e+02   4.7358434895e+00   0.01599744   0.01416937  18.67   0.00113297    1.169    0.144
        29 -14.1641    138.7942    171.8759   2.9121026410e+02   4.9812058628e+00   0.04061449   0.02245347  36.13  0.003810748    1.790    0.441
        30 -14.6079    142.6722    167.9270   2.9114260885e+02   5.0044609023e+00   0.05553398    0.0267986  51.88  0.004608641    2.644    0.622
        31 -13.4206    177.8746    171.0219   2.9076024277e+02   4.7651638563e+00   0.02677165   0.01707588 -78.78  0.002653112    1.829    0.453
        32 -11.7468     26.1686    173.4279   2.9250298352e+02   5.6123374544e+00   0.01369826   0.01248902 -84.88  0.000417023    1.129    0.114
        33 -12.8846    168.5015    242.0029   2.9128892654e+02   3.9987775635e+00   0.02051011   0.01523418 -38.95  0.001025113    1.411    0.291
        34 -12.7086    122.8429    165.8797   2.9135629662e+02   5.1426652750e+00   0.02731599   0.01064302  42.61  0.002169403    2.710    0.631
        35 -10.4677    150.7731    243.2785   2.9149814498e+02   4.0863975173e+00  0.008806443  0.007052324 -38.48  0.000470912    1.292    0.226
        36 -11.5671    201.1455    164.3067   2.9045543613e+02   4.7081069030e+00   0.02166057   0.01461425 -71.50  0.002266905    1.559    0.358
        37 -10.9278    222.3568    161.6010   2.9019803305e+02   4.6165324529e+00     0.012952  0.009350386  82.61 0.0007984046    1.700    0.412
        38 -11.3862     17.9249    156.5204   2.9249676278e+02   5.8553168253e+00   0.02349711   0.01022435 -60.95  0.002020327    2.191    0.544
        39 -13.0561    164.4377    156.8464   2.9082880373e+02   5.0067400243e+00   0.01799679   0.01460235 -55.04  0.001202733    1.198    0.165
        40 -14.6884    134.4659    146.9755   2.9111140903e+02   5.2941117362e+00   0.07191947   0.02620547 -73.32  0.004528112    4.498    0.778
        41 -12.5765    134.6532    109.4343   2.9088567291e+02   5.7269749266e+00   0.05122412  0.008697257 -64.32  0.002469368    7.117    0.860
        42 -12.5576    159.9912    151.0426   2.9084487375e+02   5.0995436952e+00   0.01690113  0.008927831 -53.42  0.001594829    1.801    0.445
        43 -14.4789    143.6099    144.1137   2.9099019691e+02   5.2743511141e+00   0.05062969   0.02418056 -73.55  0.004180287    2.599    0.615
        44 -12.5428    174.0839    148.9255   2.9067179628e+02   5.0424928549e+00   0.01758212   0.01486493 -73.47  0.001467144    1.204    0.169
        45 -11.0900     27.2795    145.6730   2.9232571625e+02   5.9270326887e+00   0.01255352   0.01105975 -38.22 0.0007507557    1.153    0.133
        46 -14.1422    135.9693    128.5798   2.9098474534e+02   5.4980819466e+00   0.08128014   0.01940664 -67.08  0.004289141    6.089    0.836
        47 -11.4776    174.0318    140.5083   2.9062223707e+02   5.1400749531e+00  0.009987876  0.006406294  29.74  0.001021702    1.568    0.362
        48 -11.2636     21.7210    240.0647   2.9294806770e+02   4.8668604563e+00  0.009302868  0.007245607 -56.53  0.001048933    1.244    0.196
        49 -11.2736    131.2605    237.0798   2.9168336379e+02   4.2706861349e+00   0.01626666   0.00774732 -60.50   0.00120377    2.006    0.501
        50 -10.4865     22.9079    156.1848   2.9243793773e+02   5.8305634632e+00  0.009611875  0.008619261  60.24 0.0004071735    1.168    0.144
        51 -12.8058    160.5958    127.9789   2.9070058564e+02   5.3626209444e+00   0.01797874   0.01512715 -87.30  0.001687019    1.278    0.218
        52 -10.5020      7.6551    237.5772   2.9309355253e+02   4.9764145528e+00   0.00640122  0.006056239 -75.19 0.0003297384    1.055    0.052
        53  -9.9674     19.3844    125.2300   2.9229446069e+02   6.2088671059e+00  0.006636506  0.004911853 -15.93 0.0004258263    1.625    0.385
        54 -11.9474    140.7898    120.9242   2.9088420301e+02   5.5587040216e+00    0.0172833   0.01002428  56.51  0.001461838    2.161    0.537
        55 -11.6065    139.0268    250.2541   2.9167315339e+02   4.0735311704e+00   0.01304324   0.01137294 -12.40  0.001557033    1.245    0.197
        56 -10.6325     30.0582    232.5571   2.9280873718e+02   4.9058279243e+00   0.00952966  0.006456971  26.44  0.000614031    1.509    0.337
        57 -10.7874    205.4910    110.1789   2.9008320261e+02   5.3082953488e+00   0.01179003  0.009340302  24.82 0.0006371548    1.296    0.229
        58 -10.5457    138.0492    244.1545   2.9164809323e+02   4.1497040327e+00   0.01721935   0.01144083 -80.41  0.001115125    1.748    0.428
        59 -12.0524     22.4753    220.8870   2.9282608646e+02   5.0844331885e+00    0.0145654   0.00879843 -45.77  0.001026612    1.679    0.404
        60 -11.5183     23.6254    215.2864   2.9277985169e+02   5.1426294860e+00  0.009904792  0.007302559 -50.23 0.0005739109    1.327    0.247
        61 -10.5782    143.5328     80.4770   2.9061176137e+02   6.0102028440e+00  0.006487011  0.006350104 -59.22 0.0001074757    1.001    0.001
        62 -14.4085    150.5479     57.1714   2.9039265440e+02   6.2387609567e+00   0.05816226   0.04652521 -10.42  0.002462689    1.435    0.303
        63 -13.1037     11.3734    206.0165   2.9286461024e+02   5.3202698442e+00   0.02632024   0.01627802  18.11  0.002212536    1.795    0.443
        64 -13.0871    165.3978     34.1231   2.9008562067e+02   6.4188023489e+00    0.0199886   0.01843044 -55.86 0.0008352558    1.060    0.057
        65 -10.7375     13.5425     59.9529   2.9197317299e+02   6.9970630478e+00   0.00969921  0.008886467  30.30 0.0004394793    1.110    0.099
        66 -11.0840    133.9374    245.4651   2.9170264847e+02   4.1582738163e+00   0.01055421  0.007991015 -50.86  0.000455855    1.291    0.225
