#   1 NUMBER                 Running object number                                     
#   2 MAG_AUTO               Kron-like elliptical aperture magnitude                    [mag]
#   3 X_IMAGE                Object position along x                                    [pixel]
#   4 Y_IMAGE                Object position along y                                    [pixel]
#   5 X_WORLD                Barycenter position along world x axis                     [deg]
#   6 Y_WORLD                Barycenter position along world y axis                     [deg]
#   7 A_WORLD                Profile RMS along major axis (world units)                 [deg]
#   8 B_WORLD                Profile RMS along minor axis (world units)                 [deg]
#   9 THETA_WORLD            Position angle (CCW/world-x)                               [deg]
#  10 FWHM_WORLD             FWHM assuming a gaussian core                              [deg]
#  11 ELONGATION             A_IMAGE/B_IMAGE                                           
#  12 ELLIPTICITY            1 - B_IMAGE/A_IMAGE                                       
         1 -10.6680     11.5095     70.6991   1.2710977590e+02   6.0519899434e+01    0.5402344    0.2895847 -42.49  0.003191242    1.484    0.326
         2  -9.4813     39.3008      7.3168   9.3901392627e+01   6.7907943289e+01    0.3304997    0.2419488  11.39  0.001628579    1.077    0.072
         3 -10.7252     39.3403     29.5902   1.0322491346e+02   6.5154127289e+01     0.665064    0.3048314 -39.24  0.003571125    2.071    0.517
         4 -11.8805     44.1052     21.0147   9.7883877045e+01   6.5691727523e+01    0.9494422    0.8990033 -86.22  0.006878268    1.931    0.482
         5 -12.1391    129.3875     15.3146   7.1491585344e+01   5.0360097979e+01     1.518768     1.136446 -84.26  0.008735442    1.651    0.394
         6 -11.8637     82.5290      6.9994   7.9321822490e+01   6.0914209818e+01     1.821553    0.9191123   4.75  0.008679844    2.806    0.644
         7 -10.6229     71.3311      5.4778   8.1929194938e+01   6.3090874191e+01    0.5483323    0.3082554  41.67  0.002372007    1.481    0.325
         8 -11.8911    115.3876      3.9652   7.0541334045e+01   5.4457174545e+01     2.168848     0.373127  62.17  0.006577893    4.998    0.800
         9 -11.0893    131.8615      3.2173   6.7276430585e+01   5.0856699900e+01     1.167868    0.3331732  64.03  0.004566723    2.879    0.653
        10 -13.4011    168.7914     16.3120   6.5313560278e+01   4.1016850979e+01     2.551499     1.056494  55.82   0.01136572    2.088    0.521
        11 -13.2528    164.0325      5.8646   6.3192182852e+01   4.3159604140e+01     3.509007    0.7915762  64.54   0.01264514    3.265    0.694
        12  -9.6676    111.4071     15.5500   7.5292433002e+01   5.4311205537e+01     0.569207    0.2029711  50.54  0.002396916    2.253    0.556
        13  -9.4708    117.0000     18.4675   7.5044390245e+01   5.2817106765e+01    0.4104566     0.176406 -27.01  0.001880313    2.578    0.612
        14  -9.2944    117.4150     14.2027   7.3534844949e+01   5.3135063675e+01    0.3229226    0.2255442 -40.47  0.001207126    1.694    0.410
        15  -9.5244     93.7128     17.6744   8.0349334611e+01   5.7760590783e+01    0.4193078    0.3167243  42.40  0.002017091    1.146    0.127
        16  -9.7802     64.5901     16.8835   8.8727760985e+01   6.3130022483e+01     0.292583    0.2073435 -39.71   0.00145898    1.808    0.447
        17  -8.0954     19.8502     14.5590   1.0541731670e+02   6.9319570067e+01    0.4753473    0.2261277 -15.59  0.002542723    2.445    0.591
        18 -10.3246    248.9108     14.4467   5.6455166798e+01   2.2878788910e+01    0.3351089    0.2275275 -46.40   0.00214177    1.423    0.297
        19 -10.6942    249.6718      6.1133   5.4821884566e+01   2.3690371745e+01    0.5474098    0.3236724 -30.11  0.003193843    2.179    0.541
        20  -9.2374    103.7657     11.2135   7.5527375852e+01   5.6325541841e+01    0.3674996    0.1940663  45.75  0.001389704    1.585    0.369
        21  -9.6664     55.5287      7.2862   8.7817284838e+01   6.5558139407e+01    0.4927318    0.1631572  45.67  0.002265427    2.764    0.638
        22  -8.0522     52.2109      1.7294   8.6559292960e+01   6.6588485959e+01    0.2260809    0.1557011  25.35  0.001035877    1.168    0.144
        23 -10.6128    201.4703      7.9065   5.9333311688e+01   3.4153633244e+01    0.4251208    0.1775831  74.45  0.001762167    2.104    0.525
        24 -10.4998    204.2970      4.1749   5.8216334328e+01   3.3882160968e+01    0.5135912    0.2170593  81.77  0.002338937    2.289    0.563
        25 -10.0644     60.5684      2.2470   8.3951708604e+01   6.5207910085e+01    0.5687336    0.2770077  42.64  0.003270015    1.728    0.421
        26  -8.9929    229.9672      6.0125   5.6320650266e+01   2.7912221594e+01    0.1928136     0.150695 -81.38 0.0008678494    1.014    0.014
        27  -9.5048    214.2741      3.9599   5.7242096652e+01   3.1628033437e+01     0.247831    0.2043378  50.96  0.001643697    1.531    0.347
        28  -8.9245     26.4374      2.6448   9.7147727366e+01   7.0016187422e+01    0.2546051    0.1761119  10.66  0.001882957    1.149    0.130
        29  -8.8692     16.9502      2.2132   1.0124222701e+02   7.1109111388e+01    0.2168463    0.1860833 -32.68  0.001730431    1.788    0.441
        30  -8.3745     40.1766      1.4375   9.0894031561e+01   6.8379024496e+01    0.2393358    0.0941946  42.82  0.001267911    2.451    0.592
        31  -9.1807    222.4889      2.0990   5.6143701209e+01   2.9980656812e+01    0.2336938    0.1870843 -70.25  0.001597039    1.119    0.107
        32  -8.4579     92.3099     56.9184   9.4647331653e+01   5.2909070947e+01    0.2343766    0.1863868  50.68  0.001111832    1.385    0.278
        33 -10.4452      3.8246     76.3756   1.3110043158e+02   5.9831915227e+01    0.5296039     0.375797 -52.37   0.00283409    1.075    0.069
        34  -8.1322      9.6179     55.4481   1.2397788052e+02   6.3589093473e+01     0.194221    0.1357675 -85.29   0.00113992    2.452    0.592
        35  -9.1009    198.7240     54.9383   7.0880456728e+01   2.8880334526e+01    0.2424891    0.2092311  61.85 0.0004087976    1.194    0.162
        36  -9.2121     48.3902     62.1994   1.1116397047e+02   5.8772547856e+01    0.3683636    0.2367219  34.02  0.002100521    1.721    0.419
        37 -10.0323     83.8752     47.8479   9.4143465258e+01   5.5854780149e+01    0.5210206    0.4378187  66.91   0.00307212    1.642    0.391
        38  -8.4750    111.5461     45.8051   8.5507112201e+01   5.0741557501e+01     0.253121    0.1347204 -27.14   0.00114698    2.087    0.521
        39 -10.3697      3.5205     39.2940   1.2182521475e+02   6.6855210442e+01     0.519978    0.3035951 -43.76  0.002386092    1.309    0.236
        40  -9.4806     81.0184     39.4976   9.2067573345e+01   5.7561589426e+01    0.3349503    0.2775563 -61.97  0.001989614    1.785    0.440
        41 -10.5200    173.2169    242.8058   1.1703888995e+02  -1.6240548689e+00      0.37808    0.2790062   4.93  0.002098686    1.725    0.420
        42 -10.2713     50.9425     35.7763   1.0108513946e+02   6.2789970441e+01    0.5701596    0.5063628  88.27  0.003614639    2.067    0.516
        43  -9.7510    163.0962    244.2292   1.1926181399e+02  -1.3332534737e-01     0.268382    0.1973855  68.35  0.001487468    1.723    0.420
        44  -8.4884    194.2990    241.3505   1.1266822222e+02  -4.9395048644e+00    0.1308809   0.09275673   3.69  0.000703658    1.690    0.408
        45  -9.0063     68.5796     36.3593   9.4982678515e+01   6.0094807660e+01    0.3809346    0.2678207  54.09  0.002167937    1.912    0.477
        46  -9.3576     66.3010     30.6178   9.3582272245e+01   6.1225731711e+01    0.3779558    0.2274423 -20.10  0.002114797    1.680    0.405
        47  -9.2724     12.0797     33.7902   1.1631429090e+02   6.7187538819e+01    0.3615043    0.2240265 -50.05  0.002368132    1.635    0.388
        48  -8.7270     27.9193     35.5166   1.1015126153e+02   6.5529519854e+01     0.260962    0.1048167  26.95  0.001329354    2.603    0.616
        49  -9.7243     86.3269     31.5945   8.7553286825e+01   5.7628842661e+01    0.3334845    0.2115284 -23.19  0.001846282    1.633    0.387
        50 -10.3358    225.1905     29.0377   6.1567791607e+01   2.6254003588e+01    0.4158773    0.3873276 -89.81  0.001579335    1.243    0.195
        51 -10.2459    205.2363    223.6496   1.0751733405e+02  -3.9157860287e+00    0.4124068    0.1677103 -35.21  0.001678838    2.818    0.645
        52  -9.8916    124.0028    206.0105   1.2157203905e+02   1.4247804459e+01    0.2014043    0.1824212  65.67  0.001156514    1.001    0.001
        53  -8.7674    239.0436    202.7615   9.7228556155e+01  -6.1209334712e+00    0.1673137    0.1054728  37.80 0.0008825012    1.621    0.383
        54 -11.5909     11.3560    141.2288   1.3917133796e+02   4.4950804087e+01    0.6534455    0.3251567 -67.66  0.003524526    1.547    0.353
        55  -9.3127     41.5290    142.0354   1.3143900261e+02   4.1975502165e+01    0.2453697     0.211274  39.78  0.001533133    1.348    0.258
        56 -12.6633    241.2876    132.7664   8.2353644775e+01   5.8315780341e+00       1.4329     1.225864  51.26  0.005182661    1.309    0.236
        57 -10.6570     11.5089    127.7294   1.3738913952e+02   4.8067378592e+01    0.3511813    0.1716885 -58.25  0.001884288    1.601    0.375
        58  -8.7992     10.3705     26.1202   1.1433786240e+02   6.8518082268e+01    0.2358686    0.1282246 -18.96  0.001469241    1.705    0.413
        59  -8.9186    104.7313     26.0739   8.0521440277e+01   5.4640658679e+01    0.3492793    0.1781366  55.11  0.001697614    1.832    0.454
        60 -10.2666     12.6131    118.5360   1.3576694462e+02   5.0098896055e+01      0.40154     0.244601  89.06  0.002022676    1.846    0.458
        61  -8.7759     97.7695    113.2589   1.0955470962e+02   4.0784058613e+01    0.2470281    0.1081572 -41.33 0.0008137939    2.413    0.586
        62  -9.7696     17.8580    104.1639   1.3185853857e+02   5.2969041035e+01    0.2511465    0.1726054 -54.31 0.0009895891    1.163    0.140
        63  -7.9234     19.6854     22.3861   1.0871070827e+02   6.8273288193e+01    0.1999613    0.1029304 -24.23  0.001185606    1.754    0.430
        64  -9.2123     29.8065    101.7431   1.2767000203e+02   5.2537419036e+01    0.3332393    0.1413763 -43.69  0.001525266    2.172    0.540
        65  -7.9958     64.3018     99.6673   1.1622575891e+02   4.9137867214e+01     0.133698    0.1071528  87.11 0.0003949728    1.654    0.396
        66  -8.6777     47.2182     98.8089   1.2147283265e+02   5.1446577039e+01    0.1941148    0.1372915 -35.21  0.001078727    1.376    0.273
        67  -9.0330      1.8092     88.9999   1.3420435399e+02   5.7304534916e+01    0.2947962    0.1348418 -64.09  0.001600084    1.699    0.412
        68 -11.8092     42.5897     82.5468   1.1903031894e+02   5.5444268620e+01     1.055061    0.7980617   4.47  0.006027152    1.480    0.324
        69  -8.0072      8.3673     16.3246   1.1148022333e+02   7.0104348630e+01    0.2098958    0.1057638  -1.57  0.001088354    2.217    0.549
        70  -8.2241     12.7878     14.8634   1.0879909163e+02   6.9936695475e+01    0.1685391    0.1318104  39.46   0.00113448    2.083    0.520
        71  -8.8756     69.2334     13.7882   8.5955365733e+01   6.2675483271e+01    0.2099057     0.160528  64.86  0.001299363    1.922    0.480
        72  -8.7407     97.5645     27.7468   8.2977202464e+01   5.5913758900e+01    0.3409313    0.2103528   2.60  0.001709664    2.101    0.524
        73 -10.3259     12.9038     77.6247   1.2819248815e+02   5.9023530726e+01    0.4843388    0.2371367 -25.75  0.002484402    2.402    0.584
        74  -7.9160     61.9746     29.1760   9.4524104649e+01   6.2092512757e+01    0.2487703    0.1583352  -1.47  0.001399821    1.717    0.418
        75 -10.5947     17.1812     73.4406   1.2570912986e+02   5.9579650467e+01    0.5464099    0.3470954 -30.70  0.003372225    1.469    0.319
        76 -10.3388    183.5632    246.5014   1.1557886127e+02  -3.9692920671e+00    0.4070022    0.1838217  37.35  0.001897223    1.939    0.484
        77  -7.9727     71.3194     80.9536   1.0890531365e+02   5.2085086602e+01    0.2201293    0.1119705 -66.00 0.0007039005    4.472    0.776
        78  -9.7297     24.5030     64.9191   1.2083499569e+02   6.0692310124e+01    0.5108812    0.2467053 -53.13  0.002172827    1.767    0.434
        79  -9.0483     82.5717     69.7104   1.0184540309e+02   5.2442954155e+01    0.4653586    0.2865565  15.63  0.002113289    2.194    0.544
        80  -9.6623     74.2806     68.3201   1.0409540742e+02   5.4052106680e+01    0.3351386    0.2728087  33.26  0.001968969    1.282    0.220
        81  -8.6315    125.4079     28.9955   7.6673007561e+01   4.9833905145e+01    0.2599451    0.2276049  30.49   0.00160664    1.125    0.111
        82  -8.6009     32.1149     69.1824   1.1918312970e+02   5.9188849880e+01    0.3383053    0.1572964   1.14  0.001319336    4.153    0.759
        83  -9.4287    227.5416     78.9585   7.2413893617e+01   1.8328692987e+01    0.5309432    0.3251719  34.35  0.002262264    2.741    0.635
        84  -7.7240     19.3321     60.2753   1.2152074018e+02   6.1994584275e+01    0.1213979   0.07132345 -27.61 0.0002714443    1.598    0.374
        85  -8.1983     76.1624     60.1517   1.0082885657e+02   5.5196284379e+01    0.1688794    0.1636741 -71.79  0.001069671    1.331    0.249
