#   1 NUMBER                 Running object number                                     
#   2 MAG_AUTO               Kron-like elliptical aperture magnitude                    [mag]
#   3 X_IMAGE                Object position along x                                    [pixel]
#   4 Y_IMAGE                Object position along y                                    [pixel]
#   5 X_WORLD                Barycenter position along world x axis                     [deg]
#   6 Y_WORLD                Barycenter position along world y axis                     [deg]
#   7 A_WORLD                Profile RMS along major axis (world units)                 [deg]
#   8 B_WORLD                Profile RMS along minor axis (world units)                 [deg]
#   9 THETA_WORLD            Position angle (CCW/world-x)                               [deg]
#  10 FWHM_WORLD             FWHM assuming a gaussian core                              [deg]
#  11 ELONGATION             A_IMAGE/B_IMAGE                                           
#  12 ELLIPTICITY            1 - B_IMAGE/A_IMAGE                                       
         1 -14.4344     47.3425    120.7905   1.1834267815e+02   4.5523242283e+01     2.663876     1.922112 -88.95   0.01464436    1.217    0.178
         2 -15.3194      2.7827     33.5581   1.1706999079e+02   6.8470525054e+01     5.861406     1.640997 -60.09   0.02780493    2.308    0.567
         3 -14.0715    192.2762     30.5596   5.8979509389e+01   3.3309818823e+01     1.982367      1.31771  -1.65  0.008820411    1.836    0.455
         4 -13.3661    206.0115     15.4027   5.2520372969e+01   3.1410472341e+01     1.163245    0.8109468  22.10  0.005562829    1.763    0.433
         5 -13.5935      3.6834     97.0321   1.2707362575e+02   5.4587027306e+01     3.152422    0.3011709 -61.17   0.01121476    4.584    0.782
         6 -11.8174    193.3793    237.5975   1.0507197090e+02   3.0799746643e+00    0.3008639    0.1938897 -43.29  0.001842813    2.121    0.528
         7 -12.4371    139.5930    249.7971   1.1488734666e+02   9.6587525781e+00    0.8391768    0.1810844  39.23  0.003071691    4.912    0.796
         8 -12.7885     49.3293    213.6786   1.2669343049e+02   2.6967437957e+01    0.5558916    0.3855348 -67.78 0.0009632913    1.709    0.415
         9 -13.3711     58.7363    204.1049   1.2440588799e+02   2.7491559183e+01     1.724201     1.126331 -84.83   0.01238166    1.432    0.302
        10 -15.5851     33.7642    227.0197   1.2997724767e+02   2.6504831153e+01     2.589093     1.186858  60.63   0.01794892    1.590    0.371
        11 -15.7748      4.0086    244.4622   1.3507560534e+02   2.6760786613e+01     1.531426    0.6037337 -70.27   0.00791473    2.830    0.647
        12 -12.1636    170.2563    242.4944   1.0930190016e+02   6.0238688648e+00    0.3504787    0.1341443  40.06  0.001902309    2.028    0.507
        13  -8.7232    101.3952    233.1791   1.1949319696e+02   1.7271274363e+01    0.1292777   0.08684485  85.14 0.0003929278    1.615    0.381
        14 -14.6938     13.0790    205.8801   1.3232201306e+02   3.2078038254e+01      1.32429    0.8599656 -59.36  0.009987432    2.193    0.544
        15 -10.5550    147.3137    230.3369   1.1164189319e+02   1.0982375344e+01    0.2045009    0.1325487   9.66  0.001062325    3.446    0.710
        16 -10.8876    125.7243    229.7946   1.1516394758e+02   1.4290744814e+01    0.2814434     0.134627  58.56   0.00157234    2.103    0.524
        17 -10.2107    115.0038    229.4693   1.1691434813e+02   1.5895463347e+01    0.2116926    0.1237789 -89.04  0.001271693    2.444    0.591
        18  -8.9631     82.3367    230.0335   1.2235809734e+02   2.0289777168e+01    0.1423756    0.1067562  66.80 0.0005318138    1.077    0.072
        19  -8.6138     70.6593    228.2681   1.2413682693e+02   2.2048697987e+01    0.1093237   0.05574327  61.91 0.0006132607    1.602    0.376
        20  -9.5142     94.5534    225.5108   1.1996985463e+02   1.9350842141e+01    0.1086359   0.08014806  60.21 3.900001e-05    1.014    0.014
        21 -10.4851     77.3764    223.0686   1.2264553895e+02   2.2011285625e+01    0.2612874    0.2196276 -79.75  0.001104127    1.420    0.296
        22 -14.1783      2.7735    187.9529   1.3329527553e+02   3.6163620827e+01      1.75794    0.2796814 -80.16  0.006901657    5.312    0.812
        23  -9.6936     73.1491    212.9662   1.2257336615e+02   2.4189355681e+01    0.1669779    0.1209721  66.56 0.0006377888    1.051    0.049
        24 -14.8523     13.9098    249.7387   1.3384552722e+02   2.5054129993e+01     1.104165    0.4362147  35.77  0.007184096    2.829    0.647
        25 -11.6023     31.7271    206.3876   1.2923147895e+02   3.0141366068e+01    0.4925736    0.1204668  53.72  0.002250528    3.012    0.668
        26 -11.9852     94.2536    206.2142   1.1825529647e+02   2.2468272175e+01    0.5093877    0.3378286  44.27  0.002037726    1.369    0.270
        27 -12.7315     84.6130    203.0027   1.1968392277e+02   2.4348613310e+01    0.8551639    0.5115489  52.81  0.003896691    1.339    0.253
        28 -14.0815    102.6271    187.1511   1.1464547910e+02   2.4529146693e+01     1.365389     1.172627  40.68  0.007153648    1.331    0.249
        29 -12.2591    113.7576    191.3109   1.1302156395e+02   2.2094722450e+01    0.7651359    0.4703578 -35.11  0.003946703    2.954    0.661
        30 -11.0385    199.0533    198.6413   9.8639106045e+01   6.6864051080e+00    0.2827332    0.1958698  31.88  0.001625947    1.248    0.198
        31 -14.3108     36.4292    243.9664   1.3036911841e+02   2.3615799690e+01    0.5716369    0.4113367  56.61  0.001576342    1.234    0.190
        32  -9.8143    208.4359    186.7646   9.5093039453e+01   6.5670471872e+00    0.1593686    0.1117973 -12.12 0.0008776727    1.653    0.395
        33 -12.3998     75.0578    180.9051   1.1931539731e+02   2.9611859938e+01     0.952445    0.4649546 -52.01  0.004993643    2.646    0.622
        34 -11.7637     52.8206    163.6996   1.2207630741e+02   3.5777935076e+01     1.894074     1.486773  75.10   0.01345832    1.029    0.028
        35 -11.2613     51.9713    178.7758   1.2362860695e+02   3.2921702758e+01     0.521668     0.354623 -58.37  0.002959996    1.784    0.439
        36 -11.5829     47.0887    172.4556   1.2404664689e+02   3.4707943581e+01     0.436492     0.338106  68.52  0.002035487    1.083    0.076
        37 -12.8420     85.5592    167.2927   1.1565521505e+02   3.0767261448e+01      1.04301     0.786754 -48.15  0.004159434    1.710    0.415
        38 -11.4139    161.9612    249.1745   1.1133456557e+02   6.4912687005e+00    0.2668602    0.1154206  43.83  0.001603587    1.674    0.402
        39 -10.6390    100.5401    174.2550   1.1346513100e+02   2.7203689634e+01    0.3836143    0.2806589  39.91  0.002372985    1.430    0.301
        40 -12.9606     33.5387    164.6310   1.2612138511e+02   3.7721163872e+01    0.9481346    0.6700433 -85.94  0.006781465    1.183    0.155
        41 -12.4430    106.0322    150.0376   1.0881980350e+02   3.1046520646e+01     1.413943     1.179436  75.69   0.00874277    1.110    0.099
        42 -12.9144    121.7260    137.3456   1.0309495713e+02   3.0891843265e+01     1.975403     1.064415  35.53  0.008805168    2.167    0.538
        43 -10.2146    109.0245    120.9373   1.0282683579e+02   3.6571711915e+01    0.2615251    0.2277058  29.98 0.0005020015    1.352    0.261
        44 -10.6577    120.8732    248.9649   1.1773745931e+02   1.2407021926e+01    0.2492422    0.1182532  37.01 0.0009547323    2.026    0.506
        45 -11.0925     92.0155    144.0365   1.1101106600e+02   3.4510886827e+01    0.2204572    0.2086628 -59.33 0.0004054674    1.266    0.210
        46 -13.4514    115.9519    126.3148   1.0226544750e+02   3.4199730900e+01     1.191786     1.017202 -23.21  0.006697427    1.511    0.338
        47 -10.0306    100.3472    129.1524   1.0652831677e+02   3.6314398830e+01    0.2232715     0.204687  -7.53 0.0007292546    1.452    0.311
        48 -13.5033    128.7939    121.4622   9.8232723782e+01   3.2783201806e+01       1.1246    0.8226085 -29.05  0.005592164    1.740    0.425
        49 -12.9277    135.5438    116.1175   9.5463964426e+01   3.2523343883e+01     1.153755    0.5245638 -34.51   0.00409695    3.107    0.678
        50 -10.6911     82.6083    112.5466   1.0780827309e+02   4.2745029075e+01     0.409576    0.3053653 -47.18  0.001830653    1.429    0.300
        51 -11.0163     69.9293    121.0003   1.1261357161e+02   4.2689546240e+01    0.3489976    0.2891632 -69.24  0.001596333    1.120    0.107
        52 -12.2662     77.7845    118.1231   1.1010625138e+02   4.2224770681e+01    0.8695489    0.5178931  38.30  0.004071825    1.846    0.458
        53 -10.9626     93.2889    116.8102   1.0589898009e+02   4.0132855313e+01    0.7919683    0.3175316 -50.83  0.003224083    2.418    0.586
        54 -10.8606    104.8330    113.6395   1.0232654130e+02   3.8869461538e+01    0.3513705    0.3315788 -80.80  0.002120882    1.045    0.043
        55  -9.6928    167.6466    112.3705   8.7497089181e+01   2.6394678852e+01    0.2951969    0.2292414 -78.81 0.0008171113    1.698    0.411
        56 -13.2557     73.1805    164.0154   1.1784951410e+02   3.3140959427e+01    0.7706248    0.6082272 -58.78  0.001201543    1.468    0.319
        57 -12.2255     24.2734    134.1227   1.2550379325e+02   4.4931736907e+01    0.8417599    0.4753698 -69.78  0.004939282    1.501    0.334
        58 -13.6349    136.2034     90.0623   8.8687117352e+01   3.7596882636e+01     1.638952     1.071249 -19.74  0.006870057    2.183    0.542
        59 -13.7274     67.5107    143.8894   1.1659887304e+02   3.8043358552e+01     1.625697    0.9588709  75.69  0.008631193    1.858    0.462
        60 -11.1420     78.2315     86.5872   1.0332855802e+02   4.9175225391e+01    0.5416921    0.4534133  22.21  0.003143803    1.482    0.325
        61 -10.2039     23.9232    178.0345   1.2894921788e+02   3.6075397272e+01    0.4251002    0.1528588 -86.73   0.00216655    2.671    0.626
        62 -11.4021    104.0259     62.6822   8.8837022723e+01   4.9725103129e+01    0.6652672    0.3720456  33.16  0.002790835    2.286    0.563
        63 -12.6803    184.1764     47.9190   6.5769261048e+01   3.3141609706e+01     1.080239    0.5239767 -48.39  0.004010311    2.345    0.573
        64 -11.1207    132.4544    246.9555   1.1573874620e+02   1.1031593915e+01     0.220269    0.1206131  45.87 0.0007751483    1.331    0.249
        65 -14.0154      3.7635    116.5446   1.2885671662e+02   5.0336091326e+01     1.561332    0.8379061 -76.15  0.008007919    1.420    0.296
        66  -9.6455     87.3722    240.7050   1.2234717125e+02   1.8057110284e+01    0.1698227    0.1096391  66.99 0.0006770769    1.291    0.226
        67 -10.4756    249.7470     24.5302   5.0753269378e+01   1.9522032660e+01    0.3975918    0.1066165 -24.48  0.001319638    3.387    0.705
        68 -11.4623     82.3500    141.3643   1.1282136317e+02   3.6521876920e+01    0.6519876    0.4121857 -64.02  0.003348394    1.503    0.335
