#   1 NUMBER                 Running object number                                     
#   2 MAG_AUTO               Kron-like elliptical aperture magnitude                    [mag]
#   3 X_IMAGE                Object position along x                                    [pixel]
#   4 Y_IMAGE                Object position along y                                    [pixel]
#   5 X_WORLD                Barycenter position along world x axis                     [deg]
#   6 Y_WORLD                Barycenter position along world y axis                     [deg]
#   7 A_WORLD                Profile RMS along major axis (world units)                 [deg]
#   8 B_WORLD                Profile RMS along minor axis (world units)                 [deg]
#   9 THETA_WORLD            Position angle (CCW/world-x)                               [deg]
#  10 FWHM_WORLD             FWHM assuming a gaussian core                              [deg]
#  11 ELONGATION             A_IMAGE/B_IMAGE                                           
#  12 ELLIPTICITY            1 - B_IMAGE/A_IMAGE                                       
         1 -15.9289    109.6218     79.6452   8.2018000303e+01   4.5451734078e+01     5.767756     2.316256  33.79   0.01800176    3.548    0.718
         2 -16.1662     48.8418    100.0508   1.0679413204e+02   5.0477200670e+01     2.397901     1.700554 -83.75   0.01287806    1.578    0.366
         3 -17.7584     32.2171     74.6666   1.0681450565e+02   5.7994972031e+01     3.471196     2.574098   6.01   0.01566388    1.624    0.384
         4 -13.3982    154.5057     41.1440   5.7964151730e+01   4.1531891215e+01     1.246421    0.8846194  29.23  0.005854954    1.639    0.390
         5 -12.9834    163.5309     26.8655   5.1677792082e+01   4.1045153838e+01     1.086542    0.7166101  11.19  0.004891084    2.120    0.528
         6 -15.0088    180.7046     14.8863   4.5467036023e+01   3.7933889294e+01     1.541617     1.444014  44.73  0.005602446    1.166    0.142
         7 -13.6105    195.7085      9.5812   4.2180402248e+01   3.4646323125e+01     1.231624    0.4826466 -32.99  0.004519976    2.455    0.593
         8 -12.5046    224.6311      2.6819   3.7702940837e+01   2.8244765331e+01    0.6216725    0.3277549 -88.65  0.002566109    1.886    0.470
         9 -13.7796    221.1464     15.1857   4.1049792540e+01   2.7734131776e+01    0.8017846    0.7724158  87.79  0.003545873    1.179    0.152
        10 -14.1128    204.4680     31.5151   4.7124603602e+01   2.9909624587e+01     2.219278     0.842118  62.55  0.008625748    2.430    0.589
        11 -12.4558    212.9408     24.2131   4.4185551184e+01   2.8691225356e+01    0.4846045    0.3669036  41.21  0.001062858    1.599    0.375
        12 -14.7762      8.6943     20.2348   1.0048248964e+02   7.0754329955e+01     2.460588     1.401873 -20.70  0.009358316    1.649    0.394
        13 -14.1235     18.9527     14.9196   9.2829821778e+01   7.0851841485e+01     1.713847    0.6773037 -36.92  0.006097856    2.049    0.512
        14 -14.1060     80.7093     21.3682   6.9363821172e+01   6.1115114131e+01    0.8942865    0.8620424  20.12  0.004046105    1.249    0.199
        15 -15.5088     63.0445     13.8527   7.2186192745e+01   6.5248133507e+01     2.093645     1.473151  35.44  0.005810518    1.367    0.268
        16 -15.6196     93.9503      8.3448   5.9555643900e+01   5.9884137604e+01     1.819771     1.453513  39.52  0.006811225    1.110    0.099
        17 -13.8514     75.4624      9.1950   6.5524460288e+01   6.3549576390e+01    0.8085949    0.5543965   9.38  0.003279363    1.425    0.298
        18 -12.5735    127.6787      3.0408   4.9758414249e+01   5.2556223398e+01    0.9663529    0.2763242  60.53  0.003552992    2.751    0.636
        19  -9.7479     97.2181    128.3401   9.8452409832e+01   3.6750916224e+01     0.196657    0.1756669   1.14 0.0004458245    1.362    0.266
        20 -15.1835     26.0641    231.4978   1.2692273239e+02   2.3688294654e+01     1.524965    0.5848923  70.49  0.007876806    2.542    0.607
        21 -15.9045     77.1413    140.1332   1.0622370999e+02   3.7136800799e+01     2.731807     1.273852 -64.19   0.01141246    2.076    0.518
        22 -16.7567      4.5329    153.2087   1.2601821422e+02   4.1936704276e+01     4.063312     0.654003 -76.83   0.01283242    5.216    0.808
        23 -17.6306     85.3995    234.1988   1.1649431439e+02   1.5695649531e+01     3.922635     1.822424  42.02   0.02099517    1.814    0.449
        24 -16.2380     25.1188    197.3133   1.2495994621e+02   3.0503500787e+01     2.200019    0.8148776  80.62  0.009278292    3.365    0.703
        25 -15.6514     65.4944    200.2742   1.1709798323e+02   2.5088216377e+01     1.071352    0.6422995  77.62  0.004419408    1.679    0.404
        26 -17.3737     63.0496    177.6807   1.1515455357e+02   3.0317462856e+01     2.529996      1.63609 -83.75   0.01307716    1.467    0.318
        27 -16.3521     80.2441    179.8455   1.1152392851e+02   2.7424676537e+01      2.51182    0.9150509 -53.29   0.01000967    2.920    0.657
        28 -16.8539     56.4466    234.8404   1.2183643317e+02   1.9494507175e+01      1.57916    0.9262634 -72.85   0.01015943    1.742    0.426
        29 -16.9510     45.3927    206.1092   1.2167374383e+02   2.6429811272e+01     2.168014     1.192221  78.08   0.01232075    1.717    0.418
        30  -9.4057     16.6474    250.6757   1.2940444431e+02   2.1283089594e+01    0.0834835   0.07556996 -70.95 0.0007047551    1.759    0.432
        31 -12.3167      4.9334    247.9299   1.3109723214e+02   2.2941094056e+01    0.2210019     0.125195  69.86 0.0006863361    1.219    0.180
        32 -11.0509    167.1965    124.9003   7.9812998423e+01   2.3092013328e+01    0.3749025    0.2596289 -26.77  0.001053846    1.651    0.394
        33 -10.2198    168.4884    113.3017   7.6536459552e+01   2.5174126972e+01    0.3206756    0.2444478  86.78  0.001104604    1.793    0.442
        34 -10.7273    153.1029    111.9722   7.9770118879e+01   2.9028766623e+01    0.4129821    0.2827269  32.31  0.001762317    1.668    0.400
        35 -10.7676    205.5132    110.1427   6.8087480532e+01   1.7105218659e+01    0.3329555    0.2221575  40.85  0.001055235    1.603    0.376
        36 -14.3467    216.8626     93.6497   6.1851146443e+01   1.7394581210e+01     1.562143     1.302374  10.55   0.00548017    1.424    0.298
        37 -13.6375    189.2314     61.9722   5.7949883214e+01   2.9457028317e+01     1.013218    0.6618034  38.68  0.003598117    1.790    0.441
        38 -13.1726    181.4777     72.7312   6.2469589567e+01   2.9657486285e+01     1.302368     0.546487 -42.44   0.00390995    2.353    0.575
        39 -13.2943    202.0791     80.2394   6.0828016471e+01   2.3224820955e+01    0.9825493    0.5319141  65.25  0.003924683    2.120    0.528
        40 -14.6684    194.9277     73.3930   6.0191672910e+01   2.6153657702e+01     2.708032    0.8701237  56.73  0.008678084    3.084    0.676
        41 -10.7430    168.7827     96.2432   7.1828853135e+01   2.8508271126e+01    0.3602487    0.2533245  40.95  0.001206667    1.489    0.328
        42 -13.9281    109.8321    173.0773   1.0366606722e+02   2.4175597236e+01     1.263968    0.8098578  54.19  0.005015678    1.532    0.347
        43 -11.8126    194.0252     87.8266   6.4346538449e+01   2.3882308754e+01    0.4721656    0.4261485  87.03  0.001935525    1.188    0.159
        44 -10.8791    171.5733     84.2766   6.7813895226e+01   3.0094705329e+01    0.3743332    0.2611748 -55.64  0.001446873    1.601    0.375
        45 -12.3370    204.6072     61.6263   5.5334261760e+01   2.5626259335e+01     0.585097    0.3890784  69.44  0.002043928    1.585    0.369
        46 -11.6111    177.6139     58.6740   5.9053734551e+01   3.2958133060e+01    0.3233677    0.2968577  31.03  0.001715672    1.170    0.146
        47 -13.3354     15.0390     53.8454   1.0830663944e+02   6.3820773187e+01    0.7238144    0.4310853 -10.01  0.004045211    2.020    0.505
        48 -13.1183    200.5827     51.0211   5.3023579792e+01   2.8235127916e+01     1.110572    0.5009686  76.01  0.003846938    3.051    0.672
        49 -12.0980    191.5175     52.0383   5.4715755435e+01   3.0396061650e+01    0.3058982    0.2871965 -82.83  0.001695382    1.026    0.025
        50 -10.8197    127.8709     53.1593   6.8095644433e+01   4.6320933113e+01    0.2276259    0.2133291 -77.81 0.0009824204    1.211    0.174
        51 -11.4722     67.4041     49.2028   8.5619484825e+01   5.9049100095e+01    0.4439684    0.3343069 -39.99  0.001949183    1.256    0.204
        52 -12.7358     74.4806     47.4080   8.2345093929e+01   5.8234967403e+01    0.5177989    0.4306098  35.56  0.001426152    1.295    0.228
        53 -11.5769    119.0253     48.1838   6.8647176247e+01   4.9181676559e+01     0.512004    0.3716212  77.52   0.00235665    1.927    0.481
        54 -11.2355    141.3534     46.8628   6.2671098536e+01   4.4032011024e+01    0.3761873    0.2618671 -72.49  0.000829727    2.056    0.514
        55 -10.2587    126.4179    187.0560   1.0215574150e+02   1.8260692633e+01    0.2727011    0.1892972  28.67 0.0009575862    1.645    0.392
        56 -15.5747     39.5847    176.7641   1.2027958488e+02   3.3380765078e+01     2.160599    0.4328157 -73.12  0.006607755    5.316    0.812
        57 -14.2999    134.5895    164.4594   9.6302642861e+01   2.1516387004e+01     2.421723    0.8665309 -51.47  0.007187359    2.934    0.659
        58 -16.7858    112.6677    142.6734   9.7360457841e+01   3.0594137405e+01     3.070979     2.524312 -14.44   0.01191957    1.610    0.379
        59 -14.8424     39.4483    119.9480   1.1328310597e+02   4.6708965002e+01     1.060091    0.7943716 -47.88  0.004499742    1.357    0.263
        60 -15.3956    106.9148    116.3990   9.3016170664e+01   3.7819883372e+01     1.363315     1.068155 -53.46  0.004351014    1.228    0.186
        61 -13.7256    197.1269     37.7981   4.9830660339e+01   3.0959757464e+01    0.8070761     0.620868  54.41  0.002196451    1.325    0.245
        62 -16.4359    119.9457     97.9020   8.4491409542e+01   3.9419954190e+01     3.499994     1.963277  44.12   0.01386613    1.832    0.454
        63 -11.8284     10.7741    206.2124   1.2820689917e+02   3.0112219752e+01    0.3091346    0.2328825  26.81  0.002240202    1.900    0.474
        64 -10.9020    192.9215    192.9680   8.9077535818e+01   4.7635429132e+00    0.5321323    0.3706843 -65.75  0.002546652    2.383    0.580
        65 -11.1880    119.1584    166.1883   1.0027678326e+02   2.4040579751e+01    0.3719391    0.3267387  85.27  0.001046605    1.146    0.128
        66  -9.8120    194.0546    167.2478   8.3747807070e+01   9.0184924535e+00    0.2078247    0.1854351  32.27   0.00115767    1.079    0.073
        67  -9.9772     31.3823    157.3512   1.2020210549e+02   3.8655676481e+01    0.2431012    0.1293277 -42.60  0.001162172    2.735    0.634
        68 -10.3717    149.4572    155.3381   9.0979810323e+01   2.0511221408e+01    0.2893748    0.2551793  -9.58 0.0009889572    1.307    0.235
        69 -14.2638     87.0456    108.9444   9.6952197069e+01   4.3082443788e+01     1.311943     0.858491 -63.61   0.00444573    1.574    0.365
