#   1 NUMBER                 Running object number                                     
#   2 MAG_AUTO               Kron-like elliptical aperture magnitude                    [mag]
#   3 X_IMAGE                Object position along x                                    [pixel]
#   4 Y_IMAGE                Object position along y                                    [pixel]
#   5 X_WORLD                Barycenter position along world x axis                     [deg]
#   6 Y_WORLD                Barycenter position along world y axis                     [deg]
#   7 A_WORLD                Profile RMS along major axis (world units)                 [deg]
#   8 B_WORLD                Profile RMS along minor axis (world units)                 [deg]
#   9 THETA_WORLD            Position angle (CCW/world-x)                               [deg]
#  10 FWHM_WORLD             FWHM assuming a gaussian core                              [deg]
#  11 ELONGATION             A_IMAGE/B_IMAGE                                           
#  12 ELLIPTICITY            1 - B_IMAGE/A_IMAGE                                       
         1 -14.6585     68.4574    144.3243   1.0022475011e+02   3.7418878079e+01     5.129268      2.79155  71.61   0.00650749    3.358    0.702
         2 -14.2639    217.4186     27.7940   3.6789028576e+01   2.8169717119e+01     1.142189    0.8566045  37.13  0.006688434    1.899    0.473
         3 -14.4140    204.4862     39.8055   4.0994303751e+01   2.9556655199e+01     1.877805     1.452727  30.10  0.007757844    1.813    0.448
         4 -12.6245    245.8176      4.5966   2.9704936039e+01   2.4859072419e+01    0.4544517    0.4304861 -69.36  0.003176543    1.366    0.268
         5 -12.5517    239.9172      4.2810   3.0017057651e+01   2.6071739619e+01    0.4720112    0.3064909 -56.82  0.003113709    1.254    0.202
         6 -10.2682     52.8165      4.6195   6.1020637133e+01   6.7415983120e+01    0.1606128    0.1060276  52.28 0.0009462084    1.716    0.417
         7 -10.5200     47.7693      2.3899   6.1877066122e+01   6.8487838988e+01    0.2147481    0.1705147  16.09 0.0003230631    1.029    0.028
         8 -10.2966     57.2451      1.8138   5.8001329240e+01   6.6892722349e+01    0.2748153    0.1618515  69.44  0.001280751    3.288    0.696
         9 -10.0082    149.5275    187.5054   8.7171711320e+01   1.3484764391e+01    0.3035926    0.2171564  77.04 0.0007296338    2.234    0.552
        10 -10.8735    140.2250    249.7003   9.8994931049e+01   3.1657464054e+00    0.2769152    0.1861918  59.48  0.001537517    1.849    0.459
        11 -15.9595      5.5725    186.8881   1.2158994357e+02   3.3719492894e+01     9.684151     1.034272 -74.39  0.001461202    6.317    0.842
        12 -14.5841     38.0751    199.7137   1.1538465092e+02   2.7616103339e+01     1.789639    0.8436364 -81.85  0.003009133    2.120    0.528
        13 -15.0362     47.8930    190.2171   1.1216899695e+02   2.8697891378e+01     3.149528     1.612123  85.23   0.01366658    2.386    0.581
        14  -9.7359     99.3488    181.0071   9.8201837856e+01   2.3660472354e+01    0.2296458     0.200855  21.37 0.0006178918    1.263    0.208
        15 -10.3768    189.3898    177.6754   7.6428064168e+01   8.2246415889e+00    0.4425807    0.2824223 -61.48   0.00190783    2.367    0.578
        16 -12.3266     64.5296    174.3271   1.0608402412e+02   3.0440059509e+01    0.5214099    0.3241894 -41.86  0.002464161    1.945    0.486
        17 -12.0956     69.0520    169.6533   1.0423028317e+02   3.0978947719e+01    0.3590339     0.269905 -42.44  0.000848918    1.498    0.333
        18  -9.5453    148.4311    175.2425   8.5058604436e+01   1.6313840423e+01    0.2021844    0.1449076 -60.77 0.0006668105    1.613    0.380
        19 -12.7527     85.8299    153.9124   9.7048614287e+01   3.2430658149e+01     1.752595    0.7692946 -62.10  0.006552596    2.340    0.573
        20 -12.6697     78.4713    160.3585   1.0022086817e+02   3.1943395351e+01    0.7406906    0.4958002  55.49 0.0007516378    1.621    0.383
        21 -13.5865     65.9172    156.2178   1.0298547479e+02   3.4762478521e+01    0.5687656    0.4237516 -49.44  0.001390291    1.350    0.259
        22 -13.7629     56.9083    238.7475   1.1480910953e+02   1.6986062268e+01    0.5839087    0.3818752 -81.79 0.0004874773    1.540    0.351
        23  -8.6356    120.5153    165.5622   9.0014025199e+01   2.3678196551e+01    0.1500785    0.1449414  70.08 0.0001493984    1.048    0.046
        24 -15.6605      9.4908    207.4569   1.2211070472e+02   2.8767026722e+01     2.741981     1.191515 -53.02  0.009531505    2.916    0.657
        25  -8.5425    130.4510    159.4483   8.6237339019e+01   2.3265350902e+01    0.1522597    0.1468262  79.84 0.0003930192    1.084    0.078
        26 -11.2362     31.7287    155.9441   1.1231873480e+02   3.8814442050e+01    0.3766019    0.2885005  -4.85  0.001492327    1.791    0.442
        27  -9.4294    152.1668    151.9425   7.9235948051e+01   2.0725057791e+01    0.2579998    0.1831014 -77.83  0.001063269    2.149    0.535
        28 -11.1171    133.6566    144.2662   8.2095691889e+01   2.6171973889e+01     1.180996    0.2931522 -53.97  0.002630051    6.051    0.835
        29 -12.2306     24.6939    148.6227   1.1334300383e+02   4.1296453332e+01    0.7078322     0.292028  65.03  0.002469498    4.026    0.752
        30 -10.5962    174.4969    149.1262   7.3459386782e+01   1.6824926386e+01    0.3174507    0.2886696 -10.88 0.0007499979    1.099    0.090
        31  -8.6029     82.6747    182.2939   1.0260760413e+02   2.5944882277e+01    0.1433586    0.1386971 -74.86  0.000376373    1.097    0.088
        32 -10.1240     48.2062    145.0153   1.0621199354e+02   3.9814877661e+01    0.2366011    0.1866548  -8.62  0.001245464    1.647    0.393
        33 -10.8127     32.5344    144.1348   1.1057574897e+02   4.1693455987e+01     0.412535    0.1722885  40.93  0.001779853    2.524    0.604
        34 -10.3746     99.4955    140.5257   9.0516564047e+01   3.3492639505e+01     0.325806    0.2973831 -26.09 0.0007857377    1.164    0.141
        35  -9.8522    102.3802    137.3347   8.8998106147e+01   3.3766887293e+01    0.3246427    0.2323874 -23.01 0.0007854821    1.801    0.445
        36 -12.5395     87.5114    139.1706   9.3671531340e+01   3.5846290821e+01    0.3166569    0.2654691 -45.71  0.000472753    1.172    0.146
        37  -9.9734    197.6130    139.0218   6.6323683765e+01   1.4203567545e+01    0.3255545    0.2290073 -62.40  0.001492245    1.828    0.453
        38 -11.1127     77.7404    138.1520   9.6327074097e+01   3.7631312926e+01     0.256098    0.2422269  85.71 0.0002361523    1.079    0.073
        39 -10.5367    105.9863    130.9988   8.6523809641e+01   3.4654092304e+01    0.4798205    0.3549223 -62.62  0.002228331    1.428    0.300
        40 -10.2134    109.8398    130.3812   8.5283470347e+01   3.4085131141e+01    0.3298519    0.2635426  -4.24  0.001182499    1.566    0.362
        41 -11.2579     44.2214    129.5366   1.0486487945e+02   4.4179237419e+01    0.3161202    0.2160028 -65.27  0.001333981    1.293    0.227
        42 -10.9786    135.2474    127.9703   7.7800039686e+01   2.9596227711e+01    0.4852743    0.3279644 -46.71  0.002138401    1.449    0.310
        43  -9.8833    160.9680    127.9627   7.1490668662e+01   2.4133769515e+01    0.2517173    0.1978727 -81.72  0.001139041    1.703    0.413
        44 -11.0740     97.3070    126.0451   8.7878617720e+01   3.7423489294e+01    0.3292658    0.2647934 -21.56 0.0008370002    1.430    0.300
        45  -9.8062    116.5437    124.2654   8.1912167537e+01   3.4245906067e+01    0.2227436    0.1445918 -37.33 0.0009381406    1.616    0.381
        46 -11.2339     45.3545    123.8614   1.0350232127e+02   4.5484173298e+01    0.2788987    0.2355537 -71.05  0.001435866    1.100    0.091
        47  -9.3841    163.4296    121.2268   6.9242215194e+01   2.5025154853e+01    0.2193235    0.1444201 -52.49 0.0009379312    1.597    0.374
        48  -9.6360    135.0000    119.9419   7.5832680088e+01   3.1458547466e+01    0.2664369   0.08844291 -45.49 0.0007967558    2.945    0.660
        49  -9.8895    106.9795    118.9623   8.3307033646e+01   3.7344241067e+01    0.2216819     0.214161 -35.39  0.001177584    1.007    0.007
        50  -9.9317    146.4017    171.2199   8.4733057674e+01   1.7575659135e+01    0.2111094    0.1446959 -59.40 0.0006840517    1.661    0.398
        51 -14.7377     18.6609    218.7556   1.2097813581e+02   2.5452728028e+01     1.005119     0.954628 -36.23  0.007541476    1.517    0.341
        52 -10.6329     22.0989    114.1719   1.0931078650e+02   5.0096650538e+01    0.2592205    0.1577271  65.32  0.001199209    2.156    0.536
        53  -9.3287     82.3790    116.9658   9.0259066987e+01   4.2164282952e+01    0.2115131    0.1832805 -52.84 0.0004374047    1.091    0.084
        54  -9.0432    167.9830    112.9888   6.6124755695e+01   2.5719089163e+01    0.2720121    0.1727074  75.61  0.001010221    2.636    0.621
        55 -10.2009    134.8487    112.0227   7.3793517008e+01   3.3242250000e+01    0.3865504    0.1095917 -44.50  0.001093006    3.453    0.710
        56 -10.1287    205.4694    110.1719   5.8061141936e+01   1.8067396743e+01    0.2970894    0.2116892  40.85  0.001104997    1.582    0.368
        57 -10.6236     28.7040    107.1889   1.0589798547e+02   5.1265480975e+01    0.2213907     0.191821   9.97 0.0005924167    1.341    0.254
        58 -10.2443     39.3950    113.2499   1.0344490625e+02   4.8764135262e+01    0.2209709    0.1565877  54.25 0.0005913955    1.698    0.411
        59 -10.3742    119.3273    103.9637   7.5783752843e+01   3.8301949112e+01     0.222605    0.1980126 -41.01 0.0004548899    1.099    0.090
        60 -10.4284     39.2586    102.0214   1.0121279548e+02   5.1526352681e+01    0.2350443    0.1804031  57.96 0.0006505853    1.616    0.381
        61 -10.6523    241.7464    101.7575   5.0505544543e+01   1.2245361909e+01    0.1922318    0.1132718  72.02  0.000877687    2.431    0.589
        62 -10.4696    120.9858     98.4862   7.3779669556e+01   3.9138094199e+01    0.2526121     0.206242 -41.80 0.0006470268    1.203    0.168
        63  -9.8354     32.6959     96.6026   1.0238733940e+02   5.3467504975e+01    0.2923618    0.1837757  77.98   0.00117225    2.551    0.608
        64 -10.7438     53.2511     91.2969   9.3666292619e+01   5.2478465938e+01    0.3276144    0.2267566 -59.99  0.001172381    1.434    0.303
        65 -11.3577    246.8341     87.1779   4.6682958475e+01   1.3632511151e+01    0.2487722    0.1524421 -46.95 0.0009412718    1.384    0.277
        66 -10.4088     72.1169     83.0931   8.4592459331e+01   5.1641423511e+01    0.4199033    0.2593807  57.71  0.001765231    2.511    0.602
        67  -9.8516    159.9892     82.6879   5.9680625216e+01   3.3415940076e+01    0.2134262    0.1966738  57.81 0.0004758408    1.093    0.085
        68  -9.5927     93.1451     67.3027   7.2412704447e+01   5.1095344844e+01    0.2677814    0.1923955 -67.18  0.001215568    2.110    0.526
        69 -10.7828     13.4250     59.9159   1.0128168130e+02   6.3278412412e+01     0.247911    0.1917119 -54.17 0.0004405887    1.195    0.163
        70  -9.5943     90.0985    212.9060   1.0502638087e+02   1.7849432025e+01    0.2119017    0.1616177  68.22 0.0005637612    1.322    0.244
        71 -12.9979    195.6279     46.1726   4.3685840682e+01   3.0746303945e+01    0.7823923    0.5607638  38.75   0.00116134    1.780    0.438
        72  -9.9217    112.0894    205.5401   9.8956818212e+01   1.6042013575e+01    0.2231362     0.182613  66.51 0.0004062939    1.285    0.222
        73  -9.9463     47.6907     42.3124   8.0098232663e+01   6.3162531239e+01    0.3574642    0.1875377  46.19   0.00164976    2.633    0.620
        74  -9.9877    136.5262     35.1400   5.0177867557e+01   4.6385743110e+01    0.2271543    0.1815056  64.70 0.0003492316    1.186    0.157
        75  -9.1095     72.4302     55.1560   7.5217099561e+01   5.7102272243e+01    0.1799628    0.1278966 -48.74 0.0003789659    1.610    0.379
        76 -10.4074    198.0329     23.9490   3.7874294027e+01   3.2988440471e+01    0.2732975    0.1921902 -20.03  0.001237499    1.794    0.443
        77  -9.6365    189.5132     15.0457   3.6596980941e+01   3.5942977180e+01    0.1771821      0.12228 -33.93 0.0006345392    1.550    0.355
        78 -10.6175    107.5123    203.9098   9.9781765344e+01   1.7129845305e+01    0.2384096    0.2111897  76.87 0.0006752249    1.155    0.134
        79 -11.5452    192.5051    193.9884   7.9020648370e+01   4.6204899986e+00     0.582045    0.3290258 -62.08  0.002169677    3.638    0.725
        80  -9.4738     79.8060    182.6578   1.0338305497e+02   2.6280623410e+01    0.3492756    0.1955701 -86.47  0.001416878    2.488    0.598
        81 -17.1373     15.8314    247.1015   1.2315065255e+02   2.0008039751e+01     8.851985     3.017636  24.50   0.03413358    5.502    0.818
