#   1 NUMBER                 Running object number                                     
#   2 MAG_AUTO               Kron-like elliptical aperture magnitude                    [mag]
#   3 X_IMAGE                Object position along x                                    [pixel]
#   4 Y_IMAGE                Object position along y                                    [pixel]
#   5 X_WORLD                Barycenter position along world x axis                     [deg]
#   6 Y_WORLD                Barycenter position along world y axis                     [deg]
#   7 A_WORLD                Profile RMS along major axis (world units)                 [deg]
#   8 B_WORLD                Profile RMS along minor axis (world units)                 [deg]
#   9 THETA_WORLD            Position angle (CCW/world-x)                               [deg]
#  10 FWHM_WORLD             FWHM assuming a gaussian core                              [deg]
#  11 ELONGATION             A_IMAGE/B_IMAGE                                           
#  12 ELLIPTICITY            1 - B_IMAGE/A_IMAGE                                       
         1 -13.8692     68.5444    144.6479   9.2347383204e+01   3.7309570948e+01      4.55495     2.485085  77.99  0.002787939    3.864    0.741
         2 -13.3824    211.7905     42.8636   3.3959135987e+01   2.7752267739e+01       1.6058     1.262354  -1.42  0.008564725    1.956    0.489
         3 -12.8582    227.8445     28.5140   2.9428200582e+01   2.6264383165e+01    0.7691439     0.672332 -77.39  0.002677929    1.158    0.136
         4 -11.0767    249.4090      9.2235   2.4253736722e+01   2.4341515705e+01    0.3575999    0.2129138 -38.04  0.001829205    1.561    0.359
         5 -11.3240    248.9877      4.5050   2.3410547648e+01   2.4909240580e+01    0.3455732    0.3165548  -2.07  0.002778319    1.749    0.428
         6 -10.0872      2.4702      4.0047   7.9618068824e+01   7.5646696423e+01    0.2937362   0.09916441 -44.29  0.001394378    2.863    0.651
         7  -8.6680    169.2000    235.9950   8.2096491296e+01   1.7849985300e+00    0.1701145    0.1457186  -7.33 0.0004689574    1.118    0.106
         8 -16.0447     17.1830    241.7395   1.1592435110e+02   2.0106106685e+01     7.695917     2.779935  18.07   0.02929495    4.698    0.787
         9  -9.0176    115.6531    186.2449   8.6388986982e+01   1.9694182986e+01    0.2052143    0.1314007 -44.75 0.0005483752    1.629    0.386
        10  -9.0169     99.2431    180.9959   8.9798452212e+01   2.3546026312e+01    0.2231344     0.193639 -23.06 0.0006326339    1.269    0.212
        11  -9.8799    234.5876    175.7945   5.9061330798e+01   2.5954347548e+00    0.1842305    0.1034454 -44.03 0.0009628629    1.748    0.428
        12 -11.3637     58.6459    172.3565   9.9719174663e+01   3.1505251546e+01    0.4911422    0.3234327 -29.43   0.00123087    2.020    0.505
        13 -11.2402     63.9546    167.4761   9.7502838358e+01   3.2056933271e+01    0.3592264    0.2883564 -36.67 0.0008240996    1.390    0.281
        14 -15.2905     39.5130    188.7861   1.0688428642e+02   2.9654193586e+01     10.83333     4.259792  81.62   0.03132989    5.396    0.815
        15 -12.7947     61.1424    154.3388   9.6308349650e+01   3.5808550924e+01    0.5645274    0.4255157 -37.05  0.001165633    1.465    0.317
        16 -12.0291     81.9354    152.5002   8.9690699134e+01   3.3302096170e+01     1.153525    0.6369114 -48.27  0.002511773    1.810    0.447
        17 -11.7750     74.3245    158.7310   9.3071209455e+01   3.2851788124e+01    0.5887634    0.5320179 -13.88 0.0004057181    1.226    0.184
        18 -14.6843      8.8326    207.6433   1.1588429486e+02   2.8177700237e+01     3.166344     1.206428 -80.34   0.01451248    2.449    0.592
        19 -10.2433     36.9636    160.9378   1.0451537686e+02   3.6941173734e+01    0.3984399    0.2400261  60.38  0.001312051    1.823    0.451
        20 -10.9124     33.1245    157.1514   1.0519383040e+02   3.8311395646e+01    0.3846633    0.3300882 -88.48 0.0004197335    1.083    0.077
        21  -7.6383    124.6451    150.6960   7.7153581391e+01   2.6380723498e+01    0.1614501    0.1208073  -7.60 0.0007040155    1.713    0.416
        22  -9.0845     87.3323    206.5538   9.6661491841e+01   1.9395818092e+01     0.210968    0.1291358 -62.32 0.0001760413    1.750    0.429
        23  -9.7504    133.9510    145.9080   7.3656766167e+01   2.5725575554e+01    0.9426841    0.2054632 -53.47  0.001840868    8.099    0.877
        24 -10.5997     23.1726    147.6339   1.0708257371e+02   4.1709160519e+01    0.3563383    0.2879913  31.06  0.001068974    1.342    0.255
        25 -10.7913    240.0291    169.0644   5.6907352311e+01   2.9171824944e+00    0.1964865     0.158858 -26.03 0.0006758226    1.054    0.051
        26  -9.4007     28.5504    143.0905   1.0483697886e+02   4.2415029146e+01    0.2596868    0.2203271 -45.56  0.001488532    1.211    0.174
        27 -10.2165     97.7717    138.7386   8.2143937774e+01   3.4152503810e+01    0.6351411    0.3979279 -17.80  0.002364449    2.586    0.613
        28 -11.7357     84.5070    137.9417   8.6023621488e+01   3.6596290954e+01    0.3276407    0.2838329 -40.85 0.0004850376    1.155    0.134
        29 -10.2587    107.1547    130.2987   7.7437341977e+01   3.4509624545e+01    0.5075296    0.3605283  17.10  0.001811916    1.711    0.416
        30  -8.5058     96.4552    124.6986   7.9326854354e+01   3.7840280692e+01    0.2117037    0.1449088 -41.13 0.0009285882    1.480    0.324
        31  -8.2280    115.3115    124.2978   7.3623886024e+01   3.4362110085e+01    0.1584662    0.1235537  -8.09  0.000485295    1.600    0.375
        32  -9.2314     73.0316    205.5409   1.0011805216e+02   2.1590048625e+01    0.2701053    0.2097781 -73.12  0.001506211    1.354    0.261
        33  -8.5440    162.4973    120.0300   6.0671559159e+01   2.5556618158e+01    0.2302425    0.1429858 -44.46  0.001012414    1.547    0.354
        34  -9.0819    105.8584    118.3623   7.4898115445e+01   3.7597572694e+01    0.2328892     0.207873 -58.33 0.0003232263    1.158    0.136
        35  -9.9085    231.2401    113.9406   4.7141512018e+01   1.3321187856e+01    0.2615788    0.2307156 -30.51 0.0007448263    1.104    0.094
        36  -7.8957    158.3256    114.6231   6.0249767621e+01   2.7530471410e+01    0.1592191     0.119258 -77.69 0.0007025118    1.833    0.454
        37  -9.1713    205.3466    110.2806   5.0235019284e+01   1.8693044891e+01    0.2650034    0.1925658  46.51  0.001047293    1.549    0.355
        38  -8.2449    110.5434    167.4926   8.4359280532e+01   2.4917543717e+01    0.1490576    0.1461324  42.53 0.0004039551    1.037    0.035
        39  -8.3891     73.7978    109.5912   8.3056559939e+01   4.5432904961e+01    0.2038378    0.1400841  44.87 0.0003970563    1.566    0.361
        40  -8.8909     66.0583    103.4947   8.4271252191e+01   4.8134005948e+01    0.2220442    0.1480865  30.50 0.0004064483    1.549    0.355
        41 -11.1397    243.0770     93.6002   4.1402826426e+01   1.4488248659e+01    0.5026344    0.1072997 -42.12  0.001764592    3.541    0.718
        42 -10.0732     53.1281     90.7641   8.5850425254e+01   5.3062714359e+01    0.3044264    0.1619441 -34.38  0.000929056    2.117    0.528
        43  -9.2523     46.3917     91.6053   8.8760694355e+01   5.3737997800e+01    0.2564184    0.1311471  32.24 0.0006164776    2.023    0.506
        44  -8.4662    234.4384     86.5078   4.0950232591e+01   1.7097571905e+01    0.1276521    0.1043029 -49.33  0.000104023    1.016    0.015
        45  -9.8108    245.6254    164.7933   5.5229136515e+01   2.8209170424e+00    0.1845299   0.09656857 -43.31 0.0009601553    1.749    0.428
        46  -8.8404     59.4795     78.5028   7.9786995770e+01   5.4955048000e+01     0.146396     0.132611 -16.61 0.0008101963    1.026    0.025
        47  -8.0436    184.2999     77.3267   4.5775901051e+01   2.8674100188e+01     0.134444    0.1108174  11.18  0.000702905    1.637    0.389
        48 -10.3638      2.1614     62.1164   1.0143123539e+02   6.4521517639e+01     0.400415    0.1617203 -74.45  0.001627483    3.000    0.667
        49  -9.9739     31.2561     60.9800   8.6671377984e+01   6.2470555265e+01    0.4824054    0.2307562  41.10  0.002087876    2.612    0.617
        50 -12.9291    202.1979     48.6299   3.6319825517e+01   2.9022846052e+01     0.948552    0.8238083  50.09  0.001733553    1.392    0.281
        51  -9.3105    119.8271    245.7086   9.4032489648e+01   6.9132988753e+00    0.2606779   0.07854308 -48.91  0.001014464    3.694    0.729
        52 -11.7708    220.6529     34.8882   3.1368814673e+01   2.6934660172e+01    0.4309753    0.3702409  55.39  0.001128451    1.470    0.320
        53 -10.7789     94.9653    240.5885   9.8941529939e+01   1.1234171714e+01    0.5959265    0.2152862 -66.09  0.002335818    3.792    0.736
        54 -10.9582     13.4209     59.9448   9.5202221854e+01   6.4318354340e+01    0.3181442    0.2651687  36.68 0.0004208884    1.466    0.318
        55 -10.9620      8.7898     50.6443   9.4969843536e+01   6.6656472111e+01      0.29034    0.1860241  15.16  0.001664874    1.629    0.386
        56  -9.8525     34.2368     55.4785   8.3392199135e+01   6.3277556507e+01    0.2505477    0.2203726  26.11  0.000621491    1.267    0.211
        57 -10.3696      2.7378     49.3888   9.7912563516e+01   6.7294544173e+01    0.2803484    0.2228396 -23.69  0.001204625    1.111    0.100
        58  -9.3312    197.9220     24.2973   3.1075553760e+01   3.2968774686e+01    0.2245173    0.1765534 -29.81  0.001155019    1.460    0.315
        59  -9.7578      2.3912     23.8267   8.9405323033e+01   7.2385012237e+01    0.1783663    0.0837958 -41.15 0.0009523504    1.735    0.423
        60  -8.2472    189.5981     15.2004   2.9705913296e+01   3.5791799578e+01    0.1504492    0.1183425 -21.03 0.0007752454    1.599    0.375
        61 -12.4118     29.5191    197.4854   1.1023179028e+02   2.8604047159e+01    0.5191764    0.3737713 -35.32  0.001240607    1.826    0.452
        62 -10.1611    193.5334    196.0239   7.0351747990e+01   5.1376453808e+00    0.6806986    0.3145084 -58.03  0.002011431    6.191    0.838
