#   1 NUMBER                 Running object number                                     
#   2 MAG_AUTO               Kron-like elliptical aperture magnitude                    [mag]
#   3 X_IMAGE                Object position along x                                    [pixel]
#   4 Y_IMAGE                Object position along y                                    [pixel]
#   5 X_WORLD                Barycenter position along world x axis                     [deg]
#   6 Y_WORLD                Barycenter position along world y axis                     [deg]
#   7 A_WORLD                Profile RMS along major axis (world units)                 [deg]
#   8 B_WORLD                Profile RMS along minor axis (world units)                 [deg]
#   9 THETA_WORLD            Position angle (CCW/world-x)                               [deg]
#  10 FWHM_WORLD             FWHM assuming a gaussian core                              [deg]
#  11 ELONGATION             A_IMAGE/B_IMAGE                                           
#  12 ELLIPTICITY            1 - B_IMAGE/A_IMAGE                                       
         1 -12.3753    174.4032     61.2006   1.9029302804e+01   3.3019623637e+01      1.94788     1.080678  32.88  0.005996524    2.852    0.649
         2 -12.6364    189.6765     48.0881   1.3105864601e+01   3.1259959787e+01    0.9148116    0.7692569 -67.31  0.002927757    1.129    0.114
         3 -13.4697    215.5392     17.7291   2.6202472319e+00   2.9028416626e+01     1.246311    0.9722444 -23.10  0.007739349    1.464    0.317
         4 -11.2361    119.1525      9.8740   1.1753784778e+01   5.3603645012e+01    0.6534637    0.4107103  43.11  0.003135063    1.606    0.377
         5 -10.9144      8.7170      8.3130   5.6783368911e+01   7.5500198400e+01    0.1978519    0.1816548 -17.36  0.001438658    1.260    0.206
         6  -9.4035    144.3844      6.8107   6.7395860776e+00   4.7418438044e+01    0.1791336    0.1314241   0.55 0.0009483059    1.737    0.424
         7  -9.6583    111.8886      6.8543   1.1916563090e+01   5.5722875598e+01    0.2087369    0.1655238  45.20 0.0003279199    1.208    0.172
         8  -9.0313     95.4656      7.9981   1.5929615643e+01   5.9686439849e+01    0.1859648    0.1348316 -18.89 0.0003795378    1.518    0.341
         9  -9.3670    172.3899      3.1958   2.5077395193e+00   4.0668333608e+01    0.1855559    0.1068505 -41.14 0.0009479063    1.663    0.399
        10  -9.8180     72.7752    231.3681   7.7045647031e+01   1.7476479966e+01    0.3144002    0.2034275 -61.36   0.00184977    1.827    0.453
        11 -13.2643    246.3824    241.4855   4.4613880423e+01  -6.9317032825e+00     1.956363    0.6907095 -30.73   0.01065037    2.694    0.629
        12 -16.4453     68.3713    141.1315   6.7393810548e+01   3.8105515243e+01      11.2374     4.929473  54.76   0.03960242    3.011    0.668
        13  -8.3775     87.5767    205.5786   7.1161898916e+01   2.0534597641e+01    0.3219529    0.1877531  38.24   0.00102451    1.465    0.317
        14  -9.0601     90.2063    202.3346   7.0161886456e+01   2.0826039066e+01    0.2546067    0.2326742  21.55 0.0009247317    1.192    0.161
        15  -9.5076    191.9671    193.4143   4.6323053807e+01   6.4970165629e+00    0.4614652     0.290206 -66.80  0.001784793    4.590    0.782
        16  -8.3574     81.7303    195.9698   7.1439845163e+01   2.3363487194e+01    0.1833127    0.1533786  58.34 0.0005849539    1.096    0.088
        17 -14.6340     10.7234    207.9042   8.8961907813e+01   2.8975810213e+01    0.7125728     0.385878  27.38  0.004151129    1.891    0.471
        18 -11.7320    144.9284    184.3351   5.4638632535e+01   1.5790430240e+01    0.6159605    0.3567782 -51.40  0.001391516    1.948    0.487
        19 -12.0485     58.6915    187.9426   7.6245447556e+01   2.8196549498e+01    0.4240236    0.3264636  61.97  0.001524243    1.178    0.151
        20  -9.7270     86.2469    187.6957   6.9302774315e+01   2.4507127644e+01    0.2979418     0.225666  72.86  0.001097623    1.424    0.298
        21  -9.9296     54.2397    206.1223   7.9025348802e+01   2.4784905702e+01    0.3641819    0.1838556  57.35  0.001613734    1.900    0.474
        22 -10.4449     19.9170    184.5760   8.5590993465e+01   3.3197084892e+01    0.2067039    0.1793764  52.25 0.0008526488    1.148    0.129
        23  -8.7192     80.5859    184.3398   7.0296994637e+01   2.6065517317e+01    0.2069437    0.1403581  65.56 0.0008600691    1.589    0.371
        24  -9.2362     13.5340    184.5430   8.7135646871e+01   3.3780162052e+01     0.120122     0.101893  73.74 0.0002797167    1.068    0.063
        25  -9.3811    181.6884    181.1238   4.6135703246e+01   1.0164541783e+01    0.2918912    0.1756605 -42.23   0.00126794    1.749    0.428
        26 -18.1994     20.1946    231.3619   8.8034748957e+01   2.3411186346e+01     5.980149     3.998974  39.09   0.02309803    1.303    0.233
        27  -9.5247    180.2428    175.2645   4.5328757668e+01   1.1417828187e+01     0.292592    0.1983091 -53.34  0.001480901    1.873    0.466
        28  -9.2379    179.2121    170.3858   4.4600810978e+01   1.2452533354e+01    0.2881324    0.1720191 -24.15  0.001333697    1.952    0.488
        29  -8.8063     54.4205    175.3474   7.6008802096e+01   3.1619006026e+01    0.2214528    0.1301075  51.32 0.0005907079    1.585    0.369
        30 -11.5416    229.9976    172.0125   3.5508264782e+01   3.9400530674e+00    0.3950424    0.2363519   8.84  0.002036575    2.061    0.515
        31  -8.4916    188.0438    171.0513   4.2944970644e+01   1.0815238380e+01    0.1934352    0.1715761 -80.23 0.0008526847    1.650    0.394
        32 -10.9835    144.3426    168.2755   5.1872807968e+01   1.9055172309e+01    0.4543215    0.3516823 -76.18  0.001895534    1.789    0.441
        33 -11.4470    120.9042    164.9225   5.6965180251e+01   2.3933991792e+01    0.5387722    0.4915125 -82.29  0.001832175    1.215    0.177
        34 -11.1239    244.5934    167.1242   3.2251156515e+01   2.5115043379e+00    0.4240608    0.1573737  35.69   0.00191392    2.993    0.666
        35 -10.3580    125.0690    158.5649   5.4722353942e+01   2.4577563895e+01    0.3072483    0.2485664 -76.68  0.001419112    1.495    0.331
        36 -11.6555    138.3424    143.8072   4.8372394959e+01   2.5276035060e+01      1.02234    0.4647898 -61.43  0.003163478    3.903    0.744
        37 -10.2450    136.7447    156.1659   5.1338133096e+01   2.2947737536e+01    0.5474797    0.3449201 -80.16    0.0020127    3.245    0.692
        38 -11.7924    133.7624    145.9084   4.9966362396e+01   2.5710172919e+01     1.327943    0.4442271 -56.25  0.003705935    4.531    0.779
        39 -10.5934     61.0407    199.4490   7.6814324206e+01   2.5370019597e+01    0.2076258    0.1917671 -81.82 0.0005242705    1.196    0.164
        40 -10.5056    125.0763    141.0215   5.1155059819e+01   2.8455574664e+01    0.2643289    0.2147239  40.13 0.0006954368    1.198    0.166
        41 -10.2873     73.3280    205.8160   7.4532672593e+01   2.2434515434e+01    0.2401906     0.185143  80.02 0.0009075293    1.347    0.258
        42 -10.0605     58.8370    217.6374   7.8942276188e+01   2.1862932868e+01    0.1742807    0.1463678 -78.22 0.0004852097    1.314    0.239
        43 -10.4081    114.7910    127.9754   5.1040347049e+01   3.3408292812e+01    0.4329255     0.292581  17.70   0.00175876    1.986    0.497
        44  -9.6510    121.0994    123.2324   4.8182917079e+01   3.3242448052e+01     0.335298    0.3088598 -68.19  0.001755637    1.140    0.122
        45  -8.4708    234.3811    123.1970   2.4910504457e+01   1.0570290031e+01    0.1944553    0.1030107 -42.28 0.0008220227    1.742    0.426
        46  -9.6949    134.7248    117.8450   4.3243791422e+01   3.1614230699e+01    0.3606965    0.1354664 -47.89  0.001187894    2.740    0.635
        47  -8.7449    110.3339    117.9139   4.9927326732e+01   3.6606598740e+01    0.2127233    0.1925381 -45.73 0.0003407741    1.114    0.102
        48 -10.0816    104.6965    116.7325   5.1293633276e+01   3.7981087212e+01    0.4305401    0.2225278  52.19  0.001391499    2.239    0.553
        49  -9.3756     52.8175    197.3266   7.8591464368e+01   2.6839856605e+01    0.2878609    0.1461942  43.12  0.001000248    1.663    0.399
        50 -11.2960    118.0685    110.0885   4.5745050093e+01   3.6822951027e+01     0.676575    0.4966073  78.72  0.002417757    1.907    0.476
        51  -7.9631    179.2960    111.7619   3.1618375486e+01   2.3216158279e+01    0.1359187      0.11465 -83.51 0.0001614329    1.472    0.320
        52  -8.7847    106.0486    102.4987   4.7239927238e+01   4.1008086782e+01    0.2250649    0.1527394  40.41 0.0004408332    1.481    0.325
        53  -8.1691     53.4567    193.5648   7.8092132514e+01   2.7588056319e+01    0.1689461    0.1143742 -61.78 0.0006962839    1.599    0.375
        54  -9.9453    162.9070    224.2688   5.7086114626e+01   6.0367529837e+00    0.2458657    0.1683088 -38.51 0.0004187981    1.660    0.398
        55  -9.3056     38.4704     88.2027   6.7749260731e+01   5.5302712412e+01    0.3507062    0.1818116  34.79  0.001579533    2.021    0.505
        56  -8.2057     79.5086     86.0290   5.1326867959e+01   4.9889436350e+01     0.209377    0.1455437 -49.89 -0.0001103429    1.409    0.290
        57  -9.4730     57.8079    212.6069   7.8755199078e+01   2.3006819250e+01    0.3189229    0.2396463 -64.26  0.001828639    1.511    0.338
        58  -9.2458     78.7167    248.1891   7.7197829046e+01   1.3733639027e+01    0.1427196    0.1248651  84.56  0.001053762    1.308    0.236
        59  -9.8949    169.9592     53.0510   1.7416849394e+01   3.5331882118e+01    0.3391028    0.2347836 -53.82  0.000367852    1.466    0.318
        60  -9.7825     76.0468    245.6871   7.7540810775e+01   1.4496069773e+01    0.1422065    0.1157916  55.04 0.0005287874    1.108    0.098
        61 -12.1085    195.7835     41.8324   1.0657940831e+01   3.0657602381e+01    0.5891072    0.5308148  41.59  0.001813817    1.315    0.240
        62  -9.3394    141.8111     42.1627   1.9046320048e+01   4.3976491144e+01    0.2207999    0.1940652 -80.66 0.0004410124    1.163    0.140
        63 -10.0262     50.9939    247.8889   8.2744563857e+01   1.7098526685e+01    0.1242306    0.1025207 -69.59  0.000463574    1.507    0.337
        64 -11.0428      3.1205    247.1445   9.1902840442e+01   2.2111676491e+01    0.1213507   0.05802088 -88.75 0.0007494679    2.037    0.509
        65  -8.9459     76.2745    231.9969   7.6351268822e+01   1.6914713363e+01    0.1147987    0.1000561  72.72 0.0003543653    1.193    0.162
        66 -10.0991     68.2952    245.6996   7.9120010296e+01   1.5447673273e+01    0.1218607    0.1164254  53.23 0.0003678758    1.267    0.211
        67 -10.2011     45.6805    240.5982   8.3366606453e+01   1.9003598249e+01    0.1100032    0.1072226 -66.87 0.0005717591    1.397    0.284
        68  -9.6677    189.9637     15.5021   4.2630309848e+00   3.5166599024e+01     0.263007    0.1551819 -49.19  0.001362707    1.554    0.357
        69  -8.6623     80.2838    206.1794   7.2939141830e+01   2.1423026200e+01    0.2319538    0.1324969  84.00  0.001073851    2.460    0.594
