#   1 NUMBER                 Running object number                                     
#   2 MAG_AUTO               Kron-like elliptical aperture magnitude                    [mag]
#   3 X_IMAGE                Object position along x                                    [pixel]
#   4 Y_IMAGE                Object position along y                                    [pixel]
#   5 X_WORLD                Barycenter position along world x axis                     [deg]
#   6 Y_WORLD                Barycenter position along world y axis                     [deg]
#   7 A_WORLD                Profile RMS along major axis (world units)                 [deg]
#   8 B_WORLD                Profile RMS along minor axis (world units)                 [deg]
#   9 THETA_WORLD            Position angle (CCW/world-x)                               [deg]
#  10 FWHM_WORLD             FWHM assuming a gaussian core                              [deg]
#  11 ELONGATION             A_IMAGE/B_IMAGE                                           
#  12 ELLIPTICITY            1 - B_IMAGE/A_IMAGE                                       
         1 -12.3184     27.7853     71.9643   7.8591786171e+01   6.0384767211e+01     1.755535     1.528936 -71.57   0.01048264    1.150    0.130
         2 -12.6921     50.5557     78.7072   6.9537755646e+01   5.6230483749e+01     2.403302     1.444274 -79.73   0.01026497    2.300    0.565
         3 -12.4507    162.3802     62.8506   2.9648154438e+01   3.5565555083e+01     1.770536    0.4932159 -35.35  0.005719124    3.421    0.708
         4 -12.1882     52.6333     33.5982   5.3276551501e+01   6.5765085370e+01     1.040374    0.6892415  44.17  0.001387449    1.543    0.352
         5 -12.6959    170.0761     55.5100   2.6179549431e+01   3.4736278514e+01     1.013838    0.7326149  -7.66  0.001913105    1.720    0.419
         6 -12.3645     61.0762     50.0244   5.5851516918e+01   6.1053909762e+01     2.081988     1.257722 -43.20  0.009663789    1.703    0.413
         7 -10.8697     64.4927     25.5365   4.3679980468e+01   6.4926449258e+01     1.184524    0.9858108 -20.80  0.004601197    1.258    0.205
         8 -11.7974     42.5990     16.2168   5.0227083257e+01   7.0589277706e+01      1.60591    0.9714236  -1.35   0.00697878    2.560    0.609
         9 -11.4214     29.0508     17.4993   5.9808217028e+01   7.2399228395e+01    0.9692234    0.5856563 -47.30  0.005079554    1.677    0.404
        10 -10.4641     54.9864     10.6218   4.0219163894e+01   6.9123253858e+01    0.4485242     0.370758 -89.02  0.002449224    1.820    0.451
        11  -8.6173     60.2159     10.4147   3.7621490964e+01   6.8055142329e+01    0.3241476    0.2127397  68.71  0.001520819    2.093    0.522
        12  -9.6379     21.1601      7.5664   6.0317725197e+01   7.5227474852e+01    0.4513863    0.2324314 -41.38  0.002015734    1.857    0.462
        13  -9.8327    193.2386      8.6638   1.0237766882e+01   3.4415805427e+01    0.3268672    0.1327563  65.00  0.001461067    2.284    0.562
        14 -10.8284     46.5580      2.8948   3.9847487427e+01   7.1860425495e+01    0.7791656    0.4853638  53.80  0.003561883    1.706    0.414
        15  -8.5613     39.6679      4.6589   4.5047939636e+01   7.2913726572e+01    0.2630579    0.1590202  19.95  0.001051705    1.891    0.471
        16  -8.9643    250.4047      4.8829   5.7729452559e+00   2.2614373295e+01    0.3371734   0.07020771 -33.17  0.001173664    3.017    0.669
        17 -11.9387    193.5421    168.8980   4.8336883077e+01   1.2818620776e+01     1.643712    0.8681691 -53.17  0.006859772    3.794    0.736
        18  -7.8975    193.9549    250.2150   6.0751861596e+01   2.5580775935e+00    0.1479318   0.06446929  30.05 0.0008670032    1.686    0.407
        19 -11.0950    196.7221    187.3066   5.0984624138e+01   9.7860987317e+00    0.5154853    0.2971484  42.05 0.0004912744    1.840    0.457
        20 -12.3061    195.3184    197.0246   5.2857224901e+01   8.7038212776e+00     1.236503     1.170749 -51.24  0.007079318    1.732    0.423
        21  -8.9320      6.7184    208.4247   9.7029082562e+01   3.0852439893e+01    0.2202655    0.1502178  44.45 0.0007706514    1.114    0.102
        22  -9.9465     11.2750    206.4166   9.5927551737e+01   3.0871023488e+01    0.3967264    0.2323647  37.61  0.002095238    1.319    0.242
        23  -9.3604    115.4023    206.8964   7.1199206554e+01   1.8868921957e+01    0.2689757    0.1361892  46.76  0.001318792    1.973    0.493
        24 -10.4751    123.8239    205.5437   6.9093740354e+01   1.7896928707e+01    0.3194277    0.2377866  72.91            0    2.072    0.517
        25  -9.0740     88.4636    206.1143   7.7460651943e+01   2.2678397653e+01    0.1579136    0.1275166 -65.41  0.001014233    1.544    0.352
        26  -9.2107     47.4093    200.6088   8.6994687238e+01   2.8621650905e+01    0.2371828    0.1915639   3.62  0.001492457    1.497    0.332
        27  -9.2362     39.7036    200.4237   8.8875207168e+01   2.9455812815e+01    0.2486246   0.08633226  31.54     0.001152    2.163    0.538
        28  -8.1350    139.0044    199.0097   6.4762996978e+01   1.6742351052e+01     0.148194    0.1186025  24.83 0.0009207236    1.006    0.006
        29  -8.7965    133.0031    199.0149   6.6117696995e+01   1.7636664928e+01    0.1841326     0.147172  26.16            0    1.003    0.003
        30  -9.0739    222.9880    188.0031   4.6463906838e+01   5.9788369762e+00    0.1698171    0.1291212   5.93            0    1.001    0.001
        31  -8.6616    118.4064    186.5393   6.7771619403e+01   2.2000701434e+01    0.2270828    0.1891078  30.96  0.000477853    1.023    0.023
        32 -10.6249    180.5058    173.7165   5.1756052671e+01   1.4205868202e+01     1.085256    0.3326114 -40.89  0.004186183    3.599    0.722
        33 -11.2363    237.0553    165.7178   4.0310748296e+01   6.7024317983e+00    0.9279378     0.705102  -8.47  0.006509712    1.084    0.077
        34  -9.1556     54.0424    177.0292   8.3362252792e+01   3.2691269116e+01    0.2017616    0.1517663 -22.53  0.001139754    1.785    0.440
        35 -10.1230    101.0029    176.0065   7.0643797907e+01   2.6634277535e+01    0.1967175     0.166388  33.29  0.001169394    1.003    0.003
        36 -10.9277     19.7884    167.0532   9.2048574496e+01   3.8230809179e+01    0.4030744    0.3004501  63.02  0.002560516    1.198    0.165
        37 -12.4377    208.4536    190.7987   4.9437466249e+01   7.6439534224e+00     1.564158     0.982097 -43.44  0.009169373    2.192    0.544
        38 -11.9585     24.5829    157.2819   9.0065374271e+01   4.0001284903e+01    0.8290783    0.6427122  74.38  0.003926076    1.225    0.183
        39 -10.2449     34.7599    153.4970   8.6747250876e+01   3.9936273878e+01    0.4455384    0.2473862 -46.05  0.002178245    2.200    0.545
        40 -10.3598    157.8622    150.1050   5.2113752034e+01   2.1888289476e+01    0.4542142    0.2492772  47.91  0.002053848    1.929    0.482
        41 -10.2381    162.6562    159.7378   5.2921075238e+01   1.9402844456e+01    0.3217647    0.2886879 -66.83  0.001921014    1.557    0.358
        42 -10.0193    164.6729    156.4568   5.1852973043e+01   1.9593918750e+01    0.5007965    0.3921671  80.11  0.002541769    2.277    0.561
        43 -11.9888    145.6009    146.4201   5.4222357853e+01   2.4790875072e+01     1.630218    0.9758863 -65.82  0.006438673    3.235    0.691
        44 -11.2209    174.5059    149.6287   4.8418068848e+01   1.8961493675e+01    0.5989707    0.3505964  41.17  0.002968256    1.609    0.378
        45 -11.1911    177.8545    145.8636   4.6967999051e+01   1.8961843937e+01    0.6140146     0.482238 -79.27  0.003129294    2.318    0.569
        46  -9.4234    244.5810    149.6310   3.6241253504e+01   7.5501154182e+00    0.2200077    0.1811481 -10.90   0.00158879    1.110    0.099
        47 -10.0433     67.4578    147.8929   7.6136935971e+01   3.7459427476e+01    0.4877719    0.2860316  67.08  0.001142006    2.217    0.549
        48  -8.6703    211.5705    148.3543   4.1166686315e+01   1.2774253821e+01    0.2376161    0.1110634 -37.21  0.001145337    2.156    0.536
        49  -9.9739    249.7536    169.8847   3.9158487417e+01   4.5096110145e+00    0.4010146     0.216495 -43.24  0.002218359    2.692    0.628
        50 -10.1237     30.1025    144.2817   8.7371837398e+01   4.2504697997e+01    0.3809702    0.1631014  35.48  0.001741925    1.994    0.499
        51 -11.0428     68.3145    138.3041   7.4467890208e+01   3.9547019636e+01     1.071004    0.6175236  80.16  0.004372035    2.695    0.629
        52  -9.9395      2.8533    140.1092   9.5592811129e+01   4.5500574428e+01    0.4349156    0.1647632 -60.49   0.00195699    2.681    0.627
        53  -9.5285    169.0022    140.5003   4.7705477770e+01   2.1462168739e+01    0.3533833    0.2511799  28.83  0.001867482    1.321    0.243
        54  -9.6802    173.5119    137.7450   4.6174825716e+01   2.1072017638e+01    0.4683311    0.3457612  66.51  0.002341189    2.030    0.507
        55  -9.4029    211.8604    138.3251   3.9113255329e+01   1.4103191424e+01    0.4206354    0.1342026 -41.79  0.001568935    3.632    0.725
        56  -7.9552     85.6129    140.2730   6.9405274217e+01   3.6551467227e+01     0.183962    0.1349507 -47.27 0.0006077223    1.509    0.337
        57 -10.9751     37.1225    158.2770   8.6459501003e+01   3.8618259863e+01    0.7156503    0.3594951 -62.88  0.003520119    2.078    0.519
        58 -10.4618    223.8090    129.6875   3.5430856844e+01   1.3258048408e+01    0.5112501    0.2550707  35.18  0.002562211    2.121    0.529
        59  -9.3233    243.9453    129.9157   3.2557386004e+01   1.0008707574e+01    0.2792255    0.1445124 -39.69    0.0015167    1.987    0.497
        60  -8.4053    152.5484    121.7376   4.7242633505e+01   2.7934866607e+01    0.2688983    0.1415292 -34.15  0.001125056    2.099    0.524
        61 -10.0979     34.4211    116.9060   8.3004029525e+01   4.8681516383e+01    0.5618582    0.3372538  86.71  0.002691966    1.889    0.471
        62  -9.6078    187.3186    118.0149   3.9104734037e+01   2.1560430007e+01    0.3873554    0.2699948 -14.10  0.001492351    1.584    0.369
        63  -9.2715     77.6231    117.0790   6.7663421234e+01   4.3123079530e+01    0.3074112    0.2429878  51.51  0.001584672    1.268    0.212
        64  -7.6791    166.9970    115.7538   4.2631086831e+01   2.6016865522e+01    0.1834484    0.1158694  44.47 0.0004014668    1.518    0.341
        65  -7.5836      7.3000    113.2961   9.2559867636e+01   5.1603167552e+01    0.1267546   0.08729299 -44.02 0.0002856955    1.574    0.364
        66  -9.2169    134.0426    107.2463   4.8296955279e+01   3.4498589078e+01    0.8128467    0.4826209 -61.59  0.003186191    2.587    0.613
        67  -9.3308    129.9831    107.0149   4.9306817583e+01   3.5404879326e+01    0.2629369    0.2579933  89.81  0.001467383    1.133    0.117
        68 -11.1994    121.6259    102.2799   5.0384768581e+01   3.8111814608e+01    0.9986171    0.6574098  56.65  0.004420634    1.695    0.410
        69 -11.8401    114.6863     98.6767   5.1438291666e+01   4.0304800651e+01     2.104702     1.395877 -74.81  0.008344274    2.572    0.611
        70 -10.2702     67.7283    104.4013   6.8531541160e+01   4.7643975077e+01    0.6621373    0.4689581  26.68  0.002762019    1.402    0.287
        71 -10.4277     65.5204    100.4800   6.8507922782e+01   4.8909070276e+01    0.6397091    0.2929272  34.73  0.002443595    2.036    0.509
        72 -10.1469    156.9000    105.0136   4.2221243641e+01   2.9988899416e+01     1.079428    0.5785466  21.28   0.00360333    3.593    0.722
        73 -11.3200    153.6045     97.6068   4.1071192953e+01   3.2000310746e+01    0.6901883    0.5159312 -39.52 0.0008436735    1.397    0.284
        74 -11.4845    194.4121     90.6520   3.1413994386e+01   2.4219347054e+01    0.6987451    0.3115437 -22.82  0.002691437    2.854    0.650
        75 -12.7697    190.3540     99.5188   3.4241569473e+01   2.3762400070e+01     1.758684     1.192977 -74.95  0.007821647    2.663    0.625
        76 -12.8615    181.4395     85.5072   3.2343792606e+01   2.7766518922e+01     1.236006    0.8336811  12.90  0.005730044    2.060    0.515
        77 -12.5611     35.6493     84.1185   7.7348644628e+01   5.6660188218e+01     2.531084     1.347669  69.93   0.00991049    2.949    0.661
        78 -12.1625    214.8070    229.3313   5.4296536316e+01   2.3222818557e+00     1.017483    0.5343008 -36.37  0.002746335    2.324    0.570
        79  -9.3606    227.7023     94.9746   2.7501841553e+01   1.7098556217e+01    0.2233276    0.1739859  34.55 0.0006555296    1.371    0.270
        80  -7.8244    237.3762    246.1263   5.2946517039e+01  -1.8814724829e+00    0.1192298   0.08341782 -24.36  0.000940972    1.722    0.419
        81 -10.1367     16.5651     65.2443   8.2933952082e+01   6.2883542063e+01    0.6790653    0.5543866  64.36  0.004030614    1.359    0.264
        82  -7.7903    128.0045     91.0301   4.5607051549e+01   3.8927075968e+01    0.1756352    0.1598963  39.95 0.0009222294    1.031    0.030
        83 -10.9645    103.4195     88.0198   5.1976222761e+01   4.4866679086e+01    0.7121184    0.5329521  53.72  0.002271362    1.375    0.273
        84  -9.4622     72.1543    108.1759   6.7729162854e+01   4.6071633346e+01    0.4010502     0.311315 -28.08  0.002014296    1.506    0.336
        85 -10.9343    204.4016     87.7314   2.9139548252e+01   2.2563925115e+01    0.3764488    0.2472829 -14.89  0.001507506    1.713    0.416
        86 -10.7768    211.5145     84.7490   2.7397893029e+01   2.1528778125e+01    0.5187733    0.3342908 -11.41  0.002654488    1.835    0.455
        87  -8.1374    106.0704     81.7134   4.9304710792e+01   4.5596116539e+01    0.2181885    0.1885607  40.21 0.0005032851    1.085    0.079
        88 -11.5749    197.5709     77.2831   2.7629981540e+01   2.5431472348e+01    0.6447916    0.3671507 -12.53  0.002816578    2.407    0.585
        89 -11.2411    175.0532     71.2061   2.9703808985e+01   3.1331344394e+01    0.4086517    0.3183277 -16.07  0.001521229    1.413    0.292
        90  -9.6143     69.7528     68.4153   5.8359470779e+01   5.5620826114e+01    0.5950449     0.229122 -38.85  0.001223357    3.381    0.704
        91  -9.9481     83.1676     64.4898   5.1743427183e+01   5.3908532302e+01    0.4450327    0.3211173  57.27 0.0005399203    1.558    0.358
        92 -11.4416     87.7025     72.6323   5.2721345293e+01   5.1312039944e+01     0.932993    0.5237359  41.42  0.002189843    1.684    0.406
        93 -10.5669     94.0459     67.2338   4.8725009888e+01   5.1088222681e+01    0.9365536    0.3942855  44.41   0.00268704    2.234    0.552
        94 -12.3457     73.2406     59.1971   5.3848276711e+01   5.6942385724e+01    0.8810623    0.8079145  60.77  0.002603607    1.200    0.167
        95 -11.6776     81.3961     50.9761   4.7575819108e+01   5.6930567840e+01     1.102243    0.9107716  32.24  0.003428026    1.157    0.136
        96  -9.6788    136.3861     73.7868   3.8458119737e+01   4.0119879932e+01    0.6674195    0.1505576 -36.92  0.001783618    4.679    0.786
        97  -8.7338    142.3307     80.3188   3.8949151230e+01   3.7584474253e+01    0.1566318    0.1153733  18.49 0.0007047921    1.689    0.408
        98 -11.3799    169.9228     71.4057   3.0673487246e+01   3.2499984508e+01    0.5607436    0.3114869 -34.34  0.002508113    1.808    0.447
        99 -10.8500    185.4855     44.5978   2.0819862399e+01   3.2440465684e+01    0.7177913    0.4914631  32.45  0.003623684    1.811    0.448
       100 -11.3798    172.9346     65.1459   2.8410245142e+01   3.2703042297e+01    0.5158454    0.3196261 -43.92  0.001976723    1.656    0.396
       101  -8.4736    146.5565    245.5000   6.9099753822e+01   8.9321873249e+00    0.1168198   0.08363028  25.24 0.0008078674    1.021    0.021
       102 -12.6025    177.8624     52.4497   2.4076996431e+01   3.3266992653e+01     1.064425     0.874246  62.40  0.005978188    1.199    0.166
       103  -9.1113    172.0911     50.0148   2.4278721399e+01   3.4981885165e+01    0.1993255    0.1933588 -78.89  0.001186591    1.016    0.016
       104 -11.1491    152.4223     64.1197   3.1963903166e+01   3.7803741501e+01    0.5614561    0.3005945  53.57  0.002391846    1.762    0.432
       105  -8.5300    200.4054    242.7863   5.8649612307e+01   2.5931641820e+00    0.1405641   0.08577684 -13.19 0.0009491166    1.662    0.398
       106  -9.1887    181.1125    243.1456   6.2179990835e+01   4.8884016287e+00    0.1803554    0.1168309  12.30   0.00114949    1.256    0.204
       107 -10.0198    142.8313     58.1221   3.2146765621e+01   4.1094727273e+01    0.3430051      0.26097  76.40  0.001671635    1.460    0.315
       108 -10.0040    197.5347     55.6588   2.2160096574e+01   2.8287001218e+01    0.4565403    0.2231618 -37.98  0.002099493    1.904    0.475
       109  -7.9115    149.4803    234.5206   6.7228276582e+01   1.0007037686e+01    0.1206521   0.08776082  23.05 0.0008099551    1.015    0.015
       110  -8.7428    182.0329    233.4797   6.0745885749e+01   5.9120515553e+00    0.1832774   0.08611935  30.08  0.001039265    1.612    0.380
       111  -8.5080     94.8867     51.9881   4.3076191475e+01   5.3779698353e+01    0.2229372    0.2062642  33.88 0.0003693616    1.022    0.022
       112 -10.0726     29.1208     43.3458   7.0459927378e+01   6.7004610527e+01    0.7205135    0.1943971  32.88   0.00254731    3.390    0.705
       113  -9.1419     20.5000     47.9446   7.6962599733e+01   6.6739562404e+01    0.6735193    0.4067219  85.08    0.0031164    2.411    0.585
       114  -8.9399    223.0929     99.0092   2.9014188041e+01   1.7422769401e+01    0.2617358    0.1965815   7.47  0.001545892    1.479    0.324
       115 -11.5695     38.0197     64.3752   7.1758263421e+01   6.1183123913e+01    0.8662176    0.6942545 -75.89  0.004774956    1.383    0.277
       116 -10.2330     47.9275     42.8685   5.9640725162e+01   6.4687532407e+01    0.3047553    0.2047774 -53.53  0.001522684    1.597    0.374
       117 -11.5875     52.0992     38.4579   5.5664471242e+01   6.4916720517e+01     1.036059    0.4432893  50.84  0.003565781    3.515    0.715
       118 -10.4008     37.7166     40.1655   6.4267526815e+01   6.6697696987e+01    0.5258694    0.2923132   4.74  0.002182589    2.576    0.612
       119  -8.5513    189.8536     36.6853   1.8115953239e+01   3.2340859892e+01    0.2165806     0.180565 -16.90 0.0006197814    1.315    0.240
       120  -8.3653    235.3188    232.3174   5.1345386008e+01  -3.4861319540e-01    0.1107116   0.05961636   5.43 0.0006486076    1.658    0.397
       121 -10.7504     28.0291     35.0375   6.8234426094e+01   6.8951230737e+01    0.5506852    0.3539684 -18.81  0.002787025    1.740    0.425
       122 -10.4060     24.7443     27.5880   6.7498518560e+01   7.0888670275e+01     0.584801    0.3040053 -46.46  0.002472849    1.783    0.439
       123  -9.3937    158.1536    227.4176   6.4585238088e+01   9.8134619687e+00    0.2426477    0.1217568 -26.01  0.001237867    2.776    0.640
       124  -8.7318     20.5150     35.1558   7.3165221169e+01   6.9656308034e+01    0.2761039    0.1596887  -8.62  0.001323766    2.016    0.504
       125  -9.6674    174.0422     33.9507   1.9348912532e+01   3.6487560095e+01    0.2979558    0.1938615 -57.29  0.001468868    1.641    0.391
       126  -8.9137    133.2247     30.9641   2.5066941397e+01   4.7359263297e+01    0.2453135    0.1632011  22.48  0.001089804    1.995    0.499
       127  -8.6289    212.3267     28.3160   1.3625715015e+01   2.8130343307e+01    0.1231264   0.09297885  32.34 0.0006506398    1.673    0.402
       128  -8.3294    250.3126     26.3301   1.0272997969e+01   2.0654140789e+01    0.1055551   0.08416216  20.09 0.0003783706    1.673    0.402
       129  -9.4365    221.6908     22.9446   1.1548579350e+01   2.6659969276e+01    0.3309329    0.2029553  -9.30            0    2.081    0.520
       130  -8.8799     20.3320     21.0479   6.7880596474e+01   7.2698193761e+01    0.3811078     0.320836  34.69  0.002376538    1.339    0.253
       131  -7.3521      3.5015     22.5064   8.1461680128e+01   7.3586689268e+01     0.131183   0.09985933 -36.54 -0.0001058686    1.136    0.120
       132  -9.1272    206.5979     17.7788   1.1498126369e+01   3.0465637663e+01    0.1839653   0.09928754 -39.43 0.0004537156    1.656    0.396
       133  -9.2185     75.0176     17.0300   3.5058328476e+01   6.3870617792e+01    0.2047661    0.1909798  45.95 0.0003130647    1.086    0.079
       134  -9.1195     36.9658    224.9718   9.0889053671e+01   2.5155653983e+01    0.1576388    0.1293271 -10.96 0.0006442082    1.676    0.403
       135  -9.8282    172.2615    223.9214   6.1318414519e+01   8.3828610041e+00    0.2063944    0.1381018  39.69 0.0006603459    1.553    0.356
       136  -9.9640    189.7213    222.3482   5.7766750995e+01   6.2664071896e+00    0.1988372     0.155683  26.24 0.0008632032    1.281    0.219
       137 -10.5026     56.0045    216.9813   8.6087582207e+01   2.4611631786e+01    0.2393634    0.1613148 -76.75   0.00153196    1.793    0.442
       138 -11.7785    233.4396    210.8108   4.8442176212e+01   2.0669336562e+00    0.6131017    0.3969947   6.99  0.001669871    1.210    0.174
       139  -9.0363    101.0020    215.0116   7.5458347678e+01   1.9462996757e+01    0.1854514    0.1414083  34.16            0    1.027    0.027
