#   1 NUMBER                 Running object number                                     
#   2 MAG_AUTO               Kron-like elliptical aperture magnitude                    [mag]
#   3 X_IMAGE                Object position along x                                    [pixel]
#   4 Y_IMAGE                Object position along y                                    [pixel]
#   5 X_WORLD                Barycenter position along world x axis                     [deg]
#   6 Y_WORLD                Barycenter position along world y axis                     [deg]
#   7 A_WORLD                Profile RMS along major axis (world units)                 [deg]
#   8 B_WORLD                Profile RMS along minor axis (world units)                 [deg]
#   9 THETA_WORLD            Position angle (CCW/world-x)                               [deg]
#  10 FWHM_WORLD             FWHM assuming a gaussian core                              [deg]
#  11 ELONGATION             A_IMAGE/B_IMAGE                                           
#  12 ELLIPTICITY            1 - B_IMAGE/A_IMAGE                                       
         1 -11.4688    213.2805     30.9852   4.2159514067e+01   2.8725589467e+01    0.8711477    0.6450092 -70.56  0.004920395    1.315    0.240
         2 -10.9702    220.1406     25.7785   4.0144986803e+01   2.7766636406e+01    0.5196533    0.3869809  18.92  0.001636773    2.022    0.505
         3 -10.4703      2.2585     15.8440   9.8515986980e+01   7.2067323666e+01    0.4266139    0.1592134 -52.40  0.002195374    2.292    0.564
         4 -11.6086    235.0069     11.0817   3.5406053194e+01   2.6109551124e+01    0.6818996    0.5084273 -61.53  0.002794197    1.145    0.126
         5  -9.2244      2.3233      3.9552   9.3120268950e+01   7.4007977355e+01    0.3403783   0.07850178 -48.06  0.001419158    3.696    0.729
         6  -8.1380     32.6917      6.6781   7.7477639253e+01   7.0621906550e+01    0.1237643   0.07423801  -2.18  0.000387825    1.645    0.392
         7  -7.1804     53.2879    240.6540   1.1993553221e+02   1.7987559511e+01    0.1213184   0.06640853  66.02 0.0007023005    1.654    0.395
         8 -10.1372    100.4177    249.9370   1.1192767550e+02   1.0114993954e+01    0.4216525    0.1387849  39.94  0.001413401    2.411    0.585
         9 -10.5072     71.9768    249.2402   1.1716689359e+02   1.4089614875e+01    0.5128937    0.1633038  45.93  0.002437646    2.395    0.583
        10 -10.0600     29.1910    248.2075   1.2466723651e+02   1.9343516331e+01    0.2604593    0.2262187 -60.12  0.002063623    1.666    0.400
        11  -8.6637     32.6473    250.2415   1.2419143131e+02   1.8604590544e+01    0.1945348    0.1407228 -84.73  0.001097971    1.353    0.261
        12 -10.0056     33.2812    244.5369   1.2375942800e+02   1.9567370550e+01    0.3520056    0.1890727  87.25  0.002230435    1.725    0.420
        13 -12.3383      3.6531    177.2871   1.2529752355e+02   3.6164095121e+01     2.672598    0.5408789 -81.77   0.00854152    5.259    0.810
        14 -13.5322      5.8981    138.6180   1.2175181958e+02   4.4905855293e+01     6.389442     1.876003 -89.50   0.01865831    5.910    0.831
        15  -8.4345     29.3107    230.6962   1.2364290111e+02   2.2599799915e+01    0.1137824   0.08895146  72.37    0.0008336    1.061    0.058
        16  -7.9263    105.3466    229.3024   1.0876485730e+02   1.3097531652e+01    0.1176787   0.09729113   1.79  0.000703956    1.688    0.408
        17  -8.8175    119.6617    228.6936   1.0576925912e+02   1.1040269953e+01     0.121682   0.09743794   3.74 0.0004450573    1.678    0.404
        18  -8.6776     83.0000    228.0085   1.1314050704e+02   1.6553731266e+01    0.1851565   0.06732927 -65.02 0.0008063148    2.969    0.663
        19  -9.3836     32.6806    224.1073   1.2260539439e+02   2.3529643863e+01    0.4511349    0.1329372 -79.38  0.001891292    3.607    0.723
        20  -9.4423     30.1560    218.3138   1.2269728367e+02   2.4959812363e+01    0.3789055    0.2006724 -89.95  0.001771115    1.722    0.419
        21  -9.7650     41.4695    236.5966   1.2181127109e+02   2.0133274610e+01    0.2197677     0.166556  77.65 0.0005734196    1.100    0.091
        22  -8.2468    163.6837    223.3104   9.5968131906e+01   4.9374947667e+00    0.1260251   0.09795067  62.77 0.0007032438    1.637    0.389
        23  -8.2377     94.4523    221.7575   1.1013922255e+02   1.6149347088e+01    0.1647539    0.1152214 -51.89 0.0005930284    1.680    0.405
        24 -11.1108     18.4913    219.0273   1.2492891796e+02   2.6002349770e+01    0.3868891    0.3305701 -75.28  0.001383238    1.387    0.279
        25  -9.4703    126.8039    236.1161   1.0524669493e+02   8.6127804861e+00    0.2393744    0.1583611  14.63  0.001247621    2.137    0.532
        26 -10.0092     58.8186    211.5581   1.1646872489e+02   2.3060235937e+01    0.2614958    0.2095121  40.94  0.001712338    1.315    0.240
        27  -8.6386     38.3979    231.5117   1.2203499331e+02   2.1452231883e+01    0.1996326    0.1136418 -87.03  0.000868772    1.630    0.387
        28 -10.0792     57.0398    181.7564   1.1379011936e+02   2.9839861627e+01    0.4134665    0.2716686 -36.51  0.001497948    2.225    0.550
        29  -9.9492     62.7787    175.9405   1.1174045913e+02   3.0472917302e+01    0.2838938    0.2463953 -39.30 0.0007495837    1.424    0.298
        30  -9.6359    128.4711    231.3589   1.0430942236e+02   9.1923037120e+00    0.2316467    0.1040844  38.76  0.001084386    1.898    0.473
        31 -10.4962     25.9271    229.1938   1.2416518746e+02   2.3246179830e+01    0.3690988    0.1981954 -75.80  0.002317768    1.729    0.422
        32  -9.6479     73.2494    165.5821   1.0775661243e+02   3.1539193974e+01    0.2628264    0.2458787  67.19 0.0005093738    1.094    0.086
        33 -11.5417     59.8642    162.2462   1.1067022952e+02   3.4093399540e+01    0.5108893    0.2890345 -46.35  0.001421477    2.011    0.503
        34 -11.0265     80.8211    159.4014   1.0486505822e+02   3.1953336708e+01     0.630686    0.5245099 -71.44  0.002218198    1.130    0.115
        35 -10.5124     73.6383    154.8840   1.0601608308e+02   3.4069685497e+01    0.6712356    0.3456835  77.84  0.002237807    3.944    0.746
        36 -12.8683      6.5575    239.3567   1.2804049034e+02   2.3238715479e+01     1.692579    0.9385281 -87.46   0.01177614    1.524    0.344
        37 -11.1642     27.5466    210.3725   1.2266262670e+02   2.6860121499e+01    0.3737785    0.3099162 -45.62  0.001046084    1.721    0.419
        38 -11.3255     68.3281    143.9261   1.0564589620e+02   3.7479409988e+01    0.7003993    0.4528482  68.88  0.002166416    1.905    0.475
        39 -10.1741     83.7292    143.0596   1.0124027459e+02   3.5504731307e+01    0.3325772    0.2441792 -52.34 0.0004606093    1.303    0.232
        40  -9.1744     75.3707    136.0944   1.0227443423e+02   3.8444748383e+01    0.2670314     0.207055  50.54 0.0009364526    1.375    0.273
        41  -8.9572    107.0856    132.0623   9.2476718480e+01   3.4324167567e+01    0.3399927    0.2664311  38.28  0.001182986    1.328    0.247
        42  -8.3217     33.1799    130.1971   1.1337525217e+02   4.4818816254e+01    0.3149107   0.05772502 -62.32   0.00102801    3.561    0.719
        43  -9.0043     95.0906    128.6513   9.5102657097e+01   3.7224328932e+01    0.3051958     0.249385 -15.92 0.0007077882    1.481    0.325
        44  -8.5139     95.6054    144.3196   9.8224960627e+01   3.3329569162e+01    0.2345723     0.184597   4.51 0.0008653078    1.671    0.401
        45  -7.9858    105.7635    120.2363   9.0084274479e+01   3.7384005099e+01    0.2023082    0.1760717 -16.38 0.0005257509    1.273    0.214
        46  -8.2626    205.0057    110.4946   6.3819270229e+01   1.8145637886e+01    0.2248849    0.1495698  48.72  0.001034671    1.601    0.375
        47 -12.9907     37.6435    200.2514   1.1986496653e+02   2.7940743289e+01     1.419994     1.013229  66.12  0.007075361    1.198    0.165
        48  -9.7884      1.8082     88.0164   1.1694960573e+02   5.7085650698e+01    0.5000678    0.1321077 -70.28  0.001976948    2.923    0.658
        49 -10.1966      1.7939     79.8844   1.1567157575e+02   5.8955795263e+01    0.4635493    0.1221392 -65.83  0.001928377    2.620    0.618
        50 -10.4731      2.0608     61.7864   1.1219821013e+02   6.2988668365e+01    0.7660875   0.07310993 -64.10   0.00234207    5.104    0.804
        51 -10.0985      2.0000     45.6254   1.0844329350e+02   6.6418900078e+01    0.5331915   0.07979806 -61.12  0.001836104    4.266    0.766
        52  -8.4402     12.8912     60.2834   1.0739502791e+02   6.2760052875e+01    0.2129303    0.1438721 -65.20 0.0007912547    1.381    0.276
        53  -8.4074      6.6705     60.2970   1.0998281197e+02   6.3097146221e+01     0.108357   0.08839354  75.49 0.0005841242    1.637    0.389
        54  -8.1657     32.5504     54.7875   9.7523255310e+01   6.2432976758e+01     0.172488    0.1131619 -61.14 0.0009422097    1.652    0.395
        55  -9.7097    115.3386    230.5088   1.0687503181e+02   1.1370209228e+01    0.2068498    0.1183789 -59.66  0.001100348    2.006    0.501
        56 -11.4405    205.7850     37.6497   4.4750972743e+01   2.9654236215e+01    0.6379979    0.4921467  34.18  0.003064206    1.629    0.386
        57  -9.1440    135.2006    229.3778   1.0267693257e+02   8.4864468581e+00    0.1936768    0.1008081  45.61 0.0009545774    1.708    0.414
        58 -10.3416    119.7660    245.0675   1.0769829811e+02   8.1383411384e+00    0.3782964    0.1998226 -62.08  0.002030516    2.343    0.573
        59  -8.5116    132.8952     40.0562   5.7958297615e+01   4.7250445742e+01    0.2193756    0.1915621 -76.83 0.0006452497    1.360    0.265
        60 -10.0899      2.1908     29.8120   1.0369987924e+02   6.9539418060e+01    0.3945712    0.1379773 -63.25  0.001697421    3.290    0.696
        61 -10.2753    114.9210    246.6111   1.0880943115e+02   8.5926314338e+00    0.2380559    0.2161315  16.75  0.001686462    1.318    0.241
        62 -12.7151      8.9484    207.6231   1.2606221166e+02   2.9216021305e+01     1.026259    0.7648149  71.39  0.003220987    1.062    0.058
        63  -9.7062     93.0091    244.9445   1.1284945583e+02   1.2023908638e+01     0.189417    0.1559962  54.92  0.001319002    1.031    0.030
