#   1 NUMBER                 Running object number                                     
#   2 MAG_AUTO               Kron-like elliptical aperture magnitude                    [mag]
#   3 X_IMAGE                Object position along x                                    [pixel]
#   4 Y_IMAGE                Object position along y                                    [pixel]
#   5 X_WORLD                Barycenter position along world x axis                     [deg]
#   6 Y_WORLD                Barycenter position along world y axis                     [deg]
#   7 A_WORLD                Profile RMS along major axis (world units)                 [deg]
#   8 B_WORLD                Profile RMS along minor axis (world units)                 [deg]
#   9 THETA_WORLD            Position angle (CCW/world-x)                               [deg]
#  10 FWHM_WORLD             FWHM assuming a gaussian core                              [deg]
#  11 ELONGATION             A_IMAGE/B_IMAGE                                           
#  12 ELLIPTICITY            1 - B_IMAGE/A_IMAGE                                       
         1 -14.9138    159.4112     43.5432   8.3050388237e+01   3.9693069389e+01     1.362273     1.035027 -16.99  0.004018629    1.389    0.280
         2 -13.6226    169.8285     15.4180   7.2081046932e+01   4.0392126207e+01    0.9000571    0.4536793  75.07  0.003574162    2.151    0.535
         3 -14.5908    171.1011      8.9812   6.9844345072e+01   4.0691745620e+01      1.26204    0.7384981  65.47  0.004689924    1.571    0.363
         4 -12.5202    189.7074     14.2756   6.9044214090e+01   3.5387375850e+01    0.3213035    0.2544925 -28.90  0.001102281    1.311    0.237
         5 -10.4980    151.0992    241.4423   1.2889584512e+02   6.7926305128e+00    0.1556315    0.1344708  46.54 0.0005999429    1.103    0.093
         6 -20.2262     80.1965    178.5648   1.3445857723e+02   2.8670002650e+01     15.54302     6.269595 -65.18   0.07072207    2.504    0.601
         7 -13.2582    136.1337    243.3626   1.3167788686e+02   8.8590863172e+00    0.5277127    0.4069218  17.32  0.003104839    1.777    0.437
         8 -12.0111    127.0188    250.2380   1.3394923968e+02   9.2666056300e+00    0.1572185    0.1227058  49.91  0.001167749    1.053    0.050
         9 -11.8864    123.3460    184.8453   1.2641170586e+02   2.0651276409e+01    0.3149088     0.215195  64.54   0.00101783    1.551    0.355
        10 -12.1192    203.7185    171.3331   1.0796545564e+02   7.9522921002e+00    0.4418792    0.2340241  36.36  0.001992598    1.827    0.453
        11 -13.8262    206.9145    178.1023   1.0871403251e+02   6.3033743036e+00    0.5895219    0.4967143   4.25  0.003243352    1.152    0.132
        12 -10.6389     31.0128    211.0581   1.4686613661e+02   2.8430157123e+01    0.1631831   0.08767086  66.06  0.001063728    1.536    0.349
        13 -13.9306    195.2039    169.8730   1.0928322663e+02   9.8427782260e+00    0.7773432    0.4311923 -48.05  0.002605526    2.183    0.542
        14 -10.8886     16.3350    249.8465   1.5128324603e+02   2.3372047985e+01    0.1231187   0.06765114  89.12 0.0009458109    1.520    0.342
        15 -12.5312    144.7109    178.5525   1.2100018279e+02   1.8036015597e+01    0.3314543    0.3028063   0.33  0.001659149    1.283    0.220
        16 -14.3709    125.7260    168.2174   1.2321168111e+02   2.3456351286e+01     1.306476    0.6058326  62.28  0.003514329    3.827    0.739
        17 -14.9216    145.3179    170.1476   1.1938596926e+02   1.9490024787e+01    0.8708687    0.6444574  65.23   0.00461325    1.507    0.337
        18 -14.1627    138.8172    172.3695   1.2114908832e+02   2.0277585068e+01    0.6972419    0.5158893  76.17  0.002707697    1.662    0.398
        19 -13.4783    177.8494    170.6896   1.1283099531e+02   1.3113085017e+01    0.4261697    0.3998657 -28.87  0.002589807    1.143    0.125
        20 -14.1061    165.8847    188.8869   1.1853763497e+02   1.2308262885e+01    0.7632722    0.3751447  44.01  0.003554128    1.812    0.448
        21 -11.9358    201.0106    164.5363   1.0708901469e+02   9.5587916706e+00      0.43394     0.308944 -49.04  0.001794081    1.682    0.405
        22 -13.0244    164.1712    158.0989   1.1310201687e+02   1.8074066630e+01    0.3687391    0.2645104  50.30 0.0008761121    1.364    0.267
        23 -11.0667    219.2895    177.3466   1.0631680986e+02   4.0964002635e+00    0.1380974   0.09412878   8.36 0.0002510297    1.659    0.397
        24 -14.8933    143.3796    143.4461   1.1454017445e+02   2.5082271307e+01     1.096262    0.6172466 -60.80  0.004519777    2.300    0.565
        25 -14.5491    135.5536    131.2138   1.1364296410e+02   2.9143631907e+01     1.493155    0.3564703 -48.41  0.004169684    4.377    0.772
        26 -11.7667     16.6999    153.8001   1.4516023346e+02   4.1149749774e+01    0.3500628    0.2215922 -43.35  0.002167487    2.204    0.546
        27 -11.1309    222.4371    161.6490   1.0254171460e+02   5.8068628258e+00    0.2630031    0.2066702 -61.14  0.000830868    1.872    0.466
        28 -11.4360     30.8207    206.5387   1.4659262752e+02   2.9280551502e+01    0.2298641    0.1882492  55.11  0.001646954    1.334    0.250
        29 -11.9847    135.0000    120.4143   1.1124520931e+02   3.1491228038e+01    0.4567839   0.09465937 -43.32   0.00115637    4.972    0.799
        30 -12.5314    174.1531    149.0714   1.0912237511e+02   1.7692058076e+01    0.3637555    0.3031269 -51.32  0.001565693    1.313    0.238
        31 -13.1423     11.7015    206.0033   1.4981959729e+02   3.1287588965e+01    0.4204481    0.2292853  34.93  0.002425177    2.152    0.535
        32 -12.5577     27.4258    145.6538   1.4200766083e+02   4.1921603062e+01    0.2971096     0.250452 -73.53  0.001201971    1.178    0.151
        33 -13.0335    151.8114    145.0883   1.1302146314e+02   2.3056242145e+01    0.3828686    0.3024274  11.06  0.001854668    1.598    0.374
        34 -10.6972     28.4971    240.2427   1.4901664393e+02   2.3652861503e+01     0.122043   0.06885597  77.52 0.0004361317    1.414    0.293
        35 -14.7438    134.1100    146.3164   1.1723064868e+02   2.6319658762e+01     1.653305     0.472039 -54.96  0.004472842    5.217    0.808
        36 -10.5466     22.9680    156.2849   1.4405730424e+02   4.0064856769e+01    0.1531517    0.1248176  83.33 0.0004654031    1.084    0.078
        37 -12.9794    160.5078    128.2105   1.0727379732e+02   2.4533845688e+01    0.4387596    0.3577043 -50.52  0.001996292    1.280    0.219
        38 -12.6398    155.4974    190.3705   1.2082753595e+02   1.3961102051e+01    0.3187181    0.2446539  67.71  0.001808705    1.492    0.330
        39 -13.2087    153.9151    185.6022   1.2034127390e+02   1.5077058824e+01    0.4074869    0.2541401  41.51  0.001737169    1.458    0.314
        40 -13.8268    162.7913    200.7840   1.2110749244e+02   1.0916767854e+01    0.8980685    0.4669845 -65.71   0.00184887    4.156    0.759
        41 -13.6980    156.1137    199.0179   1.2210670050e+02   1.2393455840e+01     0.801651    0.4947391 -79.49  0.003438103    3.397    0.706
        42 -10.8183    205.3970    110.1269   9.3650723119e+01   1.7717553434e+01    0.2562559     0.200314  36.71 0.0006391911    1.308    0.235
        43 -12.9793    180.5845    193.6185   1.1652652661e+02   8.8338809058e+00    0.3879962    0.3149986 -72.38   0.00144441    1.722    0.419
        44 -11.2235     23.5449    107.0916   1.3805452142e+02   5.0760688692e+01    0.1882277    0.1709098 -19.04 0.0007141704    1.413    0.292
        45 -11.9026    169.9156    195.3305   1.1885305144e+02   1.0511994011e+01    0.2312363    0.1970462  69.18 0.0006778895    1.360    0.265
        46 -15.0236    174.1843    187.1210   1.1661269318e+02   1.1059032145e+01      1.16966    0.5989605 -47.20  0.005290948    2.255    0.557
        47 -12.5577     48.0219     92.6498   1.2836856276e+02   5.1637486348e+01    0.3182009    0.2664094  14.45  0.001925175    1.473    0.321
        48 -11.6499    139.3941    201.2048   1.2566912082e+02   1.4948840907e+01    0.3101176    0.2621126 -43.31  0.000606491    1.399    0.285
        49 -11.5098    136.4957    197.0245   1.2561529868e+02   1.6172817973e+01    0.3191901    0.2252075  80.52  0.001733339    1.850    0.459
        50 -11.0852     21.8177    238.5500   1.4994208467e+02   2.4629848120e+01    0.1324796   0.09739491  86.11 0.0006580862    1.230    0.187
        51 -11.4131    139.7186    249.9822   1.3180618919e+02   7.3852677076e+00    0.2280385    0.1834641  64.96  0.001382841    1.245    0.197
        52 -10.2655    144.9210    234.8770   1.2916735507e+02   8.7028390332e+00    0.1422934    0.1166651  69.29 0.0004204729    1.296    0.229
        53 -14.3938    148.6133     58.1411   9.0083079481e+01   4.0196444247e+01     1.073489     0.877788   6.09 0.0009844395    1.354    0.262
        54 -11.2706    160.4085    247.4406   1.2803889132e+02   4.5237479039e+00    0.2827413    0.1597024  25.89  0.001273651    2.248    0.555
        55 -13.1777    163.2583     34.9684   7.9515973154e+01   3.9852395906e+01    0.4391934    0.4052996 -16.29 0.0008528593    1.108    0.098
        56 -10.5912     13.6514     59.9258   1.3234712345e+02   6.1727843194e+01      0.16687    0.1184389 -58.59 0.0004429529    1.114    0.102
        57 -11.9092    150.3278     36.2445   8.2377729289e+01   4.2954588968e+01    0.5107607     0.288604  78.77  0.001974762    2.595    0.615
        58 -10.2887     12.4343    243.4412   1.5156550428e+02   2.4778822707e+01   0.09475993   0.06568559  71.69 0.0001424039    1.059    0.056
        59 -10.7880     17.7058    222.6843   1.4975534937e+02   2.7729343729e+01   0.08485096   0.07056567 -70.95 0.0007010772    1.601    0.376
