#   1 NUMBER                 Running object number                                     
#   2 MAG_AUTO               Kron-like elliptical aperture magnitude                    [mag]
#   3 X_IMAGE                Object position along x                                    [pixel]
#   4 Y_IMAGE                Object position along y                                    [pixel]
#   5 X_WORLD                Barycenter position along world x axis                     [deg]
#   6 Y_WORLD                Barycenter position along world y axis                     [deg]
#   7 A_WORLD                Profile RMS along major axis (world units)                 [deg]
#   8 B_WORLD                Profile RMS along minor axis (world units)                 [deg]
#   9 THETA_WORLD            Position angle (CCW/world-x)                               [deg]
#  10 FWHM_WORLD             FWHM assuming a gaussian core                              [deg]
#  11 ELONGATION             A_IMAGE/B_IMAGE                                           
#  12 ELLIPTICITY            1 - B_IMAGE/A_IMAGE                                       
         1 -12.5804    192.1289     68.7516   7.6626368061e+01   2.7800591329e+01     1.381955    0.9771513 -32.21  0.006891783    1.545    0.353
         2 -14.2797    182.6419     80.3484   8.1298635908e+01   2.8194287884e+01     7.994184      1.89453 -46.00   0.01558037    5.043    0.802
         3 -13.4946    170.8414     62.6252   7.8840677834e+01   3.3929498932e+01     2.594091     1.267768 -58.86  0.002405121    3.276    0.695
         4 -13.6781    246.7078     43.4083   6.3491566288e+01   1.8947041962e+01    0.9953652    0.5647119 -45.96  0.005393913    1.595    0.373
         5 -14.1065    247.9270     23.3622   5.9373417957e+01   2.1269811842e+01    0.9026468    0.6815895 -24.63  0.003461036    1.809    0.447
         6 -14.2968    143.6456     38.2440   7.7248760894e+01   4.3866064999e+01     5.628498     1.184612  51.28   0.01750427    3.721    0.731
         7 -15.6857    230.3223     56.1583   6.8060276424e+01   2.0750182982e+01      10.0558     2.203588 -44.90   0.03223522    4.072    0.754
         8 -15.5945    239.9636     11.6736   5.7777993224e+01   2.4341512202e+01     2.765687    0.8216815  61.41   0.01190367    3.043    0.671
         9 -14.5422    206.3226     58.3281   7.1810826295e+01   2.5987695539e+01     6.091215     2.509765 -52.43   0.02286605    2.856    0.650
        10 -10.3572    152.0320     14.2295   6.8737179265e+01   4.4514221039e+01    0.3796719    0.1794587 -33.83  0.001258542    2.349    0.574
        11  -9.2104    141.6655     12.1335   6.9871984476e+01   4.7143669784e+01    0.3299083    0.1650373 -38.57  0.001019647    2.298    0.565
        12  -9.6128    115.9377     12.5054   7.4968566598e+01   5.2924980226e+01    0.2981978    0.1781421  54.76  0.001205936    1.411    0.291
        13 -11.0491    120.2988      8.9017   7.2879888380e+01   5.2285006044e+01    0.4115143     0.320477  46.25  0.001452605    1.074    0.069
        14  -8.8036    174.5731      6.8415   6.3507512775e+01   3.9851015981e+01    0.2400818    0.1211903 -51.67 0.0008296712    2.291    0.563
        15  -9.4072    171.8375      2.3266   6.2715143039e+01   4.0906029016e+01     0.283495    0.1704258 -62.07  0.001224685    1.929    0.482
        16  -8.2482    154.2990      5.2612   6.5885189879e+01   4.4793367515e+01    0.1271173   0.08113033  45.60 0.0003407716    1.510    0.338
        17  -8.7290    113.3248      3.2912   7.2466968121e+01   5.4268375615e+01    0.1317459   0.07551529  37.06 0.0003220677    1.614    0.381
        18  -9.3599      2.0000      2.9553   1.1051825813e+02   7.1554438415e+01     0.162317   0.04671073 -41.20 0.0008119293    3.009    0.668
        19  -9.0328    144.9852      1.6676   6.6290631139e+01   4.7269125514e+01    0.1827089    0.1365888  63.06 0.0005416489    1.098    0.089
        20  -8.4652    133.7967      1.8310   6.8159485953e+01   4.9830327654e+01     0.167244    0.1393982 -82.02  0.001067881    1.381    0.276
        21  -8.6227    165.3799      1.4992   6.3332919675e+01   4.2502285292e+01     0.124157    0.1042793  67.61 -0.0004142074    1.049    0.046
        22  -8.9905    150.2555      1.4686   6.5435265251e+01   4.6058118025e+01    0.2401749   0.09706658  61.85  0.000844615    1.927    0.481
        23  -9.5132     91.0001    246.7617   1.3474156027e+02   1.2097826917e+01    0.1642867   0.08857351  43.77 0.0004768001    1.594    0.373
        24  -9.5541    192.2451    144.1079   9.5041349874e+01   1.3878923310e+01     0.272837    0.2180103  59.13  0.000454262    1.354    0.261
        25 -10.4898    159.4433    142.6774   1.0193628439e+02   2.1380228520e+01    0.6256344    0.3994532  88.32  0.002106238    3.358    0.702
        26  -9.8121    228.4535    141.2633   8.7435304965e+01   6.7807031684e+00    0.2762478    0.1340111 -35.09  0.000981219    2.046    0.511
        27  -8.0801    109.2827    140.0272   1.1384696087e+02   3.2250680562e+01    0.1736525    0.1302525 -51.22 0.0003552666    1.306    0.234
        28 -11.2941    188.1383    137.6084   9.4394572728e+01   1.6082645771e+01    0.4186333    0.3376904  45.22  0.001594691    1.246    0.197
        29 -10.3926    167.7473    138.6173   9.9078693044e+01   2.0412570201e+01     0.411123    0.2784772 -75.16  0.001105653    2.285    0.562
        30 -10.4889    210.8476    136.7048   8.9648395469e+01   1.1293953223e+01    0.3723012    0.2450892 -27.65  0.001685847    1.683    0.406
        31 -10.3871    173.1217    136.5641   9.7388728732e+01   1.9643944984e+01    0.3419623    0.2478171 -71.25  0.001485219    1.834    0.455
        32  -8.8188    145.8103    136.2206   1.0367046585e+02   2.5740256804e+01    0.2665029    0.1757409 -89.88 0.0009542346    2.826    0.646
        33  -9.3140     72.2635    239.5599   1.3755003007e+02   1.6235998840e+01    0.2405048   0.09471796  44.94  0.001144028    2.132    0.531
        34 -10.7783    160.6581    128.4403   9.8264205926e+01   2.4136140634e+01     0.393151    0.3406445 -81.80  0.001949157    1.321    0.243
        35  -9.5908    136.2891    128.6493   1.0421487787e+02   2.9434351370e+01    0.3193881    0.2633509 -37.47  0.001236721    1.249    0.199
        36 -10.7836    135.2453    124.9858   1.0358279108e+02   3.0455860099e+01    0.6443161    0.2569106 -39.62  0.002136999    2.785    0.641
        37 -10.4959    224.2101    128.4555   8.5333566628e+01   9.9934656923e+00    0.3668275    0.1815267  47.53  0.001528643    2.128    0.530
        38 -10.6223    226.3950    123.3000   8.3792655562e+01   1.0471526651e+01    0.4585445    0.2801889 -61.66  0.001791063    2.147    0.534
        39 -10.4543    196.0065    128.7350   9.0696195239e+01   1.6085595519e+01    0.2694697    0.2199349 -42.11 0.0006621763    1.206    0.171
        40  -9.1989    170.9313    126.6696   9.5498394379e+01   2.2180103717e+01    0.2284208    0.1951044  51.51  0.001134082    1.169    0.145
        41 -10.2310    139.2836    119.7251   1.0125379087e+02   3.0721929270e+01    0.4207108     0.255148  84.05  0.001214753    4.561    0.781
        42 -11.9364    250.1294    233.2873   1.0186632546e+02  -1.1873059463e+01    0.2139948    0.1633651 -18.42 0.0003740196    1.226    0.184
        43 -11.1685    167.6417    114.0248   9.3088884246e+01   2.5502186288e+01    0.5688675    0.4556341 -51.90  0.001634374    1.287    0.223
        44  -8.0847     17.2653    233.2926   1.4697070160e+02   2.4323313817e+01   0.09418086     0.076331 -68.35 0.0001904778    1.505    0.336
        45 -10.7422    135.0000    109.0048   9.9576424522e+01   3.3909831883e+01     1.020496    0.3185306 -44.29  0.003143099    3.228    0.690
        46  -9.7129    126.2719    111.2234   1.0241510976e+02   3.5307505243e+01    0.3376714    0.2211991  29.61  0.001455344    1.772    0.436
        47 -11.2820     37.3627    213.4780   1.4176835332e+02   2.6098639902e+01    0.3368576    0.2652913 -66.90  0.002290245    1.369    0.270
        48  -9.1518    141.6791    103.6757   9.6488330046e+01   3.3524308564e+01    0.2460226    0.1859062   6.26  0.001091939    1.796    0.443
        49  -8.9753    206.3111    103.3313   8.2670260676e+01   1.8537980098e+01    0.1477215    0.1183852  10.57 0.0007043003    1.672    0.402
        50 -10.1157    123.3789    102.1686   1.0078147267e+02   3.7798551940e+01    0.4480864    0.2432519  30.71  0.001713746    2.323    0.570
        51  -8.6801    222.9909    101.6518   7.9426205598e+01   1.5072595530e+01    0.2203015     0.181875 -46.56 0.0004809963    1.145    0.127
        52 -10.4877    225.1068     97.3733   7.8103845688e+01   1.5347591316e+01    0.4002399    0.2875334 -81.84   0.00195457    1.726    0.421
        53 -10.0365    163.4948    212.1563   1.1506546373e+02   6.2183016604e+00    0.2421255    0.2081181  44.37 0.0002797039    1.075    0.070
        54  -9.6403    210.9793     95.1159   7.9891727063e+01   1.8927729729e+01    0.3602602    0.2278381  74.97 0.0005418803    1.983    0.496
        55  -9.3219    134.1350     95.6712   9.6207417124e+01   3.6789061623e+01    0.2679162     0.217125 -34.56 0.0005025552    1.267    0.211
        56 -10.0720    147.6143     98.8442   9.3747838394e+01   3.3137387758e+01    0.3405036    0.3364191 -51.09 0.0008476694    1.033    0.032
        57 -10.5803    158.1955     91.4867   8.9306842951e+01   3.2076616791e+01    0.4981749    0.3874299  23.17  0.001902315    1.543    0.352
        58 -13.4007     10.1509    197.2415   1.4566614474e+02   3.2393680697e+01    0.8714453    0.6653166 -88.47  0.003972438    1.051    0.048
        59  -9.9729    211.0700     85.8556   7.7668555732e+01   2.0499843292e+01    0.3172612    0.3019901 -81.83 0.0008313013    1.031    0.030
        60 -10.3303    141.6122     88.2337   9.2283697551e+01   3.6532711588e+01    0.3101663    0.2947709 -53.23 0.0008804958    1.100    0.091
        61  -8.9640    203.8606    152.7974   9.4635478599e+01   9.6871388669e+00    0.2239671    0.1991421   5.87 0.0005434787    1.191    0.160
        62 -11.9101    155.9988     81.4459   8.7053517683e+01   3.4410591690e+01    0.5465621    0.3912491  45.24  0.000658319    1.367    0.268
        63  -8.9192    206.8913     82.9070   7.7647937444e+01   2.1971281969e+01    0.2320001     0.165389 -72.98 0.0006836043    1.640    0.390
        64 -10.0644      4.3210     82.0460   1.3290146617e+02   5.7948253442e+01    0.2169721    0.1223995  50.23    0.0011946    2.726    0.633
        65  -8.4049    143.6365     80.8118   8.9708440342e+01   3.7418423015e+01     0.208587    0.1361718 -49.64  0.000553037    1.689    0.408
        66  -8.7314    140.4834     78.4469   8.9785735154e+01   3.8561441333e+01    0.1484149    0.1411636  38.31  5.19424e-05    1.011    0.011
        67  -9.0660    146.7245     74.3593   8.7152888208e+01   3.7820541263e+01     0.271989    0.2152093 -65.56 0.0007351175    1.516    0.341
        68 -10.8057    145.0178     70.5160   8.6441390746e+01   3.8862985198e+01    0.4756214    0.3643289 -70.79  0.001872105    1.679    0.404
        69 -10.0679      5.9944     74.9920   1.3092075546e+02   5.9277435902e+01     0.139796    0.1107123 -43.30  0.000475858    1.044    0.042
        70  -8.7624    111.1943    155.2612   1.1655758089e+02   2.8373257132e+01    0.1998599     0.194812 -22.68  0.000475633    1.119    0.106
        71 -10.0623    151.4398     70.7690   8.5071178044e+01   3.7309744557e+01    0.4185564    0.2702356 -57.48  0.001188801    1.937    0.484
        72 -10.0742    191.7911    151.9673   9.6916827146e+01   1.2408887665e+01    0.5561178    0.2756563 -58.55  0.001860252    3.212    0.689
        73 -12.5797     29.4227    190.0483   1.4116074073e+02   3.2035506420e+01    0.9886644    0.3576805  46.67  0.004624454    2.644    0.622
        74  -8.9815    123.1110     64.8391   9.0068620784e+01   4.4749942818e+01    0.1996856    0.1915185  64.79   0.00115551    1.142    0.124
        75  -9.8056    104.3268     62.0916   9.4291190247e+01   4.9110316352e+01     0.192689    0.1750447 -24.32  0.001127569    1.132    0.116
        76 -10.7460    144.6260     59.1045   8.3210560293e+01   4.0760780910e+01    0.3988694    0.3467268  39.81  0.001167702    1.109    0.099
        77  -9.3101    133.7131     60.4183   8.6103544339e+01   4.3085752752e+01    0.2105739    0.1251981  43.18 0.0009524038    1.607    0.378
        78  -9.8592    116.1596     58.8264   9.0014473398e+01   4.7198454550e+01    0.3014037    0.1948114  44.89  0.001481554    1.450    0.310
        79  -9.3157     72.7960     58.1915   1.0274762856e+02   5.5373689979e+01    0.1827223    0.1693888 -10.86 0.0005106117    1.143    0.125
        80  -9.5532    176.9388    149.3318   9.9505242991e+01   1.6154745758e+01    0.2133221    0.1947987  35.43  0.001109505    1.093    0.085
        81  -9.6796    178.6725     51.8405   7.4555295308e+01   3.3607031308e+01    0.3830658    0.2900898 -32.27  0.001859697    1.458    0.314
        82  -8.8231     82.6257     51.2322   9.7241421560e+01   5.4865044985e+01    0.1790385     0.116574 -23.82 0.0004607809    1.563    0.360
        83  -9.6626    133.6903    147.1947   1.0917837982e+02   2.5849179988e+01     0.454936     0.235502 -59.07  0.001645203    2.334    0.572
        84  -9.7587    133.3840    142.5811   1.0821841632e+02   2.6948432347e+01    0.6986535    0.2231703 -56.77  0.001703201    5.375    0.814
        85 -10.6992     93.3529     46.3233   9.2293777603e+01   5.3647085896e+01    0.4615319    0.2524139 -53.57  0.001913577    3.155    0.683
        86 -11.0384     68.4522    144.7452   1.2567910043e+02   3.7768286576e+01    0.6352525     0.401866  66.42  0.002398699    2.065    0.516
        87 -10.7504    246.8672    157.3276   8.7689036748e+01   4.1724332108e-01    0.6061976    0.2855404  57.73  0.002358344    3.301    0.697
        88  -9.7679    201.9745     34.3515   6.6690891452e+01   3.0297911397e+01    0.4214567    0.1431044 -41.92  0.001655792    2.850    0.649
        89 -10.4315    223.1986    143.9969   8.8983431986e+01   7.3456326709e+00    0.2968636    0.2650946 -22.67  0.000529903    1.097    0.089
        90 -10.9841    174.8498    143.6887   9.8672601447e+01   1.7781994091e+01    0.4586494    0.3173871  29.76  0.001939724    1.665    0.399
        91  -9.8698    193.3991    195.5929   1.0572470647e+02   3.6424353654e+00    0.9173813    0.4688445 -64.97  0.002360508    7.262    0.862
        92  -8.6656    204.0281    189.5094   1.0235517494e+02   2.7285386248e+00    0.1980101    0.1236934  63.69 0.0008102928    2.591    0.614
        93 -13.6847     42.9719    174.1942   1.3644153237e+02   3.4103096701e+01      1.24222    0.9793804   3.44  0.001921042    1.893    0.472
        94 -13.3774     52.0689    167.0221   1.3336860878e+02   3.4677348143e+01     1.316914     1.058127  -1.88  0.002426438    1.805    0.446
        95  -9.4901    221.8380    177.7224   9.6457099836e+01   1.4779841359e+00    0.2752686    0.1622621 -48.01  0.001263893    1.874    0.466
        96  -9.6823    235.0271    173.9918   9.3230763109e+01  -3.0138217504e-01    0.3035233    0.2009988  52.03   0.00111353    1.790    0.441
        97  -9.3989    200.6989    173.8843   9.9831590457e+01   6.2831643936e+00    0.2436824    0.1833895 -17.25  0.001199899    1.503    0.335
        98 -10.1094    227.7140    172.4038   9.4247076656e+01   1.3197744851e+00    0.2621892    0.1339901  47.88  0.001137479    2.127    0.530
        99 -10.3451    230.4444    167.3324   9.2682755183e+01   1.7041924016e+00    0.3359957     0.214577 -49.12  0.001622805    1.716    0.417
       100  -9.8056    215.6386    168.3349   9.5686901657e+01   4.3629103282e+00    0.3282271    0.2303537  67.99  0.001162141    2.104    0.525
       101  -9.9487    211.6908    166.3374   9.6031974011e+01   5.5122306221e+00    0.3299731    0.2547817  76.10 0.0009506608    1.867    0.464
       102  -9.3944     72.4791    249.5034   1.3846288729e+02   1.4312099617e+01    0.1199396   0.09540371  66.23 2.056284e-05    1.030    0.029
