#   1 NUMBER                 Running object number                                     
#   2 MAG_AUTO               Kron-like elliptical aperture magnitude                    [mag]
#   3 X_IMAGE                Object position along x                                    [pixel]
#   4 Y_IMAGE                Object position along y                                    [pixel]
#   5 X_WORLD                Barycenter position along world x axis                     [deg]
#   6 Y_WORLD                Barycenter position along world y axis                     [deg]
#   7 A_WORLD                Profile RMS along major axis (world units)                 [deg]
#   8 B_WORLD                Profile RMS along minor axis (world units)                 [deg]
#   9 THETA_WORLD            Position angle (CCW/world-x)                               [deg]
#  10 FWHM_WORLD             FWHM assuming a gaussian core                              [deg]
#  11 ELONGATION             A_IMAGE/B_IMAGE                                           
#  12 ELLIPTICITY            1 - B_IMAGE/A_IMAGE                                       
         1 -13.0192    245.8224     78.0278   7.6376348852e+00   2.0816553168e+01      1.89112    0.9077389 -39.29   0.01218829    1.826    0.452
         2 -14.3954    184.1680     76.2117   1.3734328992e+01   3.0674761459e+01     2.224607     1.862221  13.20   0.01457539    1.910    0.476
         3 -13.9266    198.9745     54.3606   7.7761022735e+00   3.1088000183e+01      1.81885     1.193972  34.44   0.01033063    3.104    0.678
         4 -12.0846    243.0600     19.4118   3.5850719665e+02   2.8072687108e+01     1.516442    0.4837287 -70.28  0.007061875    4.517    0.779
         5 -11.0102    244.9149      9.4442   3.5687061698e+02   2.8810370902e+01    0.4025328    0.3254398  35.67   0.00335293    2.617    0.618
         6  -9.9967    247.9812     14.5984   3.5752093869e+02   2.7848291787e+01    0.2645022    0.1812986 -53.50  0.001362924    1.185    0.156
         7 -12.6803    246.5601      4.2037   3.5599796664e+02   2.9081711442e+01     1.909526    0.4215594  76.28   0.01004568    4.459    0.776
         8 -10.2386      3.5601      9.1801   4.8460534954e+01   7.4832306306e+01    0.4629562    0.1850819 -29.69  0.001970508    3.603    0.722
         9 -10.0525      9.8791      7.1364   4.2715500117e+01   7.4315092904e+01    0.1764881    0.1459896  30.32  0.000739595    1.236    0.191
        10  -8.9385      1.8620      3.3231   4.6744376554e+01   7.5874286026e+01    0.2851244    0.1121326 -34.93  0.001364159    3.002    0.667
        11  -8.7600     15.2953    238.6387   8.2356501509e+01   1.9607081187e+01    0.1404123    0.0789949  51.47 0.0007031775    1.707    0.414
        12 -11.5835      7.4204    244.9986   8.4667277525e+01   1.8802962443e+01    0.5909141    0.4077502 -50.88  0.003470717    1.678    0.404
        13  -7.7618    170.3159    234.3249   4.4155184637e+01   5.0219437891e+00    0.1288123   0.07557492 -17.39 0.0002376961    1.669    0.401
        14  -9.9443    188.1231    231.3216   4.0320183779e+01   3.8143048746e+00    0.2145305    0.1286408 -29.94  0.001318277    1.399    0.285
        15  -8.8915    195.4684    230.9957   3.8942327063e+01   3.1878608784e+00     0.170878   0.09438558 -40.72 0.0009900301    1.574    0.365
        16  -7.8059    158.3179    230.3194   4.6024745381e+01   6.9279493225e+00    0.1323126   0.07995328 -16.91  0.000596564    1.661    0.398
        17  -8.4647    143.7981    229.3817   4.9004461921e+01   8.6315028089e+00    0.2336172    0.1004726 -54.15  0.001038173    2.599    0.615
        18  -9.3995    187.0000    246.0561   4.2594733061e+01   1.5658455444e+00    0.3242785   0.08590573 -46.10  0.001396159    3.326    0.699
        19  -8.1874    177.4477    228.4924   4.1923564909e+01   5.3096033266e+00     0.121557   0.09512013 -15.57 8.914657e-05    1.016    0.016
        20  -8.5445    212.3145    226.3469   3.5385026450e+01   2.4090171743e+00    0.1193289   0.06525143 -20.28 0.0007047346    1.719    0.418
        21  -8.1529    168.0000    225.9632   4.3414338925e+01   6.6976263002e+00     0.196738   0.06300662 -48.97 0.0008098908    2.994    0.666
        22 -10.4631    176.8148    243.8868   4.4220195857e+01   2.8194162377e+00    0.3847094    0.1595357 -35.43  0.001955143    2.162    0.537
        23  -8.6947    174.5407    222.6717   4.1635647651e+01   6.5977902868e+00    0.2413566   0.09540222 -42.08  0.001146359    2.213    0.548
        24  -9.1650    185.2917    220.1630   3.9213826097e+01   5.9344191578e+00    0.3134019    0.1483009 -49.13  0.001625511    2.127    0.530
        25  -9.5197    193.8690    220.8152   3.7745699777e+01   4.9806442981e+00    0.2490125    0.1541616 -25.98  0.001249598    1.381    0.276
        26  -8.4865    148.7834    219.6409   4.6505502856e+01   9.9129482209e+00    0.2817415    0.1073912 -29.15 0.0009548435    4.091    0.756
        27 -10.3724    227.2023    215.1069   3.1404991359e+01   2.8118373826e+00    0.5867673    0.2436108 -19.45  0.002458597    4.281    0.766
        28  -8.3506    159.6109    218.2058   4.3984012526e+01   8.9798377484e+00    0.1860319   0.09872209 -37.14 0.0009536427    1.725    0.420
        29  -8.3798     10.3851    217.8182   8.2477979304e+01   2.4786408014e+01    0.1892481    0.1148873 -63.07 0.0009609349    1.728    0.421
        30  -8.1417    204.4919    217.4829   3.5400771100e+01   4.5025879942e+00    0.1150151    0.0885938 -21.73  0.000298263    1.009    0.009
        31  -9.2201    169.7611    214.5233   4.1358048742e+01   8.5371316897e+00     0.399494    0.1546572 -47.11  0.001826273    2.378    0.579
        32  -9.1468    198.0910    215.1398   3.6154540811e+01   5.4970754661e+00     0.187545     0.128091 -21.10  0.001163147    1.244    0.196
        33 -10.1477    186.2972    211.5412   3.7728731382e+01   7.2935580377e+00    0.4979752    0.1952574 -33.90  0.002267891    2.521    0.603
        34 -11.4732    196.9094    203.2182   3.4545489078e+01   7.5895558206e+00    0.5420477    0.3380286 -34.99  0.003368114    1.326    0.246
        35  -9.4885    178.2399    209.0855   3.8866928108e+01   8.5794970244e+00    0.4849825    0.2068388 -32.87  0.002232018    2.382    0.580
        36  -8.4326    161.9777    209.7392   4.2205604894e+01   1.0275077540e+01    0.2818154    0.1242465 -29.46  0.001183632    2.709    0.631
        37  -8.1105    220.4061    206.7531   3.1219152761e+01   4.6920055072e+00    0.1655929   0.07867572 -35.64 0.0009581223    1.682    0.405
        38  -8.4599    207.7685    206.9982   3.3281263910e+01   5.8653258414e+00    0.1542624   0.07818137 -42.45 0.0008815289    1.648    0.393
        39  -8.2608    172.3130    207.3132   3.9743621493e+01   9.5498476642e+00    0.1303684   0.08191609 -17.87 0.0006365275    1.636    0.389
        40  -9.2905    186.6665    202.6018   3.6279207204e+01   8.7921949825e+00    0.3505598    0.1902701 -51.38  0.001881292    1.944    0.486
        41  -8.8872    167.5938    200.9531   3.9682366157e+01   1.1251633383e+01    0.3199506    0.1307127 -45.10   0.00145904    2.190    0.543
        42  -8.2898    161.0000    200.9875   4.1035557884e+01   1.2026427884e+01    0.2097727   0.06695159 -49.47  0.000806089    2.968    0.663
        43  -9.1245     12.6717    200.8400   8.0750304406e+01   2.8779181822e+01    0.2149196     0.179918   2.83 0.0003829685    1.226    0.184
        44  -9.5431    210.7299    198.2976   3.1468541384e+01   6.9699904272e+00    0.2550146    0.1395157 -46.13  0.001515224    1.641    0.391
        45  -7.8429    154.6634    212.6798   4.4192895125e+01   1.0560859156e+01    0.1377322   0.08572523 -16.66 0.0005334491    1.707    0.414
        46  -8.6096    178.2201    196.6679   3.6916711598e+01   1.0791472161e+01    0.2298604    0.1583703 -36.07  0.001386398    1.256    0.204
        47  -9.2476    186.5058    192.0113   3.4625429941e+01   1.0659382902e+01    0.4102123    0.1841362 -39.29  0.002042242    1.942    0.485
        48 -10.3988    199.4932    189.9818   3.2021150641e+01   9.5371442627e+00     0.408137    0.1326063 -37.79  0.001730577    2.871    0.652
        49  -9.8580    201.1034    183.6326   3.0731752726e+01   1.0428094073e+01     0.332429    0.2111544 -50.30  0.001545544    1.567    0.362
        50  -8.7068    172.5406    190.2228   3.6965919298e+01   1.2641729335e+01    0.3111277    0.1079028 -46.40  0.001303934    2.560    0.609
        51  -8.3939    179.5239    189.7312   3.5546454278e+01   1.1886753004e+01    0.2436013    0.1013215 -42.33  0.001134282    2.094    0.523
        52  -7.8205    221.3270    189.3355   2.8436029737e+01   7.3205665889e+00    0.1169211    0.0701311 -20.84 0.0004129434    1.721    0.419
        53  -9.1272    215.6414    188.5698   2.9184122986e+01   8.0281419703e+00    0.2341282    0.0695223 -36.46 0.0009498895    3.333    0.700
        54  -8.5624    166.6818    183.8575   3.7067029505e+01   1.4565302467e+01    0.5613922    0.1208086 -47.27  0.001845678    4.035    0.752
        55  -9.1560    183.0438    182.4756   3.3696045522e+01   1.2765854721e+01    0.3747986    0.1632576 -47.29   0.00179295    2.069    0.517
        56  -8.9408    211.5854    183.2493   2.8978098974e+01   9.3223783298e+00    0.1649358   0.08700169 -36.69 0.0007211743    1.569    0.363
        57  -8.7016    169.6332    178.3967   3.5554883694e+01   1.5214093351e+01     0.321934    0.0984378 -43.69  0.001232798    2.915    0.657
        58  -9.8259    191.3890    178.6675   3.1571679644e+01   1.2423094937e+01    0.4022362     0.253374 -53.19  0.002312534    1.675    0.403
        59  -8.8030    193.6950    173.1699   3.0257667479e+01   1.3100335551e+01    0.2549711    0.1782818 -41.50  0.001595983    1.223    0.182
        60  -8.7185    176.3696    177.4378   3.4092256913e+01   1.4519592107e+01    0.2630619    0.0850974 -37.77 0.0009602202    3.357    0.702
        61  -8.9243    211.5423    175.9918   2.7823293435e+01   1.0514077109e+01    0.1784282   0.09350803 -43.93  0.001022409    1.573    0.364
        62  -8.0240    173.3143    173.3247   3.3969457374e+01   1.5679747687e+01    0.1317769   0.08909421 -18.20 0.0004906456    1.664    0.399
        63 -10.7172    205.9703    169.8467   2.7691528891e+01   1.2178349643e+01     0.388769    0.1823581 -49.14  0.001906781    1.956    0.489
        64  -9.2622    207.6096    161.9752   2.6130135757e+01   1.3292531300e+01    0.3409645   0.09569967 -47.90  0.001366902    3.208    0.688
        65  -8.6176    177.3474    170.5246   3.2722927052e+01   1.5664120779e+01    0.2188815    0.1467957 -62.16  0.001175692    1.907    0.476
        66  -9.3579    197.5852    168.4775   2.8817242763e+01   1.3430536723e+01    0.3054046    0.0929455 -42.31  0.001265567    2.797    0.642
        67  -8.6069    234.5824    167.0996   2.3105781647e+01   9.3917300637e+00    0.2869916   0.07997955 -42.29  0.001313254    2.759    0.637
        68 -10.0696    187.7036    161.8045   2.9347363907e+01   1.5866064472e+01    0.4642945    0.1258646 -42.01  0.001730923    3.327    0.699
        69 -10.7446    196.5014    158.5178   2.7301247652e+01   1.5282799405e+01    0.4821433    0.1376732 -44.50  0.001945024    2.948    0.661
        70 -10.0379    191.2392    165.9538   2.9455120234e+01   1.4671110880e+01    0.3462517    0.1836941 -45.78  0.001864441    1.638    0.389
        71 -10.4269    191.8637    160.0961   2.8341336416e+01   1.5616667592e+01    0.3728819    0.1914612 -33.30  0.001887766    1.986    0.496
        72  -9.2915    212.9283    164.1972   2.5692216602e+01   1.2284405458e+01    0.1670777    0.1433123 -51.29 0.0007737689    1.253    0.202
        73 -10.6121    183.2471    162.0920   3.0179319101e+01   1.6411198215e+01    0.5219812    0.1531613 -44.01  0.002038097    2.963    0.662
        74  -7.6634    239.0170    159.0000   2.1268454078e+01   1.0143616920e+01      0.13607   0.06173999  39.72 0.0007917017    2.869    0.651
        75  -9.0031    204.5411    156.0026   2.5596658481e+01   1.4673422480e+01    0.1851429   0.09737848 -44.64 0.0008918355    1.585    0.369
        76 -12.1377    216.2052    149.8707   2.2841953243e+01   1.4210396713e+01    0.7471519    0.3348065 -42.69  0.004061386    1.803    0.445
        77 -12.0436    223.4171    149.0851   2.1717566944e+01   1.3450718655e+01    0.6634942    0.4183032 -44.88  0.004396382    1.273    0.214
        78 -10.5947    229.8662    142.6781   1.9827649040e+01   1.3667306110e+01    0.3260416    0.2366215 -26.22  0.001982589    1.419    0.295
        79 -12.0799    215.0982    138.3641   2.1056740330e+01   1.6197108834e+01    0.5826063    0.4995119  26.77  0.004349354    1.448    0.309
        80  -9.7539    220.6616    128.7507   1.8687320463e+01   1.6978554107e+01    0.2787434    0.1899941 -29.32  0.001312137    1.554    0.357
        81 -10.9210    231.4711    133.1386   1.8072298882e+01   1.4923317411e+01    0.6633378    0.2877406 -37.06  0.003337432    2.103    0.525
        82 -11.1775    224.8948    141.4299   2.0261683134e+01   1.4466838212e+01    0.4854031    0.2384503 -36.47  0.002769322    1.832    0.454
        83  -7.8382    158.3338    153.3250   3.3342870769e+01   2.1622917367e+01    0.1368152   0.09816674 -14.75 0.0004551111    1.712    0.416
        84  -9.6559     19.3395    152.4253   7.4291563002e+01   4.0970390532e+01    0.2729692    0.2144506  54.94  0.000317717    1.354    0.261
        85  -9.8809    234.0141    147.4803   2.0079189620e+01   1.2444573189e+01    0.2087614    0.1236345 -33.93  0.001116805    1.501    0.334
        86 -10.8585    207.6589    143.9872   2.3073171537e+01   1.6264385299e+01    0.3316129    0.1897538 -31.05  0.001866761    1.840    0.456
        87  -8.8339    224.2873    134.2050   1.9141284287e+01   1.5663288405e+01    0.2703223    0.1268247 -44.10  0.001235075    1.688    0.408
        88  -9.3661    238.8942    141.0587   1.8457384851e+01   1.2844667955e+01    0.1629971    0.1185207 -53.56 0.0006207748    1.282    0.220
        89  -8.5506    244.3470    139.7781   1.7617390380e+01   1.2407375032e+01    0.1481526    0.1348861 -72.25 0.0007058156    1.354    0.261
        90  -8.4781    166.0206    139.7952   2.9266411891e+01   2.3027829719e+01    0.2072432    0.1492475   2.41  0.001084576    1.993    0.498
        91  -9.2825    235.2010    138.6548   1.8515991379e+01   1.3638857384e+01    0.1884706    0.1152193 -49.14 0.0007528055    1.349    0.259
        92  -9.3173      2.9327    137.9793   7.8850250297e+01   4.5970259213e+01    0.2096614    0.1986776 -36.69 0.0003727851    1.022    0.021
        93  -8.4844    249.1965    135.8359   1.6457832219e+01   1.2430430520e+01      0.15634    0.1121589 -51.84  0.000783245    1.217    0.178
        94 -10.1069    242.4104    133.6124   1.6865888276e+01   1.3533585736e+01    0.3623176    0.2323293 -43.40  0.001954571    1.179    0.152
        95 -10.5102    240.2050    126.5135   1.5981998341e+01   1.4834848118e+01    0.4165882    0.2098686 -43.09  0.001713154    1.518    0.341
        96 -10.0275    200.3808    133.9698   2.2393928584e+01   1.8918550109e+01    0.3596473     0.130662 -43.60  0.001524456    2.328    0.570
        97  -8.5834    172.3790    136.1534   2.7393207571e+01   2.2707931722e+01     0.191746    0.1086418 -54.95  0.000952439    1.818    0.450
        98  -9.7708    212.1875    128.4704   1.9752397676e+01   1.8164884334e+01    0.2574441    0.1364367 -47.18  0.001106275    1.561    0.360
        99  -9.5682    212.4396    122.1037   1.8609711191e+01   1.9136292975e+01    0.3619102    0.1624421 -43.20  0.001722223    1.838    0.456
       100  -9.7571     23.7124    133.0078   7.0190717850e+01   4.5807651559e+01    0.2109828    0.1961341 -62.24  0.001173614    1.093    0.085
       101 -10.6272    216.3396     93.6185   1.3123447059e+01   2.2881583114e+01    0.7682901     0.306211 -31.58  0.003073749    4.382    0.772
       102 -10.7094    231.9750    114.3214   1.4913162476e+01   1.7660416827e+01      0.67923    0.2282982 -41.85  0.003407377    2.396    0.583
       103  -9.8065    240.6133    117.9539   1.4561011914e+01   1.6025281960e+01    0.3363702    0.1939742 -44.92  0.001433907    1.319    0.242
       104 -11.8212    219.7627    102.0974   1.4219896603e+01   2.1139850535e+01     2.377176    0.7009794 -34.37   0.00685658    7.908    0.874
       105 -10.0754    248.9994    129.6806   1.5520954216e+01   1.3335374331e+01    0.3535264    0.2408319 -55.76  0.001903379    1.358    0.264
       106 -10.8129    241.7853    108.4663   1.2908594464e+01   1.7228539154e+01    0.5658933    0.2282176 -46.10  0.002310803    1.876    0.467
       107 -11.1797    231.9722     99.2808   1.2409276605e+01   1.9828132198e+01    0.8292015    0.4300861 -27.94  0.004330494    3.021    0.669
       108 -10.2825    242.5490     98.2466   1.1183282764e+01   1.8552999393e+01    0.4024485    0.2072537 -42.64  0.001624166    1.527    0.345
       109 -11.9056    230.8156     87.8836   1.0614486549e+01   2.1581962645e+01     1.105401    0.5983934 -25.79  0.005722872    3.308    0.698
       110  -9.7656    248.3611    244.9725   3.2441183208e+01  -3.0003851013e+00    0.5487819    0.1832383 -24.89  0.002612932    3.613    0.723
       111 -11.0948    248.4343    117.8113   1.3719663859e+01   1.5086325840e+01    0.8198622    0.2436179 -46.11  0.004149883    2.529    0.605
       112 -11.2059    248.8402    102.4888   1.1262095622e+01   1.7163323495e+01     1.102741    0.2158849 -43.15  0.004656552    3.730    0.732
       113  -9.4530    205.9743    130.0006   2.0878831591e+01   1.8782001172e+01     0.182446    0.1522014 -47.63  0.001110181    1.025    0.025
       114 -11.7802    201.8663    117.1639   1.9158296752e+01   2.1450220138e+01    0.8694218    0.3700466 -37.71  0.004205719    2.331    0.571
       115 -11.7398    191.9109    115.1845   2.0217811811e+01   2.3290938232e+01     1.353523      0.63674 -26.10  0.004515045    5.699    0.825
       116 -10.1081    203.6115    104.0902   1.6542359810e+01   2.3245169301e+01    0.2779836    0.2200217 -39.50  0.001660889    1.227    0.185
       117 -10.2213    192.5129    128.4751   2.2592103230e+01   2.0983129306e+01    0.3253974     0.183726 -50.53  0.001568426    1.596    0.373
       118 -11.2166    195.0803    120.6657   2.0768937289e+01   2.1900687598e+01    0.7306622    0.2376473 -44.76  0.003156952    2.626    0.619
       119 -10.7681    209.5166    112.8424   1.7357360192e+01   2.1002736539e+01    0.5261648    0.2576838 -43.05  0.002508405    1.710    0.415
       120  -9.0979    173.3341    128.6082   2.5776964941e+01   2.3922326583e+01    0.2599202    0.1448663 -44.06  0.001341834    1.619    0.382
       121 -11.0398    189.8062    106.4389   1.8871684792e+01   2.5050745620e+01    0.5140877    0.1925503 -43.29  0.002358786    2.347    0.574
       122  -9.8832    225.4959    122.4409   1.7021712967e+01   1.7306204424e+01    0.3930681    0.2050068 -52.16  0.001561822    1.691    0.409
       123  -8.3105    217.4885    124.9774   1.8450693586e+01   1.7989953524e+01    0.1766937   0.09128269 -43.07  0.001024606    1.575    0.365
       124 -10.7174    183.2669    107.2847   2.0005611213e+01   2.5980577927e+01    0.4106661    0.1907412 -39.94  0.001602045    2.061    0.515
       125 -10.3582    184.2533    113.6899   2.1092752945e+01   2.4754928412e+01    0.3444109    0.2298699 -46.82   0.00205581    1.317    0.241
       126  -9.7376    181.7537    124.7271   2.3602484417e+01   2.3272309431e+01    0.2432132    0.1529866 -49.61   0.00137351    1.428    0.300
       127  -9.6343    181.6744    119.4796   2.2612901011e+01   2.4188931975e+01    0.3514317    0.1689979 -51.04  0.001631806    1.956    0.489
       128 -10.0702    165.9567    124.2503   2.6248374110e+01   2.5909784192e+01    0.2292639    0.1857516  20.57  0.001364938    1.531    0.347
       129  -9.8304    211.9666    104.1836   1.5508396104e+01   2.1968846980e+01    0.4890238    0.1580143 -41.79  0.002242687    2.644    0.622
       130  -9.9069    175.7277    122.4722   2.4175256406e+01   2.4626831449e+01    0.3597472    0.1393969 -55.56  0.001363588    3.336    0.700
       131  -9.9439    219.3989    115.2290   1.6534737450e+01   1.9226559037e+01    0.4004457    0.2437369 -38.37  0.001897498    1.472    0.321
       132  -9.3658    177.4947    116.5325   2.2723360224e+01   2.5371961231e+01    0.3177632    0.1087012 -46.62  0.001311518    2.627    0.619
       133 -10.3635    176.0252    111.4737   2.1970345067e+01   2.6482002965e+01    0.3141198    0.2265505 -30.93  0.001345993    1.546    0.353
       134 -10.0112    173.6970    107.4143   2.1542877987e+01   2.7565476972e+01    0.3276155    0.1480751 -41.20  0.001536438    2.106    0.525
       135  -9.4145    193.8732    100.8779   1.7241720809e+01   2.5279892844e+01    0.1740126    0.1512017 -35.16  0.001004752    1.253    0.202
       136  -9.6967    168.2076     99.7529   2.0888233339e+01   2.9812373304e+01     0.326032     0.161866 -49.86  0.001599481    1.889    0.471
       137 -12.6287    196.7078     77.8948   1.2505969055e+01   2.8270760534e+01     1.461584    0.9915998  10.51   0.00657544    4.692    0.787
       138 -10.3093    203.3805    247.5845   3.9871528271e+01  -4.3035183587e-02    0.4388478    0.1729946 -20.95  0.001964121    3.361    0.703
       139  -8.6053    164.3114    246.9898   4.7109157767e+01   3.4651335487e+00    0.1714204    0.1337474 -19.98  0.001053405    1.104    0.095
       140  -8.7923    223.7968     74.8498   9.0703772415e+00   2.4381166025e+01    0.1473644    0.1281174 -42.18 0.0008429391    1.327    0.246
       141  -9.4443    219.3441     83.2548   1.0975854539e+01   2.3903561739e+01    0.1961317    0.1698498 -12.92   0.00119602    1.690    0.408
       142  -8.9461    157.4857     75.0151   1.7343152538e+01   3.5790263370e+01    0.1899832    0.1150962 -44.23  0.001035229    1.598    0.374
       143  -8.5195    206.4954     84.0691   1.2520293255e+01   2.5781921722e+01    0.1713066   0.09420846 -43.22  0.001023545    1.572    0.364
       144 -10.2669    158.3417     81.7351   1.8687150757e+01   3.4574506421e+01    0.3130561    0.1933915 -45.63  0.001707787    1.543    0.352
       145  -9.2663    214.5019     68.5067   8.8515833702e+00   2.6665471282e+01    0.1595265    0.1007949  68.01 0.0002196112    1.749    0.428
       146  -9.6726    200.9501    109.5899   1.7902112352e+01   2.2794495753e+01    0.3302409    0.1701407 -43.69  0.001840821    1.656    0.396
       147 -10.3589    145.8029     67.2859   1.7518639358e+01   3.9269623517e+01    0.3705601    0.1390885 -47.38  0.001576241    2.639    0.621
       148  -9.8052    150.3569     81.8232   2.0075164933e+01   3.6093068460e+01    0.1804239    0.1534349 -51.63 0.0001363281    1.154    0.134
       149  -9.4509    197.3611     97.1585   1.6072471821e+01   2.5296452838e+01    0.1967919    0.1583277  22.22  0.001107746    1.880    0.468
       150 -11.4954      5.3408     59.1194   6.5167301200e+01   6.5455470867e+01    0.8153539    0.3300048   9.91  0.003369085    2.477    0.596
       151  -9.8874    163.9825     63.4829   1.3814497197e+01   3.6247134233e+01    0.1889163    0.1507617 -54.56 0.0007829163    1.175    0.149
       152 -10.6306    158.2414     60.1147   1.3896729632e+01   3.7842357305e+01    0.3187794    0.2093093 -32.36  0.001585906    1.829    0.453
       153 -10.0047    148.7536     93.7319   2.3040726600e+01   3.4407826741e+01    0.3057925     0.173045 -30.73  0.001401631    2.364    0.577
       154 -10.3265    150.3979     78.2184   1.9250910544e+01   3.6664130215e+01    0.2994946    0.1929682 -51.32  0.001264389    1.498    0.332
       155  -8.9247    209.4202     91.1593   1.3474800969e+01   2.4293223420e+01    0.1912019    0.1637172 -28.89 0.0008545538    1.416    0.294
       156 -10.7661    170.0652     53.7569   1.0892727770e+01   3.6421536024e+01    0.2573053    0.2424407  18.31  0.001500927    1.517    0.341
       157 -10.0463    164.2165     58.1168   1.2606744980e+01   3.6955111309e+01    0.2142113    0.1971377 -49.05   0.00138621    1.256    0.204
       158 -10.7710    163.4421     51.8023   1.1322188363e+01   3.7961778977e+01    0.3303963    0.2138954 -32.85  0.001950246    1.835    0.455
       159 -10.2285    153.0314     57.8870   1.4166115568e+01   3.9188830824e+01     0.264744    0.1713637 -38.49  0.001448363    1.655    0.396
       160 -10.6681    176.6124     53.8628   1.0112138622e+01   3.5169740499e+01    0.2366204    0.2240695 -11.54   0.00128183    1.493    0.330
       161 -11.2849    147.6528     54.9321   1.4303962287e+01   4.0685230409e+01    0.4475809     0.266929 -25.23  0.002260104    2.503    0.600
       162  -9.6107    139.4995     56.0000   1.5888497531e+01   4.2205638825e+01    0.1858365    0.1199871 -41.84  0.001003143    1.615    0.381
       163 -10.1419    157.5388     53.9580   1.2610062266e+01   3.8834104548e+01    0.2846278    0.2047681  -7.71  0.001536704    2.610    0.617
       164 -10.6704    150.2080     63.8480   1.5983940176e+01   3.8898218903e+01      0.37633     0.179804 -48.73  0.001847718    2.043    0.510
       165 -10.0589    152.7684     52.0394   1.2856034519e+01   4.0047055175e+01    0.2079419    0.1776561 -23.45  0.001367996    1.554    0.357
       166 -10.3343    168.8020     58.2354   1.2016547133e+01   3.6056844025e+01    0.2117663    0.1584204 -41.80 0.0008906586    1.392    0.282
       167  -9.8101    143.2144     80.2804   2.1023228880e+01   3.7741846656e+01    0.2286043    0.1793732 -53.41  0.000952018    1.240    0.193
       168 -10.3452    179.2182     48.6047   8.7217129567e+00   3.5367283124e+01    0.2181313    0.1813418  55.06  0.001130738    1.492    0.330
       169 -10.3911    173.8668     48.1768   9.2448382578e+00   3.6427848201e+01    0.3000041    0.1413814 -36.77  0.001586281    2.233    0.552
       170 -10.5742    157.2785     47.6435   1.1214746958e+01   3.9726742431e+01    0.2773319    0.2264098  -2.48  0.001743302    1.987    0.497
       171 -10.9818    169.3197     43.8560   8.8574870043e+00   3.7846554415e+01    0.3296416     0.262509  10.66  0.002065489    2.269    0.559
       172  -8.3507    215.3952     78.7413   1.0587763401e+01   2.5134601873e+01    0.1550258     0.131419  36.91  0.001057119    1.742    0.426
       173 -10.5280    150.6448     45.6011   1.1662403031e+01   4.1328593910e+01     0.211871    0.1881706 -64.92  0.001217514    1.147    0.128
       174 -11.0313    188.6834     42.8556   6.5662642881e+00   3.4349087225e+01    0.2753766    0.2167155  25.45  0.001731854    2.320    0.569
       175 -10.3649    162.8630     43.4428   9.5477661070e+00   3.9157765145e+01    0.2437436    0.1839508  58.82  0.001619098    1.441    0.306
       176 -11.2043    167.0928     76.3708   1.6147136235e+01   3.3757760479e+01    0.4220506    0.2056623 -45.79  0.002153456    1.897    0.473
       177  -8.5431    165.3119     38.3217   8.1243545888e+00   3.9309674624e+01    0.1039736   0.08822651  40.69 0.0003051756    1.652    0.395
       178 -11.0168    177.4469     41.9893   7.5481892991e+00   3.6528939730e+01    0.3227544    0.1860635  54.06  0.001928831    2.028    0.507
       179  -9.9605    179.6468     35.7119   6.0240768443e+00   3.6872437663e+01    0.1957102    0.1194527  62.43 0.0009597013    1.701    0.412
       180  -7.9105    240.4890     32.4614   7.1521840144e-01   2.7055126199e+01   0.09557407   0.07031011 -62.11 0.0003010886    1.061    0.058
       181  -8.4626    246.9997     31.0412   1.1238021870e-01   2.6262572091e+01    0.1181923    0.1119049 -40.70 0.0007072671    1.660    0.398
       182  -8.7348    236.7854     28.2304   2.5533496748e-01   2.8070179659e+01    0.1169743    0.1022787 -64.99 0.0006162215    1.357    0.263
       183  -8.4681    240.7943     27.4050   3.5989105242e+02   2.7561446082e+01    0.1124769   0.07938337  72.78 0.0004878764    1.652    0.395
       184  -9.5424    245.3786     25.8162   3.5938656535e+02   2.7059826868e+01    0.1451483    0.1325183 -38.38 0.0008901589    1.658    0.397
       185  -9.5106    209.0145     98.3178   1.4816579908e+01   2.3295550466e+01    0.2440325    0.1455527 -32.59  0.001125259    1.893    0.472
       186  -8.3209    156.3457    246.1167   4.8621939407e+01   4.3671927153e+00    0.2377328   0.08530508 -41.95   0.00108664    2.538    0.606
       187 -11.1413      3.1699    241.3206   8.5560828786e+01   1.9913229427e+01    0.6350339    0.2769831 -66.81  0.003035524    2.434    0.589
       188 -10.1954    196.2098    245.0894   4.0789360869e+01   9.2558138955e-01     0.248331    0.1557828 -35.27  0.001656973    1.360    0.265
       189  -7.7648    150.0000    246.0010   4.9938546613e+01   5.0015910893e+00    0.1855478   0.06529058 -50.90  0.000801612    2.937    0.659
       190  -9.7186    216.7128     16.4174   3.5947771580e+02   3.2482833113e+01    0.1656024    0.1408043 -53.45 0.0007722114    1.366    0.268
       191  -8.1233     15.2667     17.9735   4.4391713482e+01   7.2033359751e+01    0.1366065    0.1049715 -34.46 0.0004998989    1.478    0.323
       192  -9.4088    168.3429    242.4024   4.5676005571e+01   3.8508041524e+00    0.2230203     0.137789 -44.90  0.001338845    1.630    0.386
       193 -10.0373      4.8676     15.6649   5.0582093604e+01   7.3694375820e+01      0.20446    0.1468394 -23.91  0.001222624    1.399    0.285
       194  -9.0737    159.7646    237.2087   4.6696432311e+01   5.5681756721e+00    0.3919975    0.1715484 -37.90  0.001935777    2.106    0.525
