#   1 NUMBER                 Running object number                                     
#   2 MAG_AUTO               Kron-like elliptical aperture magnitude                    [mag]
#   3 X_IMAGE                Object position along x                                    [pixel]
#   4 Y_IMAGE                Object position along y                                    [pixel]
#   5 X_WORLD                Barycenter position along world x axis                     [deg]
#   6 Y_WORLD                Barycenter position along world y axis                     [deg]
#   7 A_WORLD                Profile RMS along major axis (world units)                 [deg]
#   8 B_WORLD                Profile RMS along minor axis (world units)                 [deg]
#   9 THETA_WORLD            Position angle (CCW/world-x)                               [deg]
#  10 FWHM_WORLD             FWHM assuming a gaussian core                              [deg]
#  11 ELONGATION             A_IMAGE/B_IMAGE                                           
#  12 ELLIPTICITY            1 - B_IMAGE/A_IMAGE                                       
         1 -14.0230    219.2148     26.9926   4.2626830529e+00   2.7302189892e+01     1.098554    0.8813434 -27.36  0.004382345    1.351    0.260
         2 -12.3125    227.3697      9.5780   3.5946974575e+02   2.7520753222e+01    0.3715431    0.2570356 -67.92  0.001269567    1.233    0.189
         3 -11.9985    219.6251      5.9422   3.5906608246e+02   2.9589885665e+01    0.4380467    0.2555299 -82.80  0.002430147    1.632    0.387
         4 -12.3386     54.7827      4.0454   2.4655057903e+01   6.9877054157e+01    0.3951794     0.327029  44.57  0.002465269    1.181    0.153
         5  -9.1196     27.7544    243.9002   8.7605265252e+01   1.9236955674e+01    0.2590199    0.1330224  83.36  0.001559301    1.901    0.474
         6 -16.5095     70.8088    143.6086   6.7683397614e+01   3.6690341214e+01     6.169703     3.092045  49.59   0.02497378    2.094    0.522
         7 -10.1048    160.7826    199.8688   5.4752709977e+01   9.2409175713e+00    0.2845215    0.1785113 -54.13  0.001447417    1.959    0.490
         8  -9.9718    210.9904    198.7793   4.4787393543e+01   1.7495850726e+00    0.1994334    0.1585061 -16.41 0.0004700903    1.125    0.111
         9 -10.3074    192.9181    194.8221   4.7429852577e+01   5.0441278494e+00    0.5975588    0.3137736 -61.18  0.001753293    7.392    0.865
        10 -10.3963     69.1664    195.8660   7.5162992342e+01   2.4150099578e+01    0.3781551    0.2017237 -66.08  0.001849466    1.928    0.481
        11 -12.1843     54.5805    191.8840   7.8280462111e+01   2.6950982135e+01     0.459468    0.2639148  87.19  0.002276968    1.850    0.460
        12 -12.2644     55.2795    237.0194   8.1776071493e+01   1.7426379762e+01    0.2744772     0.174602 -88.84  0.001329265    1.663    0.399
        13 -11.8799    142.7083    182.6644   5.5759081477e+01   1.5489799528e+01    0.3447827    0.2643081  -9.99  0.001784914    1.594    0.373
        14 -12.8722     52.9697    231.6482   8.1880159778e+01   1.8727047616e+01    0.3861241    0.1615407 -66.54   0.00145491    2.579    0.612
        15 -19.1596     12.5003     97.0619   8.0114449791e+01   5.5586476378e+01      18.2113    0.7223881 -73.20   0.02596278   17.964    0.944
        16 -12.3581     57.0629    179.7981   7.6430500035e+01   2.9475529064e+01    0.4259583    0.4018703   7.17  0.001253526    1.343    0.255
        17  -9.4884     63.4849    181.3577   7.4965938128e+01   2.8263113791e+01    0.2332187    0.1721571  88.40 0.0008895072    1.321    0.243
        18 -11.5825    179.8219    169.1064   4.5156545012e+01   1.1634024657e+01    0.6709181    0.5418158 -37.39  0.003028878    1.228    0.186
        19 -10.3886    174.6335    179.7533   4.8293928835e+01   1.0579064360e+01    0.2911255    0.2032624 -44.90 0.0007058124    1.509    0.337
        20 -11.7907    172.6300    174.7332   4.7749547513e+01   1.1846414953e+01     0.532541    0.4068184 -20.41  0.001329359    1.354    0.261
        21 -18.7807     23.6784    212.1518   8.6858715881e+01   2.5962094054e+01     6.392234     4.565464  46.75    0.0339095    1.220    0.180
        22 -10.4519    148.6597    172.4626   5.2544125371e+01   1.6518734804e+01    0.2425909    0.1331856 -47.41 0.0006384885    1.877    0.467
        23 -10.0478     70.2244    235.8921   7.8630508607e+01   1.5798935556e+01    0.1361286    0.1142867 -62.35 0.0003648406    1.468    0.319
        24  -9.4970     71.8025    217.5006   7.6708263161e+01   1.9176492466e+01    0.1723956      0.10527  40.95 0.0007290909    1.380    0.275
        25 -10.7325    152.0506    208.0571   5.7898999248e+01   9.1693307966e+00    0.2500943    0.2096056 -77.49  0.001489421    1.651    0.394
        26 -13.2268     47.6835    230.2111   8.2876937737e+01   1.9629846811e+01    0.3932265    0.2427997 -77.46  0.002418298    1.709    0.415
        27 -12.5392     59.5563    229.1951   8.0329379333e+01   1.8405980034e+01    0.2436273    0.2014627 -60.85 0.0008243545    1.500    0.333
        28 -11.8054     94.1486    158.2051   6.3547567124e+01   2.9315229330e+01    0.3799446    0.2758265  81.52   0.00179563    1.621    0.383
        29 -10.0806     83.3990    220.8055   7.4477854987e+01   1.6962398000e+01     0.223232    0.1742434 -81.34  0.001130198    1.402    0.287
        30  -9.0140    139.4451    156.4673   5.1548584503e+01   2.1599199392e+01     0.145604    0.1444376  20.08 6.624019e-05    1.017    0.017
        31 -11.7581    134.2262    148.2435   5.1103120598e+01   2.4427674105e+01    0.6911433    0.3326348 -51.35   0.00266333    2.113    0.527
        32 -11.6415    133.4509    143.1994   5.0200930360e+01   2.5724661222e+01    0.8718082     0.292532 -55.39  0.002509869    3.809    0.737
        33  -9.3405    164.8479    206.7908   5.5041461416e+01   7.4031166486e+00     0.223238    0.1761131 -82.06  0.001226534    2.114    0.527
        34 -11.1659     61.4966    242.1802   8.0879126193e+01   1.5721005098e+01    0.2227718    0.1404281 -56.24  0.001371974    2.031    0.508
        35 -11.0405     89.2979    148.9132   6.3245621101e+01   3.2427396411e+01    0.2743917     0.252629 -72.88  0.000325065    1.062    0.058
        36 -12.9249     95.1932    144.0033   6.0649333690e+01   3.2666546155e+01    0.8734919     0.662622 -39.36  0.001830218    1.484    0.326
        37 -12.0745    109.0438    145.3756   5.7068166189e+01   2.9860595814e+01     0.376383    0.3577936  -9.07 0.0009421301    1.171    0.146
        38  -8.8917    171.3841    142.1973   4.1171993576e+01   1.8397331042e+01    0.2093944    0.1341272 -51.84 0.0004879842    1.682    0.406
        39  -9.3881    129.0034    139.7362   5.0561854720e+01   2.7397870769e+01    0.2107348    0.2005157  49.00  0.001112979    1.061    0.058
        40 -12.6285    105.8854    131.8688   5.5060184212e+01   3.3768985305e+01    0.7027568    0.4811097 -48.98  0.002184275    1.442    0.306
        41 -11.9587     95.0203    131.2519   5.8080163661e+01   3.5920598446e+01    0.4163262    0.2900261 -59.32  0.000367054    1.397    0.284
        42 -11.4572    135.6673    131.2550   4.6899588372e+01   2.8007461790e+01    0.6502191    0.2947788 -50.58  0.002348328    2.225    0.550
        43 -10.7790    135.0000    121.3694   4.4638702166e+01   3.0403732277e+01    0.6511507   0.08825789 -46.33  0.001272642    7.154    0.860
        44 -10.4177    161.2302    126.0686   3.9561181519e+01   2.3784268984e+01     0.459306    0.1911561 -36.41   0.00156227    2.593    0.614
        45  -9.6573    130.9817    125.9981   4.6827069257e+01   3.0185267858e+01    0.2467604    0.1948919 -10.36 0.0004549211    1.644    0.392
        46 -11.3129    114.3186    125.4832   5.1194717246e+01   3.3703192410e+01    0.3261662     0.296283  13.13 0.0006370869    1.246    0.197
        47 -10.7731    102.0168    120.5570   5.3554154846e+01   3.7321015191e+01    0.3269084    0.2824686  11.95  0.001600305    1.381    0.276
        48 -10.1549    162.0286    119.6879   3.7788588172e+01   2.4944541618e+01    0.2810724    0.2147663 -50.13 0.0004329605    1.292    0.226
        49 -10.3588    158.8901    115.1019   3.7306420546e+01   2.6585292317e+01    0.3389641    0.2476332 -69.33 0.0004447961    1.745    0.427
        50 -10.1113    156.3263    111.6797   3.6984045441e+01   2.7869624640e+01     0.245644    0.2130404 -53.10  0.001089076    1.134    0.118
        51  -8.9089    182.4894    202.4906   5.0789111495e+01   5.4035186502e+00    0.1298845    0.1102142   7.14  0.000810447    1.020    0.019
        52 -10.6828    109.8335    115.9980   5.0125042778e+01   3.6909907555e+01    0.2847531    0.2445183 -20.80 0.0004604505    1.354    0.261
        53 -12.1379    118.9487    103.8419   4.4260691403e+01   3.7901891954e+01    0.4824715    0.3473389 -75.15  0.002031019    1.802    0.445
        54 -12.1193    116.6387    109.0423   4.6344833522e+01   3.7176736457e+01    0.6460804    0.4305485  58.51  0.002588149    1.731    0.422
        55  -9.2092     92.1512    111.2163   5.4267396201e+01   4.1533269664e+01    0.2186365    0.1819137  82.48 0.0004779915    1.350    0.259
        56 -10.6631    134.5384    105.2137   4.0465325023e+01   3.4150085659e+01    0.3962567    0.1536741 -42.01  0.001286519    2.539    0.606
        57  -9.4884     78.4598    105.4674   5.7297877211e+01   4.5449027630e+01    0.1560415     0.145702 -68.49 3.668317e-05    1.012    0.012
        58  -8.8946    146.3111    104.6598   3.7405093820e+01   3.1612173961e+01    0.1646074    0.1246252 -77.04 0.0007045447    1.693    0.409
        59  -9.5663     82.0701    102.7881   5.5385001313e+01   4.5503537005e+01     0.328245     0.169004  56.10  0.001154261    2.654    0.623
        60 -11.2019    112.0181     99.3604   4.4971059549e+01   4.0438784004e+01    0.4898772    0.2810174  66.93  0.001663139    2.874    0.652
        61  -9.9103     72.1511     99.7123   5.8010408547e+01   4.7986432853e+01    0.2394991     0.185748  60.38 0.0004993096    1.452    0.311
        62  -8.5344    165.3273    230.2968   5.8495316742e+01   3.5608331273e+00    0.1234293    0.0837772   4.88 0.0003811477    1.631    0.387
        63  -9.5416    113.3976     94.7779   4.3227150095e+01   4.1202035230e+01    0.2282965    0.1486964 -37.43 0.0006296068    1.600    0.375
        64  -9.7548     98.4446     88.4759   4.5873724182e+01   4.5845226986e+01    0.3639962    0.2212385  71.67  0.001252873    2.938    0.660
        65 -11.3533     61.1631     86.5721   5.8537522315e+01   5.3073291277e+01    0.7069911    0.3704583  54.08  0.002680704    2.614    0.617
        66 -11.7053     39.2693     88.1640   6.7711581985e+01   5.5561300530e+01    0.5541314    0.1915599  38.93  0.002001141    3.090    0.676
        67 -11.7195     52.5798     80.2437   6.0175442231e+01   5.5914083454e+01    0.5780532    0.2044208 -59.99  0.001952861    2.790    0.642
        68 -12.2256     88.4652    218.5297   7.3132816429e+01   1.6714384147e+01    0.5620708    0.4640617 -61.78  0.002934553    1.394    0.282
        69 -13.1658    174.7432     67.3485   2.0763042230e+01   3.1997380932e+01     1.038289    0.7737364  50.54   0.00156891    1.465    0.317
        70  -9.0274     98.0016    250.7812   7.4294566215e+01   9.5947958820e+00    0.1460713   0.07671031  36.02 0.0008225318    1.503    0.335
        71 -13.9987    192.4749     54.0021   1.4256455413e+01   2.9828959864e+01     1.263752     1.049767  32.42  0.003932988    1.530    0.347
        72 -12.4636    198.6032     48.2561   1.1890904965e+01   2.9216694785e+01    0.4548312     0.434663 -66.53   0.00114182    1.129    0.114
        73  -9.3022     97.0750     63.5129   3.7855033760e+01   5.1590307692e+01    0.2253803    0.1528907  49.51 0.0006547474    1.520    0.342
        74 -10.3368     66.0055     61.9502   4.8593928890e+01   5.8123635580e+01    0.2255292    0.2072288 -31.13 0.0003506068    1.022    0.022
        75  -8.9264    144.2713     61.2956   2.4649856803e+01   4.0626283322e+01    0.1476598    0.1219981  15.02 0.0006931507    1.520    0.342
        76 -10.1779     48.6729     53.0092   5.2789393381e+01   6.2877021677e+01    0.2023649    0.1685726 -44.61 0.0004088909    1.117    0.105
        77 -11.3517     33.8499     51.3501   5.9482370835e+01   6.5202836983e+01    0.2918125    0.1915219 -24.30  0.001462738    1.677    0.404
        78  -9.3902     70.7720     48.5856   4.1337666555e+01   6.0007244414e+01    0.1881877    0.1399265  53.83  0.000299432    1.536    0.349
        79  -9.0695    179.3464    248.7347   5.8372202013e+01  -9.3568776510e-01    0.1446592   0.09578429 -23.46 0.0009367039    1.658    0.397
        80 -11.0139     60.9337     21.4239   3.2298018949e+01   6.6506296224e+01    0.2865968    0.2307326  40.49 0.0007973476    1.221    0.181
        81 -10.5945    249.2238     15.1271   3.5946947637e+02   2.2414692039e+01    0.2458495    0.1147744 -47.84  0.001241234    1.588    0.370
        82  -9.2077     71.2337    221.7778   7.7222224406e+01   1.8390176880e+01    0.1158707   0.07581726  57.64 0.0006555267    1.356    0.263
        83  -9.8470     91.0926    244.4524   7.5101440935e+01   1.1566836954e+01    0.1812789    0.1404728 -49.14 0.0006179761    1.662    0.398
