#   1 NUMBER                 Running object number                                     
#   2 MAG_AUTO               Kron-like elliptical aperture magnitude                    [mag]
#   3 X_IMAGE                Object position along x                                    [pixel]
#   4 Y_IMAGE                Object position along y                                    [pixel]
#   5 X_WORLD                Barycenter position along world x axis                     [deg]
#   6 Y_WORLD                Barycenter position along world y axis                     [deg]
#   7 A_WORLD                Profile RMS along major axis (world units)                 [deg]
#   8 B_WORLD                Profile RMS along minor axis (world units)                 [deg]
#   9 THETA_WORLD            Position angle (CCW/world-x)                               [deg]
#  10 FWHM_WORLD             FWHM assuming a gaussian core                              [deg]
#  11 ELONGATION             A_IMAGE/B_IMAGE                                           
#  12 ELLIPTICITY            1 - B_IMAGE/A_IMAGE                                       
         1 -14.0583    178.6085     75.4462   8.4811292746e+01   3.0406431020e+01     6.516172     1.477202 -44.18   0.01701778    4.672    0.786
         2 -13.9322    169.9526     58.0584   8.1599935882e+01   3.5419069427e+01     4.974006     2.594057 -87.13   0.01191645    7.138    0.860
         3 -12.5395    211.9569     47.5957   7.1883189402e+01   2.6525930406e+01    0.8033325     0.774123  42.57  0.003115156    1.232    0.188
         4 -14.7098    238.3633     83.8412   7.6895451405e+01   1.4575636413e+01     8.670761     1.309265 -39.07   0.02236859    5.193    0.807
         5 -13.0420    207.2754     62.3417   7.6295237133e+01   2.5455211669e+01     2.127719     1.079252 -67.83  0.007288793    3.346    0.701
         6 -15.0421    219.6950      5.8847   6.1039065149e+01   2.9868664733e+01     10.85522          nan  62.11   0.02394218    9.445    0.894
         7 -14.3041    246.8421     19.7524   6.1534996950e+01   2.2034249194e+01     1.951131    0.7431807 -36.05  0.006199589    2.516    0.603
         8 -13.9336    222.8690     36.8387   6.7858322709e+01   2.5381784987e+01      1.94631      1.19213 -55.62  0.007216123    1.586    0.370
         9 -12.1234    224.4624     16.0344   6.2862648530e+01   2.7614669553e+01     1.094749    0.4802256  86.64  0.004069551    2.696    0.629
        10 -10.6596    186.5027     41.0908   7.3956709169e+01   3.3749846447e+01    0.9723865    0.3551093 -47.56  0.003435901    3.117    0.679
        11  -9.4622    142.7625     16.8891   7.4344265109e+01   4.7355823367e+01    0.2884682    0.1853074 -25.59 0.0009046594    1.738    0.425
        12  -9.5952    115.9918     12.5233   7.8325590141e+01   5.3859187450e+01    0.2818338    0.1997072  45.33  0.001537415    1.216    0.177
        13 -11.0997    120.4323      8.9264   7.6110883579e+01   5.3220552928e+01    0.4300961    0.3578866  39.98  0.001637365    1.046    0.044
        14  -9.3705    146.0060      7.6081   7.0874458139e+01   4.7477359040e+01    0.3677305    0.1605561 -30.29  0.001681466    2.484    0.597
        15  -9.0043    139.2351      3.2223   7.0654214514e+01   4.9444844241e+01    0.1927726   0.08744228 -36.52 0.0008886194    2.481    0.597
        16 -10.2715      2.0572      2.3178   1.1397843398e+02   7.2041131844e+01     0.197617    0.1624088  -3.15  0.001596226    1.366    0.268
        17  -8.8643    196.8802      1.7094   6.2372211808e+01   3.5733128851e+01    0.1887872    0.1516463  64.70 0.0005498176    1.188    0.159
        18  -9.9227    112.9921      2.5181   7.5436671151e+01   5.5385653262e+01      0.28952    0.1203408  66.91  0.001217492    2.746    0.636
        19  -9.3134    165.9726    130.0286   1.0190954005e+02   2.2695652343e+01    0.2519014    0.1933499 -85.48 0.0006584117    1.684    0.406
        20 -13.7011    157.1615    247.2771   1.2581434119e+02   1.4109422546e+00     5.087612    0.3922703  42.77   0.01027894   10.576    0.905
        21 -12.2183    202.3084    125.6085   9.3139889923e+01   1.5230080155e+01     1.188767    0.7072273 -74.52  0.003894027    3.561    0.719
        22  -9.5502    135.8626    126.9907   1.0832076366e+02   3.0011876342e+01    0.4102358    0.1814414 -59.00  0.001295306    3.145    0.682
        23  -9.9090    143.4573    125.1158   1.0599330521e+02   2.8796781510e+01     0.366608    0.2182083 -82.07  0.001082291    4.151    0.759
        24 -11.7175    174.5387    238.2070   1.2123551098e+02  -1.7131133513e-01    0.6155692    0.2323052  38.61  0.002575702    2.406    0.584
        25 -10.1840    205.6163    122.2643   9.1686568404e+01   1.5122881922e+01    0.3236101    0.2429501 -75.00  0.001212018    1.699    0.412
        26 -10.8551    224.1711    121.4005   8.8057262289e+01   1.1094021775e+01    0.5002124     0.274545  69.38  0.001773344    2.817    0.645
        27 -11.4644    215.2874    115.8208   8.8315682278e+01   1.4136532262e+01    0.6960083    0.4020291 -54.48  0.002867967    1.948    0.487
        28 -11.8674    235.6273     37.6955   6.6578930450e+01   2.2261311386e+01    0.6851995    0.4174401  68.95  0.003569423    1.577    0.366
        29 -10.7888    167.7970    114.1047   9.7498056697e+01   2.5624072396e+01    0.4784524    0.3884633 -35.31    0.0013986    1.271    0.214
        30 -11.4615    199.1815    115.0228   9.1155820146e+01   1.8026602617e+01    0.8571083    0.5047061  88.60  0.002591408    4.192    0.761
        31 -11.6334    204.8357    110.5108   8.8948765820e+01   1.7567364666e+01     0.613192    0.4654529   9.81  0.002163611    1.867    0.464
        32  -9.4952    132.3059    110.6492   1.0509317704e+02   3.4370439129e+01    0.2820134    0.1527288  55.44 0.0007293068    2.126    0.530
        33 -10.3167    135.2626    107.8524   1.0360533284e+02   3.4335883479e+01    0.6730757    0.2180682 -49.78  0.001997293    3.404    0.706
        34 -11.6804    198.0638    105.7121   8.9035499890e+01   2.0088640686e+01    0.4780632    0.4623512  39.64   0.00258454    1.097    0.089
        35  -9.1026    177.2117    103.1328   9.2582513373e+01   2.5600945602e+01    0.3002247    0.2065238  85.66  0.001210881    2.099    0.524
        36  -8.7602    142.3362    102.2952   1.0034544803e+02   3.3944869580e+01    0.1567585     0.124201   8.36 0.0004396279    1.648    0.393
        37  -9.9062    147.9276     97.6511   9.7712686021e+01   3.3624722196e+01    0.3827924    0.3100735  15.18  0.001008911    1.522    0.343
        38  -8.4318    163.3091     95.6435   9.3595922490e+01   3.0411459746e+01    0.1640859     0.122109 -75.93 0.0007042595    1.729    0.422
        39  -9.1975    134.4551     94.7020   1.0021730903e+02   3.7254035418e+01    0.2820612     0.233363  89.67 0.0008211402    1.484    0.326
        40 -12.4076    232.1400     60.4341   7.2259586652e+01   1.9776490695e+01     1.225715    0.5317404 -43.21    0.0038958    2.103    0.524
        41 -10.6282    158.4973     89.2634   9.2912455459e+01   3.2795761768e+01    0.5251514    0.3729993  20.09  0.002242217    1.961    0.490
        42 -10.1940    160.4346    128.3106   1.0275439077e+02   2.4321237517e+01    0.3677996    0.2870011 -66.69  0.001705715    1.441    0.306
        43  -8.4057     30.5142    229.4392   1.4690161783e+02   2.3812907709e+01    0.1122901   0.08283309  78.74 0.0001026049    1.045    0.043
        44 -10.1936    142.0027     86.3369   9.5957008120e+01   3.7216204738e+01    0.3062183    0.2908366 -80.64 0.0006736919    1.109    0.098
        45 -11.9816    194.5780     60.9758   7.7986415304e+01   2.8815998800e+01     0.999544    0.5241188  32.52   0.00342719    3.502    0.714
        46  -9.2379    203.0227     80.6228   8.1693827407e+01   2.3474065217e+01    0.3158265    0.2201044 -84.83 0.0007558555    1.812    0.448
        47 -11.6048    156.7628     78.3844   9.0212556322e+01   3.5235133391e+01     0.397651    0.3231801 -44.39 0.0007663952    1.247    0.198
        48  -9.0295    151.1693     71.8634   8.9568037933e+01   3.7730401981e+01    0.2282048    0.2038337 -75.07 0.0004488196    1.228    0.186
        49 -10.0236    222.8291     69.0737   7.5627193523e+01   2.0613389089e+01    0.4545035    0.2031223  60.03  0.001832382    2.240    0.554
        50 -12.3591      7.4875    210.0004   1.4948400433e+02   3.0104931086e+01    0.7950615    0.3511277  74.96  0.004445544    2.068    0.516
        51  -9.1045    144.5140     69.4873   9.0390314636e+01   3.9714454099e+01    0.1472708      0.14449  61.02 0.0001621746    1.028    0.027
        52  -9.4094    250.0210     67.0338   7.1490102053e+01   1.4693511031e+01    0.3090263    0.1938219 -30.80  0.001527445    1.731    0.422
        53 -12.6636     12.0856    205.8503   1.4840683065e+02   3.0500939672e+01    0.8174561    0.3699699  71.74  0.004534097    2.060    0.515
        54  -9.9328    175.3849    202.2897   1.1513762264e+02   5.8699028503e+00    0.2353009    0.2071047  53.34 0.0002686113    1.109    0.098
        55 -13.8590     41.0771    182.1301   1.4077481285e+02   3.2497936381e+01       1.6705     1.145401 -26.55  0.001426856    2.899    0.655
        56 -10.4321    243.7186     57.8746   7.0202353435e+01   1.7505108718e+01     0.474965    0.2591211 -44.06   0.00108144    1.651    0.394
        57  -9.6829    247.9932     54.0590   6.8841533277e+01   1.7115374249e+01    0.4275466    0.2078732 -37.69  0.001592964    1.937    0.484
        58 -10.0838    144.3766     59.4082   8.7358630296e+01   4.1420768428e+01    0.3218424    0.2437708 -52.08 0.0006559273    1.464    0.317
        59  -8.7604    191.4974    152.0151   1.0153123149e+02   1.2386654855e+01    0.2214443    0.1305878 -63.96 0.0006190542    2.594    0.615
        60  -8.7776    133.9722     59.6775   8.9882192192e+01   4.3787062610e+01    0.2531572   0.09446565  36.39 0.0007048527    4.405    0.773
        61  -8.7927    192.2795    144.0932   9.9555843043e+01   1.3812490859e+01    0.2122042     0.195001 -48.17 0.0004696763    1.087    0.080
        62  -9.5332    133.1254    141.8096   1.1245508854e+02   2.7232861324e+01    0.8887859    0.2082179 -54.85  0.001848898    7.163    0.860
        63  -9.5529    129.1038     56.8605   9.0180899764e+01   4.5334576223e+01    0.2058717    0.1966954  89.64 0.0003614536    1.171    0.146
        64  -8.7291    135.5267     51.9825   8.7079813843e+01   4.4633244294e+01    0.2083633    0.1404634 -34.86  0.001009737    1.538    0.350
        65  -9.0725    100.9937    176.0091   1.2676660315e+02   2.5376776215e+01    0.1916089    0.1722675  87.63  0.001111869    1.021    0.020
        66  -8.7396    179.9034     51.0000   7.7778016466e+01   3.4002228967e+01    0.2427449   0.07896979  60.36 0.0007979489    2.911    0.657
        67  -9.0799    174.3201     48.9371   7.8184912117e+01   3.5697839139e+01     0.248219    0.1920934 -81.21  0.001155099    1.453    0.312
        68  -8.7452    158.6910    142.3382   1.0650365286e+02   2.1667466125e+01    0.1612898    0.1234394 -87.29 0.0004649454    1.684    0.406
        69 -10.1534    234.9427    173.6379   9.7771696150e+01  -5.5619259360e-01    0.3105467    0.2404155  63.22  0.001640192    1.701    0.412
        70  -9.3191    191.2023     37.8550   7.2365663091e+01   3.3010398231e+01    0.4792551     0.223603 -56.30  0.001838471    2.750    0.636
        71  -8.0715    106.2740     54.2999   9.5365430234e+01   5.0568718045e+01    0.1376819    0.1027361   7.00 0.0002453474    1.533    0.348
        72 -10.3421    204.9447     39.0049   7.0693754310e+01   2.9446276661e+01    0.3364557    0.2132013 -61.09 0.0009544321    1.676    0.403
        73  -8.6527    186.7246     30.2528   7.0998084780e+01   3.5100233672e+01    0.3006352    0.1454315 -45.02 0.0009942399    2.153    0.535
        74  -8.5908    121.5317    147.5398   1.1654568508e+02   2.8225701613e+01    0.1493804    0.1430066 -80.39 0.0002866194    1.031    0.030
        75  -9.6344    196.7424     43.3855   7.2997224626e+01   3.0879053793e+01    0.5643505    0.2410616 -57.14  0.001533413    3.361    0.703
        76 -13.3548     51.4145    173.6246   1.3758595591e+02   3.3184531069e+01     1.077103    0.9211503 -58.28  0.002709112    1.337    0.252
        77 -10.1118     69.6584    145.3204   1.2912630595e+02   3.7401191786e+01    0.3336863    0.2499812 -83.79   0.00125362    1.318    0.241
        78 -11.0585    249.0779    166.2530   9.3713002814e+01  -1.9335144502e+00    0.5421742    0.3466328 -28.56  0.002763894    1.496    0.332
        79  -9.5649    216.0902    168.8073   1.0028749434e+02   3.9727268988e+00    0.3155739    0.2316695  64.40  0.001268179    1.750    0.429
        80  -9.3018    211.9433    166.4579   1.0058983335e+02   5.2476002603e+00    0.3786146    0.2344266  68.88  0.001179719    2.739    0.635
        81 -10.1374     66.4937    144.4682   1.2977788771e+02   3.8033924530e+01    0.4669798    0.2840449 -71.10  0.001421342    1.560    0.359
        82 -12.7722    210.9026    235.6096   1.1397593062e+02  -6.0753692266e+00     2.940694    0.3019605  41.06  0.006600719    8.822    0.887
        83 -10.4646    186.8964    138.6856   9.9416299723e+01   1.6121197373e+01    0.3121887    0.2706504  33.50 0.0005458441    1.214    0.176
        84  -8.1831    119.3653    132.5029   1.1378130287e+02   3.2116961852e+01     0.150826    0.1395647 -61.77 0.0001129763    1.039    0.037
