#   1 NUMBER                 Running object number                                     
#   2 MAG_AUTO               Kron-like elliptical aperture magnitude                    [mag]
#   3 X_IMAGE                Object position along x                                    [pixel]
#   4 Y_IMAGE                Object position along y                                    [pixel]
#   5 X_WORLD                Barycenter position along world x axis                     [deg]
#   6 Y_WORLD                Barycenter position along world y axis                     [deg]
#   7 A_WORLD                Profile RMS along major axis (world units)                 [deg]
#   8 B_WORLD                Profile RMS along minor axis (world units)                 [deg]
#   9 THETA_WORLD            Position angle (CCW/world-x)                               [deg]
#  10 FWHM_WORLD             FWHM assuming a gaussian core                              [deg]
#  11 ELONGATION             A_IMAGE/B_IMAGE                                           
#  12 ELLIPTICITY            1 - B_IMAGE/A_IMAGE                                       
         1 -12.1648    243.9610     93.3293   5.8238513895e+01   1.1752013542e+01     2.965615     0.796294 -34.97  0.009663412    3.259    0.693
         2 -13.1003    241.1548     52.7917   4.8814418577e+01   1.8508382567e+01     2.444096      1.56507  61.78   0.01261854    1.658    0.397
         3 -13.4497    239.3651      6.4653   3.8043139123e+01   2.4712173386e+01     2.386504     1.000292  68.98   0.01119482    2.253    0.556
         4 -12.8475    244.7193     25.1489   4.1891321624e+01   2.1349047797e+01      1.67398     1.510905 -26.59   0.01079809    1.290    0.225
         5 -10.4101    182.9098     32.8533   5.1181449576e+01   3.5502251702e+01      1.05746    0.3687761 -48.17  0.003451086    3.465    0.711
         6 -10.5125    208.4021     26.2513   4.5913872654e+01   2.9847042344e+01    0.8238065    0.3818262 -59.55  0.003111458    2.660    0.624
         7 -10.3625    160.1684     10.2795   4.7634576655e+01   4.3914734269e+01    0.6866692    0.4966847 -43.01  0.003674895    1.478    0.323
         8 -10.1717    154.5055      9.5280   4.8254183202e+01   4.5433714040e+01    0.2936294    0.2112896  46.77  0.001132851    1.335    0.251
         9 -10.1761    146.0329      7.3533   4.8880772710e+01   4.7785468494e+01    0.3610709    0.1970023  49.44  0.001699384    1.668    0.400
        10  -8.2866    133.3195      4.6990   5.0137427972e+01   5.1191975509e+01    0.1340094    0.1010641 -68.49 0.0007024478    1.624    0.384
        11  -9.8626    147.0361      2.0802   4.6921722138e+01   4.7998418486e+01    0.3611007    0.2101164  80.97  0.001351129    1.832    0.454
        12  -9.6446      1.9269    226.9342   1.3093233324e+02   2.6997534723e+01     0.286686    0.1192822 -69.34  0.001756415    2.356    0.575
        13 -12.9623    240.6503    242.1488   8.9240085867e+01  -9.3205685603e+00     1.955392     1.218538  24.54   0.01280461    1.270    0.213
        14 -11.3671    220.9375    242.7299   9.2726805249e+01  -6.5388926613e+00    0.6351665    0.5243664 -55.56  0.004311883    2.056    0.514
        15 -11.1229    211.6894    249.1614   9.5312957857e+01  -5.9240345803e+00    0.9320439    0.4501624  53.16  0.004150546    3.588    0.721
        16 -10.7994     27.3115    208.4940   1.2554869817e+02   2.8019829858e+01    0.3388347    0.2795857 -46.39   0.00147565    1.871    0.466
        17  -9.0431     18.2802    223.5633   1.2804265653e+02   2.6038506124e+01    0.1272177   0.09654582  38.17 0.0009226764    1.627    0.385
        18  -9.7643    249.5431    220.1974   8.4080600582e+01  -8.0703824900e+00    0.2772632    0.1755049   4.35  0.001672569    1.522    0.343
        19  -7.8204      5.3761    215.2897   1.2984285878e+02   2.8856982818e+01   0.09038173   0.07563294 -60.27 0.0007020102    1.730    0.422
        20  -7.7348    150.4894    217.4621   1.0213952612e+02   8.5520908443e+00     0.130771    0.1103351  45.59 0.0002176268    1.030    0.030
        21  -9.8827     11.0281    206.6962   1.2841704989e+02   2.9999412289e+01    0.2714469    0.1506557  56.36  0.001389115    1.460    0.315
        22 -11.4925     11.9949    203.4772   1.2806490182e+02   3.0547519021e+01    0.7740096    0.2951309  88.65  0.003967658    2.431    0.589
        23 -12.2751     54.0032    195.2974   1.1928121014e+02   2.7678851275e+01    0.9949062    0.6307701  69.49  0.005927978    1.413    0.292
        24  -9.1994    246.8359    196.0026   8.0148846290e+01  -4.5911751933e+00    0.2204286     0.163044  24.12 0.0007235062    1.216    0.178
        25  -7.7074    153.0000    198.0154   9.8627443745e+01   1.1555508254e+01    0.2048122   0.07895664 -48.98 0.0007982674    2.914    0.657
        26  -7.3039    117.6990    190.3173   1.0499848374e+02   1.9299847299e+01    0.1396579   0.09770033  71.83 0.0004966483    1.619    0.382
        27  -8.0092    225.4840    177.0257   8.0229381261e+01   1.7605046937e+00     0.186941     0.125858 -30.89 0.0003884143    1.456    0.313
        28  -7.8290    108.6239    158.7651   1.0194964497e+02   2.7706024542e+01    0.1918563    0.1324036 -70.60 0.0005140671    1.551    0.355
        29  -8.5995    232.5836    153.7043   7.4042592476e+01   4.1679135507e+00     0.268815    0.1267029 -31.10  0.001133562    2.078    0.519
        30  -7.7397     90.4687    136.4594   1.0245322872e+02   3.5961406908e+01    0.1447921    0.1315676 -86.94 0.0001721902    1.044    0.042
        31  -8.0305    220.4876    112.5419   6.6640833702e+01   1.3624739024e+01    0.2231571    0.1381429 -24.69 0.0008787716    1.726    0.421
        32  -8.8310    219.3272    109.6796   6.6137750309e+01   1.4378755338e+01    0.2655916    0.1272679 -43.68 0.0008759788    2.043    0.510
        33 -10.7284    165.8397    247.1127   1.0327135823e+02   1.4265855283e+00     0.351524    0.2698288  27.42  0.001361012    1.205    0.170
        34 -12.3122     35.3694    215.3185   1.2451461249e+02   2.5799262327e+01     1.162163     0.576335  71.04  0.005850241    1.820    0.451
        35  -8.5602    118.0118    247.5077   1.1208494409e+02   8.8248305518e+00    0.1761447   0.07363044  55.56  0.000810063    2.501    0.600
        36 -12.8461    243.1639     64.9119   5.1502671563e+01   1.6305173188e+01      1.96124     1.298027  36.14  0.009583412    2.027    0.507
        37 -10.9371    217.7798     96.8392   6.3183310740e+01   1.6948382569e+01     0.646746    0.4320213 -36.19  0.003054272    1.402    0.287
        38  -9.8081    202.4681     88.1730   6.3585637870e+01   2.2041592563e+01    0.3032938    0.2160372 -58.14  0.001388143    1.573    0.364
        39  -9.8742    220.6704     81.6737   5.8835448384e+01   1.8823869046e+01    0.2957937    0.2251197  65.38  0.001496522    1.421    0.296
        40  -8.5713    133.4622     84.4827   7.7594837096e+01   3.9359079502e+01    0.1539839    0.1512518 -35.14 0.0001863929    1.020    0.020
        41  -7.5979    187.6629     87.3127   6.6112842149e+01   2.5788262973e+01    0.1612029     0.120638 -73.05 0.0002183333    1.690    0.408
        42 -10.0556    162.1186     77.7154   6.8640433003e+01   3.3836090985e+01    0.3146246    0.2146328 -53.41  0.001366068    1.622    0.384
        43 -11.3790    166.3908     73.4636   6.6445438413e+01   3.3539137526e+01     0.756421    0.6548761 -86.63  0.003790044    1.298    0.229
        44  -9.6591    146.4940     75.2448   7.1486912316e+01   3.8102837054e+01     0.508944    0.3243975 -68.71  0.001784454    2.516    0.602
        45  -8.6062    134.2577     75.7313   7.4692346645e+01   4.0895984426e+01     0.252043    0.1308296 -27.15 0.0009017721    2.418    0.586
        46  -8.6309    111.8900     72.6010   7.9842726575e+01   4.6428633156e+01    0.2520574    0.1942138 -29.42 0.0005408627    1.305    0.234
        47 -11.0376    179.6503     71.3377   6.3133017223e+01   3.0581330826e+01    0.6719517    0.3366568  66.41  0.002452114    2.436    0.590
        48 -11.6231    185.5238     54.4239   5.7118543715e+01   3.1813781435e+01     1.259032    0.7115824 -15.80  0.004202968    2.462    0.594
        49 -11.5981    180.1364     54.8725   5.8191989819e+01   3.3122434181e+01     1.778161    0.7209476 -48.57  0.006008842    2.920    0.658
        50  -9.1778    213.6544     66.4548   5.5941453282e+01   2.2930803174e+01    0.2664853    0.1472703  67.51 0.0008270759    2.008    0.502
        51  -9.2543    192.5013     65.0134   5.8965706475e+01   2.8390402263e+01    0.2332538    0.1465607 -34.07 0.0005688361    1.573    0.364
        52 -10.3202    162.6193     61.7860   6.3677229704e+01   3.6484017859e+01    0.7090776    0.4255923 -70.56  0.002551371    2.852    0.649
        53  -9.4348    209.5101     62.3216   5.5465863395e+01   2.4582453104e+01    0.4618815      0.32962  62.94  0.002275787    1.434    0.303
        54  -8.9544    203.4698     56.5229   5.4809346414e+01   2.6960461273e+01     0.362482    0.2373735 -72.43 0.0008807947    1.914    0.477
        55  -8.6475      9.6447    244.3053   1.3041958147e+02   2.3162972619e+01    0.1121431   0.04791524  62.95 0.0007040862    1.717    0.417
        56  -9.9033    220.5195     47.0293   4.9884361021e+01   2.4146218479e+01    0.3240886    0.2334403 -25.39  0.001657849    1.490    0.329
        57  -9.7922    213.5069     46.2021   5.0582742657e+01   2.5970840147e+01    0.5292327    0.3293406  57.45  0.002535291    1.628    0.386
        58  -9.6915    188.3466     37.9562   5.1858313565e+01   3.3438158795e+01    0.3647082    0.2760399  35.18 0.0006466094    1.540    0.351
        59  -9.5617    178.9838    249.1682   1.0115003857e+02  -9.2059956116e-01    0.2630776    0.1814135 -35.57  0.001705326    1.807    0.447
        60  -8.8457    206.7403     40.6783   5.0005866405e+01   2.8408641598e+01    0.2292543    0.2016723  42.34 0.0006174861    1.278    0.218
        61 -10.1100    200.0355     34.4237   4.9190839700e+01   3.0922612746e+01    0.6746244      0.33658 -63.50  0.002148775    2.747    0.636
        62  -9.3591    215.3366     32.7910   4.6818942372e+01   2.7317270919e+01    0.2799496    0.2515932  -5.68 0.0007217786    1.340    0.254
        63  -8.1453    125.1872    246.4039   1.1065612725e+02   7.9062694744e+00    0.1762475   0.08594514  49.08 0.0009421057    1.676    0.403
        64  -8.7788     49.9703     29.9579   8.5780437260e+01   6.4846598623e+01    0.1942734    0.1618455 -15.11 0.0004183993    1.028    0.027
        65  -9.3993    142.0233     28.8073   5.7070569546e+01   4.6482765416e+01    0.2507778    0.2128626 -22.16 0.0008642838    1.244    0.196
        66  -9.2621     21.6176    238.7768   1.2826028196e+02   2.2911406082e+01     0.148087   0.07468271  84.07 0.0009562824    1.685    0.406
        67  -9.3390      4.0520    250.1776   1.3150386833e+02   2.2706804687e+01    0.1854604   0.09340047  45.44  0.001334929    1.661    0.398
        68 -10.6794     14.2675    230.0021   1.2904229838e+02   2.5249094031e+01    0.5330502          nan  48.90  0.001947389    5.308    0.812
        69  -9.6329      4.1986    231.4163   1.3075021293e+02   2.5970226658e+01     0.221346   0.09816162  62.25  0.001431053    1.666    0.400
