#   1 NUMBER                 Running object number                                     
#   2 MAG_AUTO               Kron-like elliptical aperture magnitude                    [mag]
#   3 X_IMAGE                Object position along x                                    [pixel]
#   4 Y_IMAGE                Object position along y                                    [pixel]
#   5 X_WORLD                Barycenter position along world x axis                     [deg]
#   6 Y_WORLD                Barycenter position along world y axis                     [deg]
#   7 A_WORLD                Profile RMS along major axis (world units)                 [deg]
#   8 B_WORLD                Profile RMS along minor axis (world units)                 [deg]
#   9 THETA_WORLD            Position angle (CCW/world-x)                               [deg]
#  10 FWHM_WORLD             FWHM assuming a gaussian core                              [deg]
#  11 ELONGATION             A_IMAGE/B_IMAGE                                           
#  12 ELLIPTICITY            1 - B_IMAGE/A_IMAGE                                       
         1 -14.6040    248.3986    115.0189   5.7500054221e+01   7.9081901540e+00     6.777364     2.057914 -29.99   0.02032638    4.256    0.765
         2 -15.7908    227.5282     49.0169   4.4763486968e+01   2.2630391171e+01     3.718853     2.323123 -17.27   0.01767425    2.162    0.537
         3 -10.7063    125.2606     39.1039   5.8777775097e+01   4.8776490296e+01    0.4252414    0.2798336 -59.11  0.001933373    2.077    0.518
         4 -11.6318    130.5830     22.7899   5.1844766017e+01   4.9520920050e+01     0.717528     0.475841 -59.75  0.001379726    1.970    0.492
         5 -10.3850    134.4824     20.0740   5.0135562980e+01   4.8873513066e+01    0.5813729    0.2722673 -11.78  0.002286778    3.007    0.667
         6 -11.3069    119.1899     10.0315   4.9525799308e+01   5.3506467572e+01     0.671419    0.3807641  42.79  0.003358158    1.636    0.389
         7  -8.8839    156.2143      8.7574   4.2869372585e+01   4.4659074023e+01     0.296186    0.1855771  -5.19  0.001200614    2.083    0.520
         8 -17.1700    247.1875     66.4988   4.6596635308e+01   1.5846693583e+01     7.429966     4.037382  56.16    0.0153515    2.075    0.518
         9 -15.6442    248.7955     51.5862   4.3053227301e+01   1.7664842341e+01     4.428171     1.512312 -58.81    0.0129551    5.531    0.819
        10  -9.7589    192.2827    193.9968   8.4627775530e+01   4.5880346286e+00    0.7872766    0.3906522 -60.11  0.002463265    5.259    0.810
        11  -9.3750    235.5134    197.5476   7.7121213890e+01  -3.2016704606e+00    0.2482006    0.1905856  50.54 0.0008114592    1.792    0.442
        12  -9.9830    231.4395    196.8364   7.7712416586e+01  -2.4571464023e+00     0.277976    0.2456144  -4.06  0.001026974    1.130    0.115
        13 -10.1686    172.2238    195.8189   8.9090047183e+01   7.8414933726e+00    0.2404954    0.2312691 -36.30 0.0003871596    1.148    0.129
        14  -8.3277    160.3366    194.6931   9.1409127167e+01   1.0196372499e+01    0.2070961     0.164021  76.02 0.0007460709    1.704    0.413
        15  -8.2095    124.2554    194.2950   9.9285856362e+01   1.6681899678e+01    0.1798727    0.1500153  70.00 0.0004705523    1.255    0.203
        16 -11.2975    216.7078    188.9615   7.8891798479e+01   1.1970834799e+00    0.5545884    0.4286683  72.40  0.002317812    2.314    0.568
        17 -11.1064    210.1846    180.5262   7.8448024496e+01   3.7462427415e+00    0.5716459     0.232866  49.61  0.001819929    3.160    0.684
        18  -9.8495    204.3901    190.0133   8.1460535633e+01   3.1451259340e+00    0.2496333    0.1892294  52.08 0.0008315339    1.611    0.379
        19  -9.0127     56.9187    187.3539   1.1362102126e+02   2.8447271558e+01    0.2130226    0.1611873 -70.84 0.0003136036    1.250    0.200
        20 -10.2886    207.1680    183.1797   7.9566777133e+01   3.8254469440e+00    0.4846026    0.3130482  71.69  0.001797168    4.067    0.754
        21  -9.7266    202.4665    183.4973   8.0550096905e+01   4.6092731200e+00    0.2870587    0.2128233  58.17  0.001317275    1.804    0.446
        22 -10.4329    194.9293    180.1321   8.1376383917e+01   6.5776554813e+00    0.6060175    0.3318093  42.62  0.002235427    1.828    0.453
        23  -7.9242    245.0276    243.5327   8.3614617044e+01  -1.0665093165e+01    0.1580074    0.0933601  29.63 0.0005482417    1.475    0.322
        24 -12.3956     21.1145    152.9462   1.1831037163e+02   4.0420328157e+01    0.8165891    0.5188112  50.36  0.004770142    1.631    0.387
        25 -11.8485     23.4806    147.2547   1.1709504851e+02   4.1575530929e+01    0.7383615      0.36876  48.85  0.003741866    2.127    0.530
        26  -8.5319    179.4880    178.0109   8.4137317980e+01   9.8565570784e+00      0.21351    0.1402212 -43.69 0.0004359017    1.564    0.361
        27  -9.1187    192.6054    153.7557   7.6230529876e+01   1.1978669657e+01    0.2096241    0.1356501 -48.61 0.0009446047    1.638    0.389
        28  -8.5589    216.0270    233.0500   8.6998834038e+01  -5.3148645752e+00      0.18027    0.1459742  14.03 0.0003135252    1.032    0.031
        29  -9.6384    202.8416    150.8489   7.3525842568e+01   1.0486983585e+01    0.4957382    0.3351406 -70.63  0.002036945    2.639    0.621
        30 -11.6809      8.5443    138.3771   1.1996672965e+02   4.4907069396e+01    0.7161718    0.3729694 -71.46  0.003919825    1.492    0.330
        31  -9.6736    133.9226    147.5161   8.8138484945e+01   2.5253623818e+01     0.629117    0.2167884 -54.53  0.001897042    3.415    0.707
        32  -9.0783    132.5521    139.2927   8.6630283662e+01   2.7409136096e+01    0.4411194    0.1503625 -53.87   0.00130387    3.409    0.707
        33  -8.6568    217.1848    148.8165   7.0338988899e+01   8.0506842127e+00    0.2827127    0.2438868  59.80  0.001559726    1.422    0.297
        34  -9.1786    204.7991    147.2512   7.2328909619e+01   1.0771636620e+01    0.3672096    0.2401119  72.53  0.001465849    2.814    0.645
        35 -13.1830     61.1639    137.7556   1.0561449953e+02   3.9819076766e+01     1.727152     1.445819   8.79   0.00533195    1.522    0.343
        36  -9.3945    143.4997    145.0068   8.5226719721e+01   2.3896082295e+01     0.372202    0.1494102 -53.39  0.001217839    2.826    0.646
        37  -9.2833    195.3591    143.0786   7.3234815221e+01   1.3485232592e+01    0.2896125    0.2220077  51.78 0.0009434204    1.437    0.304
        38 -11.3030    213.6520    137.9103   6.8505828392e+01   1.0727862621e+01     1.038652    0.7695603  82.64  0.004797616    2.181    0.542
        39  -9.0331    223.9866    128.9109   6.4570238913e+01   1.0281549621e+01     0.542724    0.2719898 -21.37  0.001965419    2.903    0.655
        40  -9.0063    222.2646    136.9022   6.6717608456e+01   9.1979427053e+00    0.3301271    0.2448598 -74.07  0.001557274    2.089    0.521
        41  -9.3164    221.4750    133.4839   6.6069431983e+01   9.9656369381e+00    0.2905214    0.2550431 -52.12 0.0008926463    1.229    0.187
        42  -7.6212    169.2534    141.6377   7.8437306669e+01   1.9252904484e+01    0.1532592    0.1209246 -72.35 0.0003057625    1.620    0.383
        43  -9.9687    143.1641    137.2412   8.3509566813e+01   2.5704101843e+01    0.4947401    0.3003073 -68.94  0.001822378    2.555    0.609
        44  -9.4355    184.4689    138.3590   7.4364364750e+01   1.6695841864e+01    0.2684146    0.1454458  46.43  0.001090018    1.919    0.479
        45 -10.5921    204.0536    127.6387   6.7875083901e+01   1.4622437820e+01    0.8191227    0.4458563 -26.08  0.002679661    2.164    0.538
        46 -10.4189    210.6320    126.0225   6.6261011870e+01   1.3539143908e+01    0.4887448    0.3868969  75.93  0.002348277    1.669    0.401
        47 -11.4459    197.2738    127.4603   6.9138829532e+01   1.6102541489e+01    0.6983275    0.6316391 -72.17 0.0006583918    1.267    0.211
        48  -9.0810    189.4819    150.7722   7.6200628924e+01   1.3190719450e+01    0.2787074     0.205056  39.57 0.0007223273    1.390    0.281
        49  -9.6429    187.2977    131.4283   7.2110065694e+01   1.7474294479e+01    0.3665706    0.2786065  63.21  0.001735162    1.579    0.367
        50  -8.9930    178.3522    110.3317   6.8645820462e+01   2.3663023539e+01    0.3914737    0.2360235  30.89   0.00119365    2.179    0.541
        51 -12.2057    184.5124    123.1547   7.0646407524e+01   1.9728390268e+01     1.275713    0.6008039 -32.71  0.004629105    2.324    0.570
        52  -9.8837    178.0628    122.1194   7.1740621478e+01   2.1366846338e+01     0.404568    0.3121558 -69.50 0.0005233148    1.629    0.386
        53  -9.3936    177.9729    116.9781   7.0450089322e+01   2.2423596543e+01    0.3634868    0.2695981 -58.07  0.001029201    1.506    0.336
        54  -9.8950    174.1522    113.8430   7.0454145507e+01   2.3919406776e+01    0.4301593      0.32854 -64.25  0.001965026    1.546    0.353
        55 -10.7520    198.1034    133.8886   7.0524249754e+01   1.4688073003e+01    0.4934137    0.4139127  31.19  0.002111567    1.257    0.205
        56  -9.2507    218.9101    124.8037   6.4488530158e+01   1.2045518151e+01    0.3580827    0.2382795 -36.30   0.00173067    1.366    0.268
        57 -10.2512    136.0910    129.9200   8.3513164129e+01   2.8825087414e+01    0.5970998    0.2487424 -38.84  0.001655897    2.706    0.630
        58  -9.3253    140.9669    127.9075   8.1793869155e+01   2.8256471919e+01    0.2653549    0.2507527  62.94 0.0003337661    1.106    0.096
        59 -10.4564    160.4111    128.6985   7.7317635845e+01   2.3895433612e+01    0.4446172    0.3094217 -49.03  0.001865298    1.442    0.306
        60 -11.3238     49.1531    141.5944   1.0955463030e+02   4.0340124986e+01     0.414858    0.3675511  29.60 0.0008923089    1.340    0.254
        61  -8.7168    215.7028    120.3238   6.3983574556e+01   1.3521545484e+01    0.2692202    0.2503384   3.86  0.001090079    1.128    0.113
        62  -9.3230    215.3141    117.3215   6.3328402109e+01   1.4147984792e+01    0.3565955    0.2458247  52.08   0.00116722    1.600    0.375
        63 -11.1026    167.5786    115.9249   7.2434566050e+01   2.4985652577e+01    0.5562447     0.438408  46.18  0.002668044    1.311    0.237
        64 -10.2079    135.4032    121.5868   8.1610173484e+01   3.0851317118e+01    0.6793795    0.1943627 -48.31   0.00191583    3.548    0.718
        65  -9.6381    145.8034    106.8905   7.5107090668e+01   3.1799155277e+01    0.2773469     0.228518  41.34 0.0007370068    1.253    0.202
        66  -8.4853     87.0598    101.0471   8.9869186930e+01   4.4913306208e+01     0.213087    0.2055841 -52.28 0.0003828553    1.057    0.054
        67 -10.0293    198.8569    175.1034   7.9559848406e+01   6.7631381220e+00    0.3582032    0.2334728   0.87  0.001583834    2.146    0.534
        68  -7.7251    103.3023    173.2857   1.0072406211e+02   2.4888323882e+01    0.1352223    0.1135914 -17.91 0.0002431849    1.558    0.358
        69 -10.1374    156.6733     83.3269   6.5838785940e+01   3.3999092133e+01    0.3832051    0.2551323 -60.59  0.001613347    1.859    0.462
        70  -9.4030    153.2774     81.9622   6.6198852670e+01   3.5065465653e+01    0.2788835    0.2262031  51.70 0.0006870393    1.252    0.201
        71 -10.3054    104.0111     81.1027   7.8866975250e+01   4.6182446613e+01    0.2838988     0.229407 -31.23 0.0003056508    1.206    0.171
        72  -8.2493     57.9604    171.9881   1.1154014686e+02   3.1888314340e+01    0.1851079    0.1628113 -86.65  0.001144938    1.053    0.050
        73  -8.0353    121.4299    171.4415   9.6022512987e+01   2.2163476094e+01    0.1433586    0.1380913  74.01 8.910592e-05    1.004    0.004
        74  -7.6450    115.6441     79.7248   7.5054157121e+01   4.4068001758e+01    0.1556118    0.1181414   9.13 0.0007005507    1.649    0.394
        75  -8.9544    185.6155    168.9766   8.0987873466e+01   1.0418745201e+01    0.2582217    0.2105725  74.37  0.001067975    1.693    0.409
        76 -10.8310    136.0479     74.5602   6.8021795369e+01   4.0508138160e+01    0.4912307    0.2921344 -23.00  0.001960013    2.095    0.523
        77 -12.2429    137.3575     65.8653   6.4940015072e+01   4.1759974666e+01    0.7555922    0.6275934 -11.31  0.003137311    1.324    0.245
        78 -10.4273    153.4365     57.6876   5.8750437578e+01   3.9233027888e+01    0.6003746    0.2266766 -41.00  0.002114696    2.637    0.621
        79  -9.5206    150.3255     56.2904   5.8960364984e+01   4.0216148231e+01    0.2317948    0.2064711  27.29 0.0002504007    1.188    0.158
        80 -11.3423    152.9258     63.0906   6.0540836499e+01   3.8484199473e+01    0.7713754    0.5238832  19.93  0.003297946    2.069    0.517
        81  -9.8686    125.2460     49.4193   6.2397003256e+01   4.7286730812e+01    0.3635885    0.1510005 -43.99  0.001321822    2.702    0.630
        82  -9.4580    213.4843    167.4611   7.5103926323e+01   5.4247379056e+00    0.2849317    0.2403234  63.79 0.0007240512    1.586    0.370
        83  -9.4173    214.7135    215.6025   8.4252401581e+01  -2.6374016619e+00    0.2245097     0.216883  89.16  0.001003731    1.561    0.359
        84  -9.8871    181.3652     34.6973   4.6966963417e+01   3.5556238594e+01    0.3571547    0.2478274 -26.31  0.001821453    1.566    0.361
        85 -11.2803    145.5723     32.0962   5.2087973253e+01   4.4783543342e+01    0.5920186     0.465188 -19.79  0.003195093    1.386    0.278
        86 -10.4344    184.8257     28.2375   4.4671088859e+01   3.5499116397e+01    0.3982049    0.3561275 -34.98  0.001139461    1.194    0.163
        87 -10.2422    234.3566    208.8774   7.9453974333e+01  -4.6771296465e+00    0.2175292     0.191136  -2.05 0.0003370549    1.174    0.148
        88  -9.9165    169.1817     36.0119   4.9203245257e+01   3.8420193325e+01    0.3238445    0.2191649  59.35  0.000729688    1.401    0.286
        89  -8.9957    202.9290    210.0565   8.5496618154e+01   1.0262442277e-01    0.1927833    0.1680003  12.08  0.000340425    1.038    0.036
        90  -9.3677    204.0145    205.4308   8.4449135559e+01   6.5990115084e-01    0.2302479    0.1835989 -27.32 0.0001977763    1.260    0.207
        91  -8.5312    123.9912    206.0160   1.0115459035e+02   1.4318654438e+01    0.1910439    0.1694783  59.74            0    1.066    0.062
        92  -9.8334    204.6644    200.6115   8.3431861549e+01   1.3313494645e+00    0.2724015    0.2014415  -1.90 0.0006737273    1.411    0.291
