#   1 NUMBER                 Running object number                                     
#   2 MAG_AUTO               Kron-like elliptical aperture magnitude                    [mag]
#   3 X_IMAGE                Object position along x                                    [pixel]
#   4 Y_IMAGE                Object position along y                                    [pixel]
#   5 X_WORLD                Barycenter position along world x axis                     [deg]
#   6 Y_WORLD                Barycenter position along world y axis                     [deg]
#   7 A_WORLD                Profile RMS along major axis (world units)                 [deg]
#   8 B_WORLD                Profile RMS along minor axis (world units)                 [deg]
#   9 THETA_WORLD            Position angle (CCW/world-x)                               [deg]
#  10 FWHM_WORLD             FWHM assuming a gaussian core                              [deg]
#  11 ELONGATION             A_IMAGE/B_IMAGE                                           
#  12 ELLIPTICITY            1 - B_IMAGE/A_IMAGE                                       
         1 -10.2243     10.5774     18.5336   1.2163512665e+02   7.0985361315e+01     1.324948    0.4293871 -24.76  0.004053433    7.164    0.860
         2 -10.7987     36.5267      9.6885   1.0416336098e+02   6.9920754474e+01    0.9193789    0.5123833 -30.50   0.00266533    1.560    0.359
         3 -10.6217     19.1817      6.7837   1.1173718753e+02   7.2225542365e+01    0.9012131    0.7518399  87.28  0.005590751    2.953    0.661
         4 -10.8027     23.6522     33.0706   1.2051918091e+02   6.7384780486e+01      1.24697     0.412739 -41.03  0.003112465    2.475    0.596
         5 -10.1301      4.6990     41.4448   1.3186830621e+02   6.6998669390e+01    0.8666895     0.360438 -67.90  0.003614049    2.382    0.580
         6  -9.4715      2.1149     14.7075   1.2474905800e+02   7.2169048744e+01    0.4435481     0.191283 -63.20  0.002211042    2.907    0.656
         7 -10.3734      5.1289      4.6506   1.1877362792e+02   7.3680009893e+01    0.4306393    0.3308618 -11.62  0.001632111    1.177    0.151
         8  -9.7897     60.7491     31.5440   1.0348038434e+02   6.3301835638e+01    0.9719627    0.3606614 -31.97  0.003851037    2.866    0.651
         9 -10.0985     69.3995     40.5218   1.0375415386e+02   6.0467642972e+01     1.064023    0.3634153 -39.39  0.002466423    2.769    0.639
        10  -9.6584     63.1769     21.4274   9.8059025734e+01   6.4448201617e+01     0.484829    0.3753795 -66.86  0.001533407    2.470    0.595
        11 -10.1793     64.3752     13.5514   9.3889902556e+01   6.5298865442e+01    0.5607867    0.3518612  -5.85   0.00268424    1.666    0.400
        12 -10.3097     79.3101     24.0662   9.3221793708e+01   6.1255154754e+01    0.9417762    0.3176903  37.35  0.002990216    3.219    0.689
        13  -9.5588    100.9055     32.8273   8.9898239370e+01   5.5701057319e+01    0.8468067    0.3970226 -29.75  0.002819469    2.183    0.542
        14  -9.3381    110.4916     26.7673   8.4736338137e+01   5.4373295725e+01    0.8761393    0.3728458 -17.45  0.003163966    3.173    0.685
        15  -9.2631    102.9926     21.2093   8.4541816793e+01   5.6743999263e+01    0.4909092     0.227437 -36.06  0.001660694    2.329    0.571
        16  -8.6749    104.2934     15.2805   8.1709698102e+01   5.7120855602e+01    0.4740943    0.2557106   3.60  0.001981904    2.586    0.613
        17  -9.0790     47.1703     19.6967   1.0401918624e+02   6.7087411619e+01    0.5612502    0.2612139 -19.32  0.002371919    2.988    0.665
        18  -9.8665     52.7176     13.3760   9.8570608389e+01   6.7192627666e+01    0.6023238    0.3370355  14.88   0.00305049    2.101    0.524
        19 -10.0093    152.2849     27.1002   7.5389179988e+01   4.3953268141e+01    0.5494522     0.406949  59.67  0.002786111    1.230    0.187
        20  -9.2904    132.4338     17.5423   7.5941061830e+01   5.0126995432e+01    0.3942828    0.2371322  37.43  0.001225679    1.661    0.398
        21  -8.7772    139.6849     18.0148   7.4646548208e+01   4.8233125095e+01    0.3567619    0.2095133   1.96  0.001532838    2.303    0.566
        22  -9.5335    118.8923     20.4993   8.0110763288e+01   5.3143170076e+01    0.5156007    0.2702661 -13.23  0.001467503    2.313    0.568
        23  -9.8595     73.5511     17.2959   9.2219890634e+01   6.3207602724e+01    0.8697265    0.2583059 -30.11  0.003241293    3.353    0.702
        24  -8.6785     71.9752      8.5852   8.8660571534e+01   6.4529716915e+01    0.3708684    0.1984387  -4.90  0.001741324    2.270    0.559
        25  -8.5560     76.9684      6.6818   8.6021965866e+01   6.3783579436e+01    0.2932796     0.180647 -15.01 0.0008022872    1.621    0.383
        26  -8.5701     78.7721      3.0598   8.3687785879e+01   6.3789224573e+01    0.2251071    0.2130279 -13.66 0.0008318275    1.298    0.230
        27  -9.2112     96.1385     15.1311   8.3916947735e+01   5.8941765807e+01    0.5674283    0.2323537 -18.30  0.002231899    2.900    0.655
        28  -7.8964     80.3479     12.2731   8.7534298191e+01   6.2519160519e+01    0.2516693     0.167549 -41.27  0.001343152    1.872    0.466
        29  -9.5265     85.1725     12.9485   8.6275674528e+01   6.1481464352e+01    0.4153115    0.2642849 -51.99  0.001613681    2.510    0.602
        30  -8.3186     85.4118      5.9423   8.2977890594e+01   6.2164304472e+01    0.3868838    0.2880176   8.05  0.002276017    1.277    0.217
        31  -8.6650     88.6107      2.3396   8.0361945659e+01   6.1831181249e+01    0.2578343    0.2002589  19.47  0.001074307    1.153    0.133
        32  -8.5146    124.8949     13.1528   7.5887263715e+01   5.2453985767e+01    0.2588588    0.2470344  40.97 0.0006893166    1.091    0.083
        33  -8.6269    126.7915      9.1863   7.3969739841e+01   5.2362108800e+01    0.2635785    0.1854759  30.60 0.0006819113    1.421    0.296
        34  -9.4856    125.5275      5.2705   7.2728674768e+01   5.3024535132e+01     0.470959    0.2389727  31.09    0.0020309    2.219    0.549
        35  -8.7362    132.5185     10.5144   7.3319077123e+01   5.0802837751e+01    0.2159531    0.1385611 -19.86 0.0005553121    1.722    0.419
        36  -7.8658    141.1882     12.1360   7.2260600025e+01   4.8436264202e+01    0.2274497     0.178615  40.13  0.001231393    1.211    0.174
        37  -9.2413    114.1735      9.8037   7.6975774927e+01   5.5378341764e+01    0.3692546    0.2251612  38.62 0.0003835586    1.508    0.337
        38  -8.7069    110.6087      5.4243   7.6017030098e+01   5.6623282977e+01    0.4110305    0.1862345  -7.88  0.001668888    2.845    0.648
        39  -9.3812    234.5332      6.4392   5.9113649076e+01   2.4943798284e+01    0.3661879    0.2453583 -33.11  0.001327294    1.520    0.342
        40  -7.5818    137.6666      9.3079   7.1895258221e+01   4.9605702227e+01    0.1409294    0.1047284 -70.03 0.0002965925    1.670    0.401
        41  -8.4109    101.9254      8.3065   7.9376241346e+01   5.8362917293e+01    0.2543695    0.1759331 -29.77 0.0007754721    1.590    0.371
        42  -8.1807    103.9204      2.1223   7.6220255167e+01   5.8463032967e+01    0.3298891    0.2055631  26.84  0.001639356    1.590    0.371
        43  -9.1358     96.3960      4.4017   7.9135826724e+01   5.9960111038e+01    0.4011157     0.269165 -39.31  0.002150203    1.816    0.449
        44  -7.3894    131.2820      6.3169   7.1997998731e+01   5.1494689861e+01    0.1452599    0.0919358  34.86 0.0002322264    1.580    0.367
        45  -9.1781    115.2690      4.3078   7.4504552642e+01   5.5611930650e+01    0.2717311    0.2125169 -42.80 0.0006870946    1.534    0.348
        46  -9.5812     63.7691      2.9934   8.8873156734e+01   6.6620370910e+01    0.3343095     0.244151 -47.06  0.001675264    2.051    0.513
        47  -7.4587    151.2349      2.0012   6.7069167742e+01   4.6727887397e+01    0.1670417    0.1189279 -17.87 0.0005937256    1.606    0.378
        48  -7.4021    206.8441      1.6270   6.0328864501e+01   3.2240317641e+01    0.1828289    0.1126407  89.57 0.0002384509    1.537    0.349
        49  -7.9889    135.3433      1.5688   6.9503946451e+01   5.0863366128e+01    0.3616771    0.1113972  63.71  0.001310666    2.649    0.622
        50  -9.6381    140.7458    118.6326   1.0619403446e+02   3.0902736851e+01    0.4565445    0.3457325 -87.63  0.001251561    1.832    0.454
        51  -9.6343    209.1971    249.9084   1.1661825002e+02  -4.6608646906e+00    0.3433696     0.131525  34.25  0.001675389    2.115    0.527
        52  -9.9400    173.8290    248.5181   1.2277391583e+02   1.1347175530e+00    0.2835824    0.2014693  -3.33  0.001746221    1.976    0.494
        53  -9.0186     55.0176    250.5731   1.4421879742e+02   1.8521996888e+01    0.1480775   0.08966061  49.45   0.00103101    1.277    0.217
        54  -8.1166      1.3614    115.8057   1.4500206441e+02   5.1083315635e+01    0.2207979   0.08805003 -78.35  0.001110284    2.031    0.508
        55  -7.6380    181.0903    115.1512   9.5841947467e+01   2.2245108434e+01    0.2290889    0.2001484  15.88  0.000336657    1.220    0.180
        56  -7.6127    153.0124    115.3218   1.0230595974e+02   2.8820564349e+01    0.2207419    0.2028417  54.62 0.0006245766    1.084    0.077
        57 -10.0049     91.6988    112.8774   1.1822282784e+02   4.1866281398e+01     0.535194    0.3747814 -89.80  0.001588729    1.996    0.499
        58  -8.6059     91.7516    104.3463   1.1616625942e+02   4.3798746318e+01    0.6831774    0.3886288  12.39  0.002300761    3.866    0.741
        59 -10.1601     78.0791    112.5967   1.2217920051e+02   4.4107590070e+01    0.6688313    0.3631255 -69.96  0.001879582    2.246    0.555
        60  -9.4470     81.3978     99.8600   1.1822289740e+02   4.6518065422e+01    0.6731375    0.2796937 -52.11  0.002219649    2.239    0.553
        61  -7.3349    167.0362    114.0093   9.8660978113e+01   2.5803160737e+01     0.184645    0.1815756   3.86 0.0003375989    1.028    0.027
        62  -9.1603    238.5094    111.5499   8.4239070118e+01   9.6914033205e+00    0.3420658    0.2105992 -52.60  0.001130044    1.970    0.492
        63  -8.6228    158.8455    112.0600   1.0005705571e+02   2.8121824542e+01    0.3207955     0.221324 -36.36 0.0004859253    1.511    0.338
        64  -9.3422     59.7794    105.4168   1.2622605638e+02   4.8296601553e+01    0.6215696     0.236819  27.34  0.002383303    3.295    0.697
        65  -8.8703     68.4224    102.7824   1.2296258955e+02   4.7767560466e+01    0.3823735    0.2287991 -31.51  0.001717482    2.186    0.543
        66 -10.0037     65.7458    110.9648   1.2553750891e+02   4.6236887007e+01    0.4729787    0.3398874 -87.10   0.00123174    1.624    0.384
        67  -9.6522     59.6483    109.8249   1.2715795617e+02   4.7289685180e+01    0.5016128    0.4565917  14.14  0.001999519    1.278    0.217
        68  -9.8327     14.1252    111.3821   1.4096852264e+02   5.1275493442e+01    0.3952036    0.2103727  77.25  0.001418836    2.200    0.545
        69  -9.0094     13.9406    105.2073   1.4023683949e+02   5.2685694333e+01    0.3722643    0.1511868 -52.06  0.001548255    2.158    0.537
        70  -8.0871    149.7043    111.0972   1.0201074908e+02   3.0446826364e+01    0.3583023    0.1871045 -38.88  0.001372456    2.005    0.501
        71  -9.5928     24.3043    111.7273   1.3807317951e+02   5.0442356797e+01    0.2583807    0.1666878 -46.96 0.0009689743    1.568    0.362
        72  -9.3536     31.9337    109.2312   1.3544917967e+02   5.0374394686e+01    0.3072107    0.2253972  76.74   0.00185565    1.468    0.319
        73  -7.8605    243.3132    109.3334   8.2959818644e+01   9.0156581945e+00    0.1448917    0.1055886   9.45 0.0005990121    1.682    0.406
        74 -10.7807     44.6699    102.4944   1.3037524109e+02   5.0705827291e+01    0.7934359    0.4220583  73.52  0.003128747    3.529    0.717
        75  -8.7525     39.9388    107.1412   1.3268234143e+02   5.0110343093e+01    0.1912439    0.1579536  85.40 0.0004908188    1.239    0.193
        76 -10.0527    139.3529    103.0327   1.0244919419e+02   3.4478633837e+01     0.828877    0.3955315 -48.63   0.00176632    2.256    0.557
        77  -7.7212     23.0116     69.0218   1.3096465760e+02   6.0139902611e+01    0.2412155    0.1518647  60.48 0.0003202327    2.350    0.574
        78 -10.6338     20.7504    101.1503   1.3761063087e+02   5.3130011748e+01    0.9607521    0.4355165  77.80  0.003521075    4.189    0.761
        79  -9.9630     19.8099     84.9317   1.3527306851e+02   5.6859209083e+01     1.173326    0.2157513 -64.06  0.004130261    3.719    0.731
        80 -10.3291     25.6653     77.9853   1.3190850831e+02   5.7977830060e+01    0.6398095    0.3810391  78.70  0.001944224    2.639    0.621
        81 -10.3578     31.9717     64.2015   1.2638006891e+02   6.0459568329e+01    0.9087655    0.3512927 -41.85  0.002419712    2.391    0.582
        82 -10.0023     36.6006     81.2947   1.2873795864e+02   5.6317671420e+01    0.8187593    0.3839406 -24.35  0.003136045    3.937    0.746
        83  -9.4056    149.2693    103.1598   9.9982168892e+01   3.2159504093e+01    0.4266758    0.2835264 -52.58 0.0008079745    1.670    0.401
        84  -8.4658    149.9549     96.8621   9.8059919529e+01   3.3252997195e+01    0.4734107     0.269673  36.46  0.001837124    1.962    0.490
        85  -8.0946     36.4916    105.4756   1.3345453817e+02   5.0825861687e+01    0.1270785    0.1078544 -67.22 -4.326617e-05    1.006    0.006
        86  -9.4586      5.5267    103.6847   1.4252478095e+02   5.3548919225e+01    0.3778621    0.2633279  51.50  0.001557053    1.628    0.386
        87  -7.9252     73.6381    102.8394   1.2134828274e+02   4.7014922973e+01    0.1939273    0.1253946 -66.36 0.0004083673    1.621    0.383
        88  -8.5346    159.1740    101.4843   9.7132446981e+01   3.0135438581e+01    0.3149571    0.2463966 -78.16 0.0005402187    1.680    0.405
        89  -9.2462     94.2726     97.2404   1.1358554636e+02   4.4950346100e+01    0.3297608    0.2717899 -84.13  0.000626451    1.466    0.318
        90  -8.5716     96.3463     90.7658   1.1119060137e+02   4.5996726646e+01    0.5051129    0.3070498  -9.25  0.001728607    3.617    0.724
        91 -10.3485     62.7524     95.6707   1.2314965357e+02   5.0157547408e+01    0.5597169    0.3559792 -87.71  0.001567392    2.399    0.583
        92  -8.9604     64.6049     86.1224   1.2021077456e+02   5.2062980921e+01    0.5605487     0.326265 -10.61  0.002161694    3.404    0.706
        93  -9.8476    242.1907     96.0274   7.9960463642e+01   1.1298130652e+01    0.3670962    0.3545888  25.65  0.002213504    1.093    0.085
        94  -8.4324    164.5972     94.0402   9.3799695445e+01   3.0241280532e+01    0.4013118     0.227396 -43.34  0.001452867    1.821    0.451
        95  -9.1862    138.7240     92.7705   9.9722133840e+01   3.6709301333e+01    0.4086934     0.294526 -70.06 0.0009855271    1.907    0.476
        96 -10.1760      4.2774     89.5106   1.4110233187e+02   5.6776204855e+01    0.6346132    0.3150373  84.40  0.001732929    2.456    0.593
        97  -9.4471      5.5678     79.3980   1.3919516843e+02   5.8942506687e+01    0.5784729    0.2362728 -36.05  0.002812387    2.793    0.642
        98  -8.5969    157.5121     91.5027   9.4714866515e+01   3.2463806683e+01    0.2773864    0.2197894 -58.26 0.0007027122    1.427    0.299
        99  -9.1915    110.7505     89.8087   1.0658536061e+02   4.3426353834e+01    0.7437649    0.3804798  25.74  0.002491588    3.244    0.692
       100 -10.3959     48.1418     83.5827   1.2522450454e+02   5.4641243268e+01     1.048207    0.4286669 -56.34  0.002451229    2.077    0.518
       101 -10.5601     54.7669     70.8448   1.1956260595e+02   5.6658467371e+01    0.7359183    0.5121233  75.72   0.00112997    2.478    0.597
       102 -10.0903     62.4542     60.8716   1.1369475774e+02   5.7721435796e+01    0.8077008    0.3175685  30.98  0.002737675    2.887    0.654
       103  -8.6635    150.4498     88.9768   9.5672474537e+01   3.4667841775e+01    0.3280463    0.2165834 -40.24 0.0007313666    1.546    0.353
       104  -7.0604    205.9919     89.7288   8.4247288158e+01   2.0717477271e+01    0.1753913    0.1324672  55.08  0.000298565    1.334    0.250
       105  -8.0993    174.4624     88.9549   9.0187608438e+01   2.8720282799e+01    0.2336781    0.1554634 -36.82 0.0005558328    1.528    0.346
       106 -10.0753     85.1941     86.4879   1.1350750122e+02   4.8873589397e+01    0.4710938    0.3461898 -82.59 0.0009258189    1.962    0.490
       107  -7.2331     78.3139     89.6692   1.1659909545e+02   4.9285019762e+01    0.1407717    0.1110539  84.37 0.0007044913    1.678    0.404
       108  -7.9019    163.4888     87.0166   9.2041309054e+01   3.1823627714e+01    0.2338391    0.1572583 -36.48 0.0004469772    1.522    0.343
       109  -8.5202    166.0063    103.9855   9.6232175715e+01   2.8000167474e+01    0.2993886    0.2195394 -40.78 0.0004501706    1.395    0.283
       110  -8.5515    125.8820     84.0706   1.0057624209e+02   4.1372823696e+01    0.4547415    0.2852024   6.67  0.001565829    3.156    0.683
       111  -9.4467     87.5041     78.6691   1.1049309309e+02   5.0149915042e+01    0.5470966    0.3477956  18.00  0.001398855    2.115    0.527
       112  -9.1497    157.9046     83.1354   9.2181177064e+01   3.3929341259e+01    0.5682241     0.240676 -32.22  0.001312478    2.652    0.623
       113  -8.5387    156.9321     76.3589   9.0372514096e+01   3.5395938937e+01    0.4431403    0.2258012 -34.32  0.001455987    2.042    0.510
       114  -9.6004    140.3249     82.3272   9.6215369288e+01   3.8373720343e+01     0.621285    0.3212192 -30.98  0.001395414    2.207    0.547
       115  -9.0220    139.9655     75.5459   9.4217726564e+01   3.9729811612e+01    0.5633888    0.2769653 -35.82  0.001267174    2.106    0.525
       116 -10.1846    103.8224     82.5737   1.0652012876e+02   4.6317883375e+01    0.4886192    0.2930854 -52.60 0.0009067165    1.798    0.444
       117  -9.3207    105.1227     71.3131   1.0260088822e+02   4.8320706836e+01    0.7928998    0.4233039 -26.49  0.003030633    2.461    0.594
       118  -9.2253    109.7719     63.9451   9.8746693489e+01   4.8747441362e+01     0.357554    0.2761815 -54.99 0.0005805073    1.513    0.339
       119  -8.9134    110.6825     58.0049   9.6427644338e+01   4.9616307686e+01    0.3469839    0.2816119  17.79 0.0009680424    1.293    0.226
       120  -8.5557     24.6618     84.2873   1.3350104833e+02   5.6651181793e+01    0.1176708   0.08746549  71.95 0.0007018753    1.635    0.388
       121  -7.9797    170.4522     83.0798   8.9363013986e+01   3.0783580919e+01    0.2435365    0.1548591 -37.12  0.001028953    1.600    0.375
       122  -7.1794     63.3640     82.1739   1.1960566390e+02   5.3102880490e+01    0.1950794    0.1213348 -63.68 0.0005460398    1.728    0.421
       123  -8.3361    149.9775     80.8292   9.3364995513e+01   3.6316905342e+01     0.262207    0.2245854 -40.80  0.000533953    1.200    0.167
       124  -8.7171    118.9841     80.6203   1.0145344371e+02   4.3577640771e+01    0.3110096    0.2161785 -47.49 0.0006050818    1.492    0.330
       125  -8.1077    119.5712     76.3027   9.9938620625e+01   4.4296167104e+01    0.3161771    0.2243491  12.33 0.0008149506    1.895    0.472
       126  -8.9979     74.2252     79.6878   1.1521244644e+02   5.2093299582e+01    0.5403475     0.244815 -53.96  0.001304882    2.192    0.544
       127  -8.3723     68.5799     79.7997   1.1717006430e+02   5.2900586561e+01    0.2694951    0.1196995 -48.77  0.001131487    2.025    0.506
       128  -8.4643    166.2392     78.5337   8.8942669483e+01   3.2656234184e+01    0.2826445    0.2148428 -35.58 0.0006139144    1.348    0.258
       129  -8.0973    184.0711     77.9722   8.5099175418e+01   2.8193431169e+01    0.2385288    0.2251788  36.01 0.0006895281    1.070    0.066
       130  -7.8843    173.9848     78.5212   8.7289283487e+01   3.0682618829e+01    0.2355878    0.1510109  53.27  0.000480491    1.513    0.339
       131  -9.3908    127.3308     75.2119   9.7434440873e+01   4.2763706764e+01    0.3855385     0.278468 -58.11 0.0006107067    1.675    0.403
       132  -8.5315    129.2995     68.8542   9.4859142449e+01   4.3484712781e+01    0.4565779    0.2578608  24.18  0.001606486    2.818    0.645
       133  -9.7980     81.5828     72.4047   1.1054895305e+02   5.2456612247e+01    0.4271369    0.3099581 -74.25 0.0008848361    2.026    0.506
       134  -9.0304     83.6046     64.1880   1.0721581921e+02   5.3762862952e+01    0.4772373    0.3525473  -2.23  0.002134555    1.625    0.385
       135  -8.8829     40.9122     20.6377   1.0730422867e+02   6.7751623422e+01     0.209428    0.1505719 -34.28 0.0002694099    1.285    0.222
       136  -9.8681    199.4571    248.8751   1.1819756376e+02  -3.0176754961e+00    0.2866515    0.1448658  45.19  0.001583093    1.738    0.425
       137  -9.0215    225.3630    247.0999   1.1338007393e+02  -6.8203302123e+00    0.2201519    0.1232845  29.77  0.001337655    1.374    0.272
       138  -9.8009     15.6205     71.2608   1.3418639335e+02   6.0154530664e+01    0.5569671    0.2132034 -46.28  0.001170793    2.186    0.542
       139 -10.0685     16.7871     61.4489   1.3165274053e+02   6.2191944439e+01    0.7085649    0.5206277 -49.32  0.004736467    1.085    0.078
       140  -9.6441    155.2487    248.0765   1.2611766946e+02   4.2061519319e+00    0.2666798    0.1705278 -46.20  0.001662287    2.066    0.516
       141 -10.7891     21.8525     53.6314   1.2767308869e+02   6.3482692719e+01    0.7447423    0.4079938 -83.69  0.002993353    3.507    0.715
       142 -10.2023     14.8770     44.3729   1.2812673972e+02   6.5840986613e+01    0.6557388    0.2841367 -28.37  0.003180194    2.629    0.620
       143  -7.3507     80.3060    247.7006   1.3967045477e+02   1.5686265553e+01    0.1170602   0.06409354  62.66 0.0002844053    1.592    0.372
       144  -9.8657    184.4673    247.7826   1.2074220471e+02  -4.9039874964e-01    0.3223821    0.1928094   9.07     0.001659    2.615    0.618
       145  -9.0585    172.2140    242.3859   1.2225608360e+02   2.2141595260e+00     0.184378   0.09054381  46.84 0.0009563268    1.724    0.420
       146  -9.8621    164.9932    249.4945   1.2451051034e+02   2.4355600384e+00    0.2606263     0.200239  47.15  0.001785997    1.164    0.141
       147  -9.4859      6.6262     32.7314   1.2853672549e+02   6.8609266049e+01    0.2102907    0.1496512 -12.71 0.0007337307    1.434    0.303
       148 -10.1416      7.1713     28.4348   1.2692529028e+02   6.9395714644e+01     0.305071    0.2921944 -67.04  0.001037025    1.399    0.285
       149  -8.1331    162.6693     72.9265   8.8042490345e+01   3.4540826425e+01    0.2834657    0.1979167 -50.62 0.0007962988    1.581    0.368
       150  -8.7016     55.6007     63.0852   1.1696956065e+02   5.8180005979e+01    0.4213226    0.2676616  10.82  0.001549162    1.982    0.495
       151  -7.9552    169.5135     71.0393   8.6007741978e+01   3.3103905505e+01    0.2349319    0.1542358 -35.92  0.000660015    1.557    0.358
       152  -9.3162    146.9118     69.3300   9.0545150788e+01   3.9141851199e+01    0.4059419    0.2918952 -58.43  0.001129383    1.693    0.409
       153  -8.1961    156.5637     69.8171   8.8448769085e+01   3.6629725135e+01    0.2826648    0.1569552 -30.91  0.001076168    1.924    0.480
       154  -8.0722     94.6919     54.4666   1.0013001102e+02   5.3535119415e+01     0.342546    0.1873411 -32.55  0.001497966    1.860    0.462
       155  -9.6590     94.7601     68.3154   1.0487846992e+02   5.0936099274e+01    0.4426464    0.2641751 -48.71 0.0008497405    1.750    0.428
       156  -9.2247     97.0481     58.7790   1.0090229418e+02   5.2297945079e+01    0.7217354    0.4134306  -6.12  0.002431433    3.734    0.732
       157  -9.1264    138.0381     65.6281   9.1537544870e+01   4.1970044389e+01    0.5056743    0.2614951 -33.26  0.001787643    2.024    0.506
       158  -9.0865    121.2028     66.1308   9.6176795249e+01   4.5840221099e+01     0.387273    0.2579628 -47.59 0.0006514385    1.637    0.389
       159  -8.2816    121.8822     61.4135   9.4399972297e+01   4.6524883172e+01    0.4175546     0.209718  34.32  0.001082808    2.413    0.586
       160  -8.0460     75.5580     66.4896   1.1075771772e+02   5.4640775927e+01     0.278845    0.1277159 -46.40 0.0007698642    2.047    0.512
       161  -7.9831    170.6832     64.9939   8.3943517063e+01   3.3794255423e+01    0.2178968    0.2085297 -53.06  0.001151344    1.081    0.075
       162  -8.4298    130.5783     64.2873   9.3017602777e+01   4.3996036352e+01    0.3708052    0.1818309 -37.84 0.0008028576    2.073    0.518
       163  -8.6659    157.5306     63.1566   8.6150916355e+01   3.7496623817e+01     0.292534    0.2491622 -51.81 0.0008099222    1.262    0.208
       164  -7.8467    152.5934     60.7248   8.6476390599e+01   3.9157041360e+01    0.2110089    0.1437268 -44.40 0.0005002226    1.565    0.361
       165  -9.9485     72.9799     59.1897   1.0926579455e+02   5.6493544706e+01    0.5689813    0.2742872 -53.16 0.0009623049    2.395    0.582
       166  -9.5783     75.8877     50.5167   1.0514995142e+02   5.7650585162e+01     0.770329    0.4393975   5.51  0.002912423    3.325    0.699
       167  -9.7685    146.9099     56.6600   8.6451820808e+01   4.1255349571e+01    0.7579762    0.3020093 -25.68  0.002430254    3.241    0.691
       168  -9.1495    149.7616     48.0427   8.2955923278e+01   4.1844281067e+01     0.280639    0.2125974 -36.06 0.0004840349    1.384    0.278
       169  -9.5769    153.1248     41.3207   8.0003575342e+01   4.1926078346e+01    0.2695619    0.2478003  74.47 0.0007885821    1.107    0.097
       170  -9.6991    130.4843     46.1362   8.6807501489e+01   4.6969314329e+01    0.9581677    0.3740741 -21.98  0.001898024    3.859    0.741
       171  -8.3454    135.7842     27.0304   7.8702028791e+01   4.8218943057e+01    0.2147034    0.1937766 -69.65  0.000382971    1.278    0.217
       172  -8.7364    132.7357     35.9924   8.2632007890e+01   4.7851892499e+01    0.3475488    0.2794517  20.80  0.001125191    1.307    0.235
       173 -10.1516    133.9767     31.1022   8.0577388927e+01   4.8175998549e+01    0.2943351    0.2355328  35.38            0    1.204    0.169
       174  -8.5553     87.6006     58.4921   1.0391211866e+02   5.4141250750e+01    0.2490714    0.2353444 -57.97 0.0006722533    1.242    0.195
       175  -8.4779     89.0231     53.0254   1.0148232545e+02   5.4874904846e+01    0.5396864    0.3261429  -2.33   0.00199419    2.804    0.643
       176 -10.0946     85.1756     48.1282   1.0098051607e+02   5.6446558924e+01    0.3915588    0.3088191 -61.58  0.001025767    1.733    0.423
       177 -10.3092     89.5076     38.2021   9.5662372361e+01   5.7251087344e+01    0.9182271    0.3194256  36.30  0.003088601    3.485    0.713
       178  -9.9942     34.4284     90.7973   1.3144900008e+02   5.4376619344e+01     0.550255    0.2575615 -80.11  0.001576999    3.022    0.669
       179  -9.9713    244.8922     55.0788   6.9705198190e+01   1.6645083636e+01    0.2975089    0.2659768 -33.56 0.0004498646    1.128    0.114
       180  -9.2173    248.8529     50.8779   6.8254866375e+01   1.6310505349e+01    0.3144266    0.2294746 -49.63 0.0007611435    1.252    0.201
       181  -8.1384    122.2776     41.5246   8.7244323552e+01   4.9623684041e+01    0.4962304    0.2684865  12.18  0.001594342    3.873    0.742
       182  -9.3054    118.2163     54.7989   9.3131042446e+01   4.8491785452e+01    0.4881597    0.3150417 -38.98  0.001354352    1.596    0.373
       183  -9.1523    121.0863     47.0392   8.9570863666e+01   4.9077398782e+01    0.3822485    0.2084913 -32.91 0.0004992756    1.883    0.469
       184  -9.4484     56.1945     43.3903   1.1004445928e+02   6.1926809266e+01    0.7262409    0.3863282  -8.36  0.002713004    3.800    0.737
       185  -9.8077     49.9751     54.5008   1.1643586118e+02   6.0606819187e+01    0.3716662      0.30115  79.05  0.001231614    1.930    0.482
       186  -8.4183     48.7586     48.7551   1.1500060792e+02   6.1875698040e+01    0.2654372    0.2299275 -61.83  0.001475895    1.409    0.290
       187  -9.1539    162.8905     54.2849   8.2212175190e+01   3.7502978401e+01     0.260528    0.2073467 -48.09 0.0005842135    1.342    0.255
       188  -9.5910     43.8509     52.6852   1.1831110897e+02   6.1670803454e+01     0.389931    0.3119681 -39.62  0.001431376    1.073    0.068
       189  -8.9882    105.2843     52.0157   9.5909153614e+01   5.1801645339e+01    0.5458179    0.2493197 -33.33  0.001705249    2.255    0.557
       190  -7.6577    152.4110     53.3167   8.4116869126e+01   4.0371441780e+01    0.2119496    0.1414874 -43.36 0.0009398741    1.601    0.375
       191  -8.6054    157.2058     49.1852   8.1747756211e+01   3.9747248183e+01    0.2150579    0.1787896 -67.69  0.001064579    1.381    0.276
       192  -9.1399    141.9776     47.7899   8.4618518977e+01   4.3867880347e+01    0.5129196    0.2231417 -30.74  0.001414892    2.419    0.587
       193  -8.2515    111.8948     46.9477   9.2096245651e+01   5.1191820664e+01    0.2718132    0.2015317 -40.20 0.0004709558    1.434    0.303
       194  -8.3669    112.9978     41.9995   8.9940655876e+01   5.1705433041e+01    0.3801015    0.2197611   4.70  0.001395035    3.007    0.667
       195 -10.2336     37.4913     41.9752   1.1739488245e+02   6.4428055552e+01    0.5512791    0.3567912 -75.81  0.002400308    3.062    0.673
       196 -10.4083     35.8830     37.9955   1.1668318617e+02   6.5338846871e+01    0.4874528     0.289765 -19.07 0.0003883945    1.839    0.456
       197  -8.5339    161.9147     46.2927   7.9860839964e+01   3.8930688177e+01    0.2128424    0.1891412  57.41 0.0004115066    1.061    0.058
       198  -9.1665    138.7112     55.8212   8.8119019340e+01   4.3443669323e+01    0.5473433    0.2151293 -40.15  0.001667162    2.641    0.621
       199  -7.1184    122.4983    239.4765   1.3120081667e+02   1.0756450854e+01    0.1229446   0.09397277  50.85 9.730787e-05    1.013    0.013
       200  -8.1101    168.3125    237.1241   1.2227012010e+02   3.5898634779e+00    0.1807067    0.1449934   4.95 0.0007453334    1.497    0.332
       201 -10.0616     76.1307     31.7813   9.7678714283e+01   6.0730185995e+01    0.4490386    0.3781754  88.99  0.001508761    1.994    0.498
       202  -9.5849    188.4564    234.2135   1.1808455512e+02   6.1373316637e-01    0.2725537    0.2286248  85.34  0.001267311    1.908    0.476
       203  -7.6467     47.7597    235.2098   1.4447607702e+02   2.2021413808e+01    0.1298786    0.1128139  67.03 0.0004005143    1.309    0.236
       204  -7.5082    128.0000    234.0296   1.2953945119e+02   1.0745880944e+01    0.1656701   0.07128762 -55.61 0.0005160689    2.905    0.656
       205  -9.0172     84.7025     21.9554   9.0455624054e+01   6.0496040412e+01    0.2438558    0.2048862  -5.07 0.0007494608    1.112    0.101
       206  -7.5222    249.3130    229.3381   1.0644631959e+02  -8.4765095522e+00    0.1240344    0.0718033  11.32 0.0007046362    1.693    0.409
       207  -8.7329    110.2350     33.2732   8.7372922010e+01   5.3580292753e+01    0.2985512    0.2289607 -37.25 0.0008449128    1.418    0.295
       208  -8.3369     32.9816    228.9770   1.4666598539e+02   2.4837400797e+01     0.157738     0.118355  71.15 0.0003984164    1.073    0.068
       209  -9.0790    104.6470     40.7038   9.1870329487e+01   5.3748884634e+01    0.3758723    0.2373421 -44.89 0.0009331364    1.823    0.452
       210  -7.8454    106.0580     36.4611   8.9809972727e+01   5.4066565218e+01    0.2911893    0.1517434  39.19  0.001247245    1.890    0.471
       211  -7.7515    109.7702    224.5957   1.3198244934e+02   1.5250281764e+01    0.1910438    0.0904327  49.51 0.0009586758    1.737    0.424
       212  -9.9189     10.7429    207.2808   1.4940159388e+02   3.1133691519e+01    0.4682241    0.2475213  25.70   0.00283572    2.691    0.628
       213  -7.7996    186.1928     41.2213   7.3987333127e+01   3.3194080846e+01    0.2141976    0.1906042  41.56 0.0005295352    1.176    0.150
       214  -8.8895    139.3095     39.5063   8.2364642337e+01   4.5726689394e+01    0.4407332    0.3106762 -36.13  0.001635727    1.504    0.335
       215  -8.8462     53.0789     39.7545   1.0993949945e+02   6.2999046026e+01    0.3199697    0.1446939 -30.92  0.001224812    2.401    0.584
       216  -7.5444    229.5481     37.5492   6.7160415959e+01   2.2574054748e+01    0.1370798    0.1252984 -71.71 0.0001147202    1.010    0.010
       217  -8.5794    144.0894     36.6111   8.0300994515e+01   4.4897963822e+01    0.2578016    0.1983019 -49.31 0.0005869155    1.468    0.319
       218  -9.3088    140.8533     32.2694   7.9479109571e+01   4.6287404583e+01    0.2743275    0.2617353  -6.88 0.0004296127    1.111    0.100
       219  -8.5868    118.8417     34.6599   8.5582191866e+01   5.1401256495e+01    0.3138093    0.1894207 -31.27 0.0007044084    1.721    0.419
       220  -8.4399    153.2655     34.6817   7.7755459595e+01   4.2767784148e+01    0.2421507    0.2197418 -11.75 0.0008244016    1.189    0.159
       221  -9.2797    129.9066     56.6051   9.0603148191e+01   4.5461308788e+01    0.6211709    0.2947556 -36.57    0.0014974    2.148    0.534
       222  -8.9654    115.3067     72.1326   9.9829866517e+01   4.6027729151e+01    0.5897018    0.2744876 -38.62  0.001684861    2.167    0.539
       223  -7.7064     45.4030     15.7666   1.0296633909e+02   6.7904864473e+01    0.1824627    0.1313294 -20.10  0.001146733    1.184    0.155
       224 -10.0784     46.3045     29.9132   1.0889347846e+02   6.5576762374e+01    0.4314914    0.2520091 -52.59 0.0009754349    2.162    0.538
       225  -8.7641     42.0251     28.2743   1.1011836921e+02   6.6377718135e+01    0.2238896    0.1492871 -28.33 0.0001761894    1.287    0.223
       226  -7.7101     52.7501    206.1702   1.4140922995e+02   2.6810916115e+01    0.1382371    0.1266531  87.88 0.0003529853    1.314    0.239
       227 -10.0218    177.5235    201.1397   1.1495498118e+02   7.4141723233e+00     0.241145    0.1965048  36.21 0.0002917433    1.039    0.038
       228  -8.8290    192.4787    194.9606   1.1086640982e+02   5.6028083660e+00    0.6424237    0.3315829 -61.03  0.002039816    5.741    0.826
       229  -8.2635     92.0301     20.9705   8.7675523456e+01   5.9134318322e+01    0.2968159     0.159212  32.07 0.0007596145    1.923    0.480
       230  -8.8698    128.3712     25.8265   7.9913997510e+01   5.0217430308e+01    0.3241706    0.2262184 -52.52 0.0006472109    1.792    0.442
       231  -7.2871    178.1473    186.3939   1.1220896376e+02   9.7456411104e+00    0.1951678    0.1200637  50.58 0.0004235689    1.616    0.381
       232  -9.0940     91.3764     26.2690   9.0143994310e+01   5.8592412470e+01    0.3829398    0.2236889 -43.28  0.001283652    2.067    0.516
       233  -7.2282     53.2731    165.2869   1.3729056029e+02   3.5304202281e+01    0.1125401   0.09263925 -47.67            0    1.508    0.337
       234  -8.4498    133.4939    146.3390   1.1440379416e+02   2.6508262388e+01     0.496256    0.1812101 -52.89  0.001654714    3.089    0.676
       235  -8.9325    123.3597    146.6434   1.1698134817e+02   2.8447615354e+01    0.2357422    0.2285311  40.05 0.0002909169    1.081    0.075
       236  -9.7081     67.2144    144.5771   1.3108263565e+02   3.8213310745e+01    0.5043019    0.3261334  72.69  0.002557287    1.760    0.432
       237  -8.4789    188.3578    137.8923   9.9880297855e+01   1.6315824599e+01    0.2659126    0.2038439  37.78 0.0003012709    1.258    0.205
       238  -8.1087    206.9622    140.0284   9.6600748700e+01   1.1831155301e+01    0.2062516     0.198518   2.87  0.001162412    1.067    0.063
       239  -8.4022    112.3921    134.1138   1.1719303341e+02   3.3323131285e+01    0.2976984    0.2140223  68.26  0.001314833    1.653    0.395
       240  -7.3828    246.3393     16.3218   6.0437468957e+01   2.1122246054e+01    0.1247797   0.09571999  38.97 0.0007050529    1.718    0.418
       241  -8.5181    112.3284     15.6124   7.9773586550e+01   5.5233099665e+01    0.2261521    0.1998735 -16.03 0.0005253387    1.211    0.174
       242  -8.3248    135.9424    131.9339   1.1062022623e+02   2.9098731009e+01    0.4078309    0.1721422 -46.36  0.001462458    2.450    0.592
       243 -10.4551    234.4761    130.1608   8.9269420744e+01   7.6100348907e+00    0.2832818     0.271484 -38.05 0.0003117794    1.168    0.144
       244  -7.9356    121.0196    131.4975   1.1435402535e+02   3.2243672079e+01    0.2165638    0.1985353 -57.42  0.001160844    1.109    0.098
       245  -9.7994    117.5177    125.7119   1.1396856904e+02   3.4220540515e+01    0.7369009    0.4844823  88.54  0.002190989    2.589    0.614
       246 -10.1709    108.6798    112.4910   1.1325007142e+02   3.8891492922e+01     1.230134    0.4662769 -50.11  0.002827977    2.624    0.619
       247  -9.9506    127.7643    102.3892   1.0533276640e+02   3.7191671320e+01    0.6542157    0.4681742 -45.94   0.00295745    1.414    0.293
       248 -10.2394    123.3689     91.3715   1.0343637369e+02   4.0448651157e+01    0.7804343    0.6424917  85.61  0.001082295    1.543    0.352
       249  -8.4533    143.9929     25.7744   7.6543103497e+01   4.6266815047e+01    0.2451124    0.2117677 -25.91 0.0006371536    1.253    0.202
       250 -10.8459    121.1652    109.7513   1.0908534359e+02   3.7009976283e+01     1.523997    0.6487222 -44.49  0.004509546    2.377    0.579
       251 -10.2510    108.7473     99.6674   1.0992556334e+02   4.1713373854e+01     1.020705    0.5488496  63.22   0.00347714    3.273    0.695
       252  -9.5330     98.5000    128.8765   1.1982164950e+02   3.7028425005e+01    0.5701496    0.3477814  74.30  0.002239969    2.671    0.626
       253 -10.4319     70.2847    126.3107   1.2718279260e+02   4.2038675065e+01    0.5732981    0.5428354 -64.79  0.002098541    1.090    0.083
       254 -10.0281     58.4220    124.7827   1.3026940953e+02   4.3950368397e+01    0.6378044    0.3515094  74.43  0.002662628    2.813    0.645
       255  -7.8303    160.3956    128.3137   1.0380370703e+02   2.4491987013e+01    0.3044484    0.1516703 -37.45  0.001140597    2.184    0.542
       256  -7.9189    140.2880    125.3671   1.0797246113e+02   2.9574585986e+01    0.1578458    0.1235351  -4.32 0.0007022765    1.703    0.413
       257  -9.5798     27.3633    122.8410   1.3869726713e+02   4.7640280074e+01    0.5221092    0.2532981  71.97  0.002243397    2.845    0.649
       258 -10.6959    133.5832    109.4486   1.0567566987e+02   3.4425963507e+01      1.06198    0.4778179 -43.16  0.002763612    2.269    0.559
       259  -8.8355    134.9968    122.1320   1.0852985121e+02   3.1408326335e+01    0.4771492    0.2364678 -46.52  0.001453732    2.070    0.517
       260 -10.0498    130.3481    118.7493   1.0890257717e+02   3.3129783004e+01    0.5331512    0.4335596 -45.51  0.001230141    1.254    0.202
       261  -9.2555     41.3051    121.9221   1.3466598976e+02   4.6544746520e+01    0.4479705     0.207802 -81.48  0.001910191    2.584    0.613
       262  -8.3784    158.1850    122.0199   1.0277087536e+02   2.6268945354e+01    0.2593054    0.1834415 -70.76  0.001077775    1.999    0.500
       263  -8.4838     99.1417    119.6580   1.1763580129e+02   3.9026395440e+01    0.4719253    0.2885618  -9.30  0.001486003    4.516    0.779
