#   1 NUMBER                 Running object number                                     
#   2 MAG_AUTO               Kron-like elliptical aperture magnitude                    [mag]
#   3 X_IMAGE                Object position along x                                    [pixel]
#   4 Y_IMAGE                Object position along y                                    [pixel]
#   5 X_WORLD                Barycenter position along world x axis                     [deg]
#   6 Y_WORLD                Barycenter position along world y axis                     [deg]
#   7 A_WORLD                Profile RMS along major axis (world units)                 [deg]
#   8 B_WORLD                Profile RMS along minor axis (world units)                 [deg]
#   9 THETA_WORLD            Position angle (CCW/world-x)                               [deg]
#  10 FWHM_WORLD             FWHM assuming a gaussian core                              [deg]
#  11 ELONGATION             A_IMAGE/B_IMAGE                                           
#  12 ELLIPTICITY            1 - B_IMAGE/A_IMAGE                                       
         1 -13.9714    174.7478     42.5768   6.8917322974e+01   3.6251382861e+01     1.119662    0.9257478 -39.06  0.002751833    1.235    0.190
         2 -14.0605    185.4495     32.6562   6.3833769104e+01   3.4736609859e+01     1.114009     1.060914 -26.13   0.00309364    1.057    0.054
         3 -15.0629    192.4781     22.4556   5.9464861336e+01   3.4063975912e+01     2.775498     1.626871  17.46  0.001343953    2.276    0.561
         4 -12.4886     40.9504      4.2230   9.1582096296e+01   6.9647507863e+01    0.3275285    0.2446607 -30.44   0.00215335    1.100    0.091
         5 -11.1302     65.9951    237.0302   1.2730755992e+02   2.2214500092e+01    0.1389818    0.1091191  66.84            0    1.181    0.153
         6 -13.9735     63.1135    210.6704   1.2603458667e+02   2.6514492854e+01     1.643473    0.4543025  48.95  0.008490698    2.638    0.621
         7 -16.0947    121.7053    238.5744   1.1875878206e+02   1.4833555277e+01     4.907148     1.816468  41.33   0.02745943    2.143    0.533
         8 -10.6727     44.9515    210.4923   1.2903028467e+02   2.8599867320e+01    0.2070882   0.09266733  55.51  0.001164217    1.688    0.408
         9 -11.4283     41.2513    208.2517   1.2950520706e+02   2.9356432081e+01    0.1804012    0.1058361  61.58 0.0004452756    1.265    0.210
        10 -11.7233    108.2059    209.2358   1.1821586948e+02   2.0840876520e+01    0.3190117    0.1914344  63.75  0.001479364    1.583    0.368
        11  -9.9422     50.4520    213.4456   1.2831064504e+02   2.7527162938e+01    0.1766885   0.05668809  49.57 0.0006058843    2.247    0.555
        12  -9.2876    165.3118    208.2924   1.0823752277e+02   1.2180606547e+01    0.1112165   0.07869901  24.16   0.00021543    1.590    0.371
        13 -12.7920     43.6337    202.8235   1.2878173552e+02   2.9987951449e+01    0.2199968    0.1668006  69.67 0.0005603451    1.077    0.072
        14 -12.1971    106.9565    202.3892   1.1773652562e+02   2.2073594269e+01    0.4158642    0.1883923  45.43  0.001780413    1.774    0.436
        15 -11.1806     77.8186    185.2226   1.2131504586e+02   2.8927970077e+01    0.4358107    0.1895921 -80.25  0.002128476    3.073    0.675
        16 -10.1217     72.4810    202.9383   1.2384914488e+02   2.6621444118e+01    0.1506313    0.1158286  65.01 0.0005874749    1.033    0.032
        17 -13.5878     70.3645    194.9930   1.2356295984e+02   2.8201862270e+01    0.6935034    0.4805779  44.51  0.005019662    1.383    0.277
        18 -13.1005    195.2967    194.9663   1.0119587469e+02   8.8469175466e+00    0.7186174    0.5564862  74.76  0.003547485    1.971    0.493
        19 -11.1797    102.7945    194.8521   1.1768904174e+02   2.3874587950e+01    0.3731084    0.2044726  58.29  0.002219828    1.653    0.395
        20  -9.7495     57.9251    196.3130   1.2587480948e+02   2.9475582328e+01     0.138605    0.1033022  61.07 0.0005007987    1.088    0.081
        21  -9.9880     91.6337    194.6141   1.1969312419e+02   2.5482394429e+01    0.2337985    0.1232042  67.73  0.001310468    2.090    0.522
        22 -19.3309     18.3700    134.5009   1.2878555626e+02   4.5042443933e+01     15.91539     1.676929 -75.26   0.04018529    9.984    0.900
        23 -14.2292     53.3921    229.7940   1.2881374899e+02   2.4702462203e+01     0.785611    0.6098991  24.53  0.006307605    2.146    0.534
        24 -10.5540     59.7768    188.9237   1.2496757590e+02   3.0522519189e+01    0.2146478     0.162172 -63.07 0.0008363791    1.603    0.376
        25 -11.7119    207.8221    184.1062   9.7301990587e+01   7.9929480169e+00    0.2801896     0.239272  25.16  0.001185114    1.070    0.066
        26 -11.7364    211.2678    180.8970   9.6168550943e+01   7.7721754326e+00    0.3191283    0.2236892  18.51  0.001127072    1.422    0.297
        27  -9.9043     36.9721    223.4585   1.3100832694e+02   2.7420459493e+01    0.1279458   0.06954554  48.82 0.0003784765    1.426    0.299
        28 -12.1862     82.0533    179.4713   1.1993600421e+02   2.9379535907e+01    0.3094575    0.2152405 -48.37  0.002001686    1.956    0.489
        29 -12.5474     85.4472    174.2202   1.1871264546e+02   2.9858506447e+01    0.3225713     0.262136  41.89  0.001024254    1.344    0.256
        30 -10.9853     99.4510    180.6126   1.1672599310e+02   2.6748493499e+01    0.2032337     0.174483  56.16  0.000582782    1.133    0.117
        31 -12.1469    115.8632    211.4749   1.1712178100e+02   1.9402807241e+01    0.3366026    0.1958826  78.75  0.001534608    2.402    0.584
        32 -11.3653    197.8011    175.2619   9.7517666977e+01   1.0908310870e+01    0.3099265    0.2613893 -37.20  0.001013864    1.422    0.297
        33 -15.9337     74.7115    151.7142   1.1827408156e+02   3.5541130948e+01     4.330342     2.042225  76.56   0.01608399    3.803    0.737
        34 -11.4375    137.2206    170.9307   1.0809797375e+02   2.2417831393e+01    0.2266044    0.1632777  47.93 0.0009039659    1.200    0.167
        35 -10.5362     48.3185    217.3175   1.2888935791e+02   2.7155616269e+01    0.1825063    0.1403217  23.59   0.00137249    2.150    0.535
        36 -11.2755    203.6983    167.8079   9.5147586209e+01   1.0803647557e+01    0.4092596    0.3035024  45.67  0.002390837    1.249    0.200
        37 -11.8015     44.0285    215.0646   1.2944733825e+02   2.7974129944e+01    0.3406536    0.1123813  54.39  0.001983193    2.282    0.562
        38 -11.5304    112.4832    196.7215   1.1613531387e+02   2.2158581618e+01    0.3457356    0.2183951  22.08   0.00185769    2.745    0.636
        39 -11.2371    145.6222    168.4103   1.0606904966e+02   2.1378291388e+01    0.2126578    0.1973027  84.68 0.0006848984    1.163    0.140
        40  -9.3065     67.2790    233.6897   1.2690377653e+02   2.2540432623e+01    0.1573445   0.07318722  59.52  0.000302035    1.695    0.410
        41 -12.7927     97.6194    157.1434   1.1412361070e+02   3.1265803992e+01    0.5534641    0.3983181 -33.84  0.003173369    2.131    0.531
        42  -9.1067    129.6570    157.2906   1.0748313485e+02   2.6062791305e+01    0.1310363   0.09163623  71.29 0.0004918655    1.653    0.395
        43 -11.6187    133.7383    144.4740   1.0444581321e+02   2.7653030457e+01    0.8333928    0.2332444 -54.49  0.002625088    4.840    0.793
        44 -10.5092    174.8503    149.1097   9.6946855412e+01   1.9049075605e+01    0.2016228    0.1787968  64.91 0.0005599663    1.238    0.192
        45 -11.7490    144.3921    145.0754   1.0231273996e+02   2.5586053623e+01     0.339202    0.2510845 -67.94   0.00125891    1.635    0.388
        46 -12.0272    108.4150    141.4406   1.0941937043e+02   3.2587645706e+01     0.496767    0.2985674 -35.67  0.002378841    2.501    0.600
        47 -12.3717     96.7580    142.0321   1.1210262464e+02   3.4312213563e+01    0.2440477    0.2236462  50.84 0.0003794507    1.179    0.152
        48 -11.2205     78.8342    134.1148   1.1497185466e+02   3.8509821701e+01    0.3036309    0.2303589 -60.11   0.00117233    1.325    0.245
        49 -11.0009    115.4244    131.5077   1.0610647209e+02   3.3352655727e+01    0.3055473     0.258682  -5.07 0.0007407104    1.639    0.390
        50 -11.8774    119.5394    127.8624   1.0447801336e+02   3.3347922665e+01    0.5112986    0.3000179 -49.57  0.002534468    1.759    0.431
        51 -11.7519    136.0160    124.3383   1.0003361087e+02   3.0982108156e+01     0.705206      0.35048 -50.46    0.0030895    2.133    0.531
        52 -10.7932    160.9809    127.9975   9.5411155442e+01   2.5347514704e+01    0.2264384    0.1763607 -89.86  0.001149191    1.753    0.430
        53 -11.7800    104.4042    128.9840   1.0818171704e+02   3.5704328706e+01      0.51183    0.3302319  83.56  0.002483976    2.146    0.534
        54 -10.3190    110.8620    119.9647   1.0495331486e+02   3.6437383802e+01    0.1954153    0.1852796  80.36 0.0006111528    1.026    0.026
        55 -11.4738     67.3246    115.4951   1.1486824977e+02   4.3929254503e+01    0.2286823    0.1738048 -65.66 0.0007522456    1.199    0.166
        56 -10.3875    167.7558    112.6510   9.0496731247e+01   2.6591857881e+01    0.3610703    0.2521036 -76.89  0.001350311    2.348    0.574
        57 -10.3236    205.3317    110.2343   8.2584078334e+01   1.8668528845e+01    0.3065399    0.1890826  43.81  0.001053379    1.545    0.353
        58 -11.8576     65.1059    104.8126   1.1363281036e+02   4.6499463453e+01    0.5879902    0.2872478 -46.31  0.002791824    2.280    0.561
        59  -9.8401    134.4955    102.9735   9.5546796059e+01   3.5380879087e+01    0.2189869    0.1395851 -44.75 0.0008579434    1.582    0.368
        60 -12.2731    172.9745     71.9161   7.8469770411e+01   3.2289609803e+01    0.5574927    0.3763713 -81.29  0.001274196    2.491    0.599
        61  -9.5326     96.2741     63.3434   9.4749300700e+01   5.0558796577e+01      0.14015    0.1057882 -16.31 0.0002655062    1.619    0.382
        62  -9.9323    106.6719     61.9950   9.1326693761e+01   4.8893518959e+01    0.1958459    0.1718604 -41.31 0.0004274245    1.080    0.074
        63 -10.7831    168.1426    247.9194   1.1245049451e+02   7.0769137325e+00    0.1501707    0.1073435  51.29 0.0002793615    1.218    0.179
        64 -10.9651     86.5055    238.8545   1.2427921956e+02   1.9469662420e+01     0.177938    0.1292365  71.31 0.0005823329    1.207    0.171
        65 -10.0647     42.3743    220.5060   1.3001324455e+02   2.7304824259e+01    0.2073532   0.07756601  39.53  0.001263705    2.365    0.577
        66 -10.6266    216.5131     18.4934   5.5183859585e+01   2.8156056199e+01    0.1418027    0.1376481 -46.84 0.0001352281    1.019    0.019
