#   1 NUMBER                 Running object number                                     
#   2 MAG_AUTO               Kron-like elliptical aperture magnitude                    [mag]
#   3 X_IMAGE                Object position along x                                    [pixel]
#   4 Y_IMAGE                Object position along y                                    [pixel]
#   5 X_WORLD                Barycenter position along world x axis                     [deg]
#   6 Y_WORLD                Barycenter position along world y axis                     [deg]
#   7 A_WORLD                Profile RMS along major axis (world units)                 [deg]
#   8 B_WORLD                Profile RMS along minor axis (world units)                 [deg]
#   9 THETA_WORLD            Position angle (CCW/world-x)                               [deg]
#  10 FWHM_WORLD             FWHM assuming a gaussian core                              [deg]
#  11 ELONGATION             A_IMAGE/B_IMAGE                                           
#  12 ELLIPTICITY            1 - B_IMAGE/A_IMAGE                                       
         1 -12.0602    177.3978     40.9020   6.7863470910e+01   3.5216974999e+01     1.082509    0.8475499  33.60  0.004686795    1.512    0.338
         2 -11.9751    196.0213      8.4614   5.7969859578e+01   3.4572765783e+01    0.8375224    0.7454656  78.30  0.004305752    1.133    0.117
         3  -9.0733    120.0763      9.4276   6.8898711951e+01   5.1304791134e+01    0.2882465    0.2436121  55.36   0.00138039    1.069    0.064
         4  -8.9192      7.5021      9.4936   1.0433962249e+02   6.9663998438e+01    0.1085304   0.07602292  -7.73 0.0008106601    1.002    0.002
         5  -7.3776    146.9947      1.2706   6.2176114389e+01   4.6060928672e+01    0.1475106   0.08840378  65.94 0.0002784864    1.373    0.272
         6  -7.1928    233.6269    183.3109   9.0748358526e+01  -5.6268294386e-01    0.1275046    0.1092514 -79.96 0.0007032571    1.778    0.438
         7  -8.7479    139.4576    249.3096   1.2155764876e+02   3.4625534146e+00     0.327307     0.249342   3.43  0.001865803    1.674    0.403
         8  -9.5732    138.6692    244.5307   1.2103572087e+02   4.4444241498e+00    0.4326655    0.2922538 -18.39  0.002176502    2.234    0.552
         9  -8.9435    133.1191    249.1806   1.2282427058e+02   4.4986720632e+00    0.2558303    0.1874508 -61.00  0.001492172    1.610    0.379
        10 -18.0747     45.8212    235.1295   1.3858933680e+02   1.9852055839e+01     4.179286     3.734906 -89.91    0.0186317    1.170    0.145
        11  -8.4423    222.5072    179.5386   9.2028528656e+01   1.9888130116e+00    0.2349108    0.1235829 -48.64 0.0007424449    2.098    0.523
        12  -8.9803    162.2083    178.1440   1.0423337718e+02   1.3488985221e+01    0.4565915    0.3140929 -75.68  0.001899317    2.382    0.580
        13  -8.7861    204.8032    177.0916   9.4944288235e+01   5.6096360562e+00    0.3264169    0.2946964 -22.05  0.001552468    1.037    0.035
        14  -9.3053      2.9020    177.4588   1.4192371704e+02   3.6723909796e+01    0.2001686    0.1427857 -71.92 0.0002822537    1.140    0.123
        15  -7.9052    134.2749    173.9904   1.0989367359e+02   1.9720344693e+01    0.2091164    0.1897743 -55.06 0.0004859873    1.123    0.109
        16  -9.6940    119.8152    201.3911   1.1838996061e+02   1.6239012302e+01    0.3555157    0.2402362 -47.81   0.00139584    1.534    0.348
        17  -8.2256    174.1391    201.4683   1.0624197556e+02   6.5132895272e+00     0.263927    0.1863177 -63.10 0.0006585965    1.913    0.477
        18  -8.9069     54.2692    171.5024   1.2927567610e+02   3.2989477480e+01    0.4265942    0.1867454  46.16  0.001821833    2.507    0.601
        19  -9.2644    243.6062    168.4815   8.5993260547e+01   3.6104669456e-01    0.2541652    0.2286274  47.08  0.001579506    1.350    0.259
        20  -7.2110    161.3069    201.2812   1.0899937136e+02   8.8769947747e+00    0.1430366     0.109765  -0.08  0.000252327    1.559    0.358
        21  -8.9889    192.8043    165.2615   9.4862068031e+01   1.0178867160e+01    0.4162134    0.2472464 -51.81  0.001311299    1.873    0.466
        22  -9.4741      1.6113    199.8516   1.4411995097e+02   3.1904091033e+01     0.184865    0.1144148 -73.48 0.0004053992    1.319    0.242
        23  -8.4624    113.0712    164.7473   1.1324343146e+02   2.5704683226e+01    0.3416258    0.2316849  67.38 0.0009197837    2.035    0.509
        24  -8.8774    108.3722    160.6918   1.1361506242e+02   2.7474225731e+01    0.3075151    0.1884582  61.43  0.000972216    2.269    0.559
        25  -9.1272     99.3678    164.1292   1.1660065773e+02   2.8206563798e+01     0.238595    0.2321956  35.76 0.0002825307    1.069    0.065
        26  -9.3157    244.1813    163.5957   8.4900242515e+01   1.1126165767e+00    0.2473193    0.1970493 -30.74 0.0002359933    1.090    0.082
        27 -10.2278    184.5146    213.3221   1.0627659958e+02   2.4318832594e+00    0.5167601    0.3723069 -31.32  0.002749351    1.416    0.294
        28  -9.2637    191.8950    193.2964   1.0088694773e+02   4.8781138688e+00    0.4265876    0.2651371 -60.87  0.001821564    2.432    0.589
        29  -8.2989    165.5834    160.9935   9.9807416734e+01   1.6453627821e+01    0.2099792    0.1989629  22.53 0.0002908335    1.055    0.052
        30  -8.7011    244.3303    158.9131   8.3916424425e+01   1.9023184195e+00    0.2167385    0.1870421   9.79 0.0003446617    1.238    0.193
        31  -9.1457     99.3014    158.4133   1.1549154678e+02   2.9559865035e+01    0.2709833    0.2412057 -40.45 0.0003199421    1.119    0.107
        32 -10.0846    212.3719    156.5942   8.9105463804e+01   8.0874551965e+00    0.2517966    0.2345122 -34.08 0.0003190589    1.066    0.062
        33  -7.4514    146.4253    157.4257   1.0346777684e+02   2.1056398381e+01    0.1490633    0.1472924 -73.23 7.241219e-05    1.067    0.063
        34  -8.7135    190.0358    155.5899   9.3313530573e+01   1.2652525469e+01    0.3611228    0.2563202 -89.02  0.001485276    2.565    0.610
        35  -8.7743    156.3041    154.7440   1.0054181722e+02   1.9659714742e+01    0.3968988    0.2720957 -75.95  0.001598879    2.355    0.575
        36  -9.1805     97.7818    148.9787   1.1395403890e+02   3.2026913145e+01      0.33104    0.2682093  36.84 0.0003199077    1.288    0.224
        37 -10.3351    102.9665    152.9371   1.1341561659e+02   3.0220679297e+01    0.6076484    0.4431666 -27.27  0.001708016    1.617    0.382
        38  -9.9628    110.1211    150.4528   1.1101846903e+02   2.9543445355e+01    0.5843896    0.3334459  58.31  0.001898581    2.470    0.595
        39  -9.6126    133.0968    148.9091   1.0481270681e+02   2.5579686237e+01    0.5983844    0.4623835 -44.98  0.002915221    1.271    0.213
        40  -9.6484    134.6742    194.3665   1.1372540768e+02   1.5156441967e+01    0.4307038    0.2984218 -82.32  0.001189813    2.187    0.543
        41  -8.9385    142.7541    145.3464   1.0162046737e+02   2.4448520081e+01    0.5085165    0.2195968 -53.61  0.001728105    2.712    0.631
        42 -11.8935      4.6561    117.4832   1.3424990033e+02   5.0158692678e+01     2.133874     0.690604 -76.00  0.007016913    4.855    0.794
        43 -10.8700      3.6592    138.3678   1.3745474266e+02   4.5523510442e+01    0.6429653    0.2851547 -71.94  0.003219292    1.904    0.475
        44 -11.0886      9.9410    144.0475   1.3657621004e+02   4.3785605726e+01    0.4653281    0.3873905 -59.59  0.002153175    1.095    0.087
        45  -9.3485      2.8880    145.7507   1.3856366106e+02   4.3898589109e+01    0.2943549    0.2122738  12.77 0.0009299456    1.816    0.449
        46 -10.2330     19.2460    141.0973   1.3375793439e+02   4.3736937897e+01    0.4805437    0.1988427  24.19  0.002196408    2.902    0.655
        47 -10.3960     28.0888    143.3389   1.3174649490e+02   4.2445577727e+01    0.3632511    0.3225302 -10.52  0.002347665    1.342    0.255
        48 -10.9745     34.0285    141.9935   1.2994542895e+02   4.2195679714e+01    0.6140611    0.3133543 -35.95  0.002798673    2.403    0.584
        49 -10.2750    112.6442    137.6120   1.0748297025e+02   3.2030069724e+01    0.6683038    0.4416354  49.11  0.003024574    1.656    0.396
        50  -8.3946    114.0486    144.5289   1.0868939118e+02   3.0195194340e+01    0.2644171    0.2484948  49.22 0.0006921634    1.114    0.103
        51  -9.0735    109.2333    141.6823   1.0931776890e+02   3.1723964443e+01    0.3821553    0.2449619  52.46  0.001423107    1.808    0.447
        52  -8.7454    231.5140    139.0214   8.1886036307e+01   7.7177030435e+00    0.2267395    0.1979853  42.58  0.001326637    1.271    0.213
        53 -10.3384    101.8258    137.7953   1.1042584596e+02   3.3929497230e+01    0.2661945     0.251344  -7.54 0.0003320627    1.084    0.078
        54  -8.8388    156.3989    191.9430   1.0830868030e+02   1.1693005966e+01    0.5484659    0.2754348 -63.32  0.001852348    3.536    0.717
        55  -7.9636    160.0645    138.1293   9.5833542324e+01   2.2428712527e+01    0.2237871    0.2011887   1.52 0.0003105548    1.185    0.156
        56  -9.4784     25.6279    137.2782   1.3147524625e+02   4.4076526816e+01    0.2124946    0.1491576  43.73 0.0007491498    1.668    0.400
        57  -7.3825    164.4432    133.4956   9.3734898177e+01   2.2470055463e+01    0.1522707    0.1465571 -20.50 8.156632e-05    1.016    0.016
        58  -9.0168    118.2713    129.9203   1.0417175051e+02   3.2696305628e+01     0.345045    0.2344186 -40.76 0.0008943586    1.447    0.309
        59  -8.3625    103.2604    130.4429   1.0833537523e+02   3.5351697014e+01     0.205029    0.1410954  50.04  0.000940601    1.631    0.387
        60 -10.1617     22.8832    128.6931   1.3086183334e+02   4.6291930102e+01    0.3588664    0.1653552 -57.85  0.001031584    1.713    0.416
        61  -9.1384     24.6837    124.7078   1.2968266230e+02   4.7050921560e+01    0.1737558    0.1417669 -41.95 0.0002344039    1.152    0.132
        62  -9.1924      3.6176    229.3949   1.4589083037e+02   2.5553037756e+01    0.1886603    0.1846547 -87.95 0.0007149226    1.461    0.315
        63  -8.8891    106.1334    125.6022   1.0638859213e+02   3.5920162754e+01    0.3228526    0.2482482  -4.88 0.0007099338    1.603    0.376
        64  -8.8595      2.3952    193.1023   1.4341533456e+02   3.3303810511e+01    0.1645451    0.1443652 -52.12 0.0004580302    1.397    0.284
        65  -7.4151    112.4992    119.4063   1.0311780183e+02   3.6097338272e+01    0.1473035    0.1432603  -9.47 -0.0003842864    1.030    0.029
        66  -7.2190    107.2640    119.3045   1.0452200463e+02   3.7097883317e+01    0.1479475    0.1134519 -14.69 0.0001997303    1.524    0.344
        67  -7.5344    187.0237    114.9466   8.4495649127e+01   2.1267155159e+01    0.1742943    0.1641651 -42.64 0.0003020471    1.029    0.028
        68  -7.2003    248.4801    113.3902   7.3853276118e+01   9.0213526549e+00    0.1299439     0.114226 -51.91 9.546112e-05    1.042    0.040
        69  -8.0249    167.2136    112.9924   8.8095872464e+01   2.5988389964e+01    0.2183579    0.1719636  79.74 0.0007773793    1.615    0.381
        70 -10.2108     59.3323    110.0082   1.1629231488e+02   4.6693919425e+01    0.3063015    0.2088476  26.89  0.001614457    1.603    0.376
        71  -7.9190    151.6940    208.0518   1.1236216119e+02   9.2398690038e+00    0.1918131     0.177949 -33.94 0.0003407746    1.119    0.106
        72  -9.7880     24.4961    108.0200   1.2667603355e+02   5.0813713704e+01    0.3250483      0.18632  12.53  0.001727969    2.146    0.534
        73  -9.6967     15.7353    106.2297   1.2904150888e+02   5.1893955334e+01    0.3450987    0.1728296  12.82  0.001766069    2.517    0.603
        74  -9.5857     58.5111    103.4981   1.1498772200e+02   4.8215420208e+01    0.2798075    0.2159643 -38.01   0.00158408    1.149    0.130
        75  -8.0173    125.5317    186.5128   1.1441351733e+02   1.8521312580e+01    0.2384225     0.142814 -64.37  0.000561893    2.029    0.507
        76  -8.6990    172.9477     92.0081   8.1601744625e+01   2.8588971397e+01    0.2062136    0.2017597  74.28            0    1.015    0.015
        77  -7.2022    135.4729     91.5452   8.9740214392e+01   3.7015607372e+01    0.1464804    0.1408516  15.57 3.841089e-05    1.004    0.004
        78  -7.9717      7.0347     90.9959   1.2887270752e+02   5.5746589327e+01    0.1398709    0.1171348 -33.79 0.0008233414    1.130    0.115
        79  -9.5238    228.7542     83.7919   7.0360169999e+01   1.7742206761e+01    0.2212052     0.210598 -75.15 0.0003748459    1.090    0.083
        80  -8.0471    233.0930     79.9599   6.8954488415e+01   1.7454069412e+01    0.1879071    0.1605665  14.41 0.0006636222    1.626    0.385
        81  -7.3233    195.6478    184.8333   9.8399996869e+01   5.8139813547e+00    0.1939972    0.1299927 -49.81 0.0004534446    1.631    0.387
        82  -8.3668    115.5597     74.0737   8.9780026334e+01   4.4274164299e+01    0.2027709    0.1792174  29.04 0.0001699232    1.070    0.065
        83  -7.6450    231.3432     72.6892   6.7641423308e+01   1.8925637177e+01    0.1374552   0.09034378 -70.87 0.0003098552    1.700    0.412
        84  -8.6808    172.1975     65.1828   7.4867827668e+01   3.3113753834e+01    0.1984591    0.1848416  40.07 0.0004721555    1.123    0.110
        85 -11.0038    163.9313     55.7422   7.3894998964e+01   3.6369101826e+01    0.6399351    0.4369352 -84.55  0.002524941    1.994    0.498
        86  -7.8167    146.0470     55.1954   7.7175361762e+01   4.0528529651e+01    0.2538282    0.1443151  14.41 0.0009008678    3.740    0.733
        87 -10.1454    128.2767     51.8959   8.0036900014e+01   4.4933773869e+01    0.2314839    0.2080424  37.35 0.0002432794    1.013    0.013
        88 -11.9726    237.8972    245.8772   1.0171257580e+02  -1.1081888834e+01     0.254577    0.2098881  -9.38 0.0004466548    1.144    0.126
        89 -10.7826    181.4647     33.6937   6.5508718504e+01   3.5152986812e+01    0.4434986    0.3402398  32.82  0.001121788    1.607    0.378
        90  -7.3638    139.4701     48.5027   7.6622486917e+01   4.2908805295e+01    0.1358277    0.1228358  42.81   0.00023178    1.024    0.023
        91  -9.1418    224.1264     35.1311   6.0641837588e+01   2.5589318334e+01    0.2768966    0.2026911 -37.43  0.001042222    1.473    0.321
        92  -8.0148    197.0725     28.2821   6.2221793226e+01   3.2266651806e+01    0.1734466    0.1416798  78.96 0.0003150552    1.076    0.071
        93  -8.3999     43.7787     22.9005   9.4735641216e+01   6.3914542953e+01    0.2385522    0.1395236  35.75 0.0008371618    1.660    0.398
        94  -7.8965    169.7975     18.8241   6.3489226848e+01   3.9402875337e+01    0.1609471    0.1317772 -76.46  0.000332872    1.256    0.204
        95  -9.3739    247.0591    245.3217   9.9966099190e+01  -1.2224067476e+01    0.2990351    0.1744867  50.83  0.001450259    3.316    0.698
        96  -7.8264    166.3362    234.7107   1.1380123937e+02   1.6528596819e+00    0.1980139    0.1563432  69.40 0.0006127037    1.764    0.433
        97  -8.9999    186.4836    230.9716   1.0903312724e+02  -1.0291891362e+00    0.5674301    0.1311109 -49.84  0.001390266    8.094    0.876
