#   1 NUMBER                 Running object number                                     
#   2 MAG_AUTO               Kron-like elliptical aperture magnitude                    [mag]
#   3 X_IMAGE                Object position along x                                    [pixel]
#   4 Y_IMAGE                Object position along y                                    [pixel]
#   5 X_WORLD                Barycenter position along world x axis                     [deg]
#   6 Y_WORLD                Barycenter position along world y axis                     [deg]
#   7 A_WORLD                Profile RMS along major axis (world units)                 [deg]
#   8 B_WORLD                Profile RMS along minor axis (world units)                 [deg]
#   9 THETA_WORLD            Position angle (CCW/world-x)                               [deg]
#  10 FWHM_WORLD             FWHM assuming a gaussian core                              [deg]
#  11 ELONGATION             A_IMAGE/B_IMAGE                                           
#  12 ELLIPTICITY            1 - B_IMAGE/A_IMAGE                                       
         1 -15.2968      4.7153    142.5730   1.3226102063e+02   4.4514521431e+01     7.230059     1.043731 -79.49   0.02346549    6.645    0.850
         2 -12.5555      7.0307    119.3945   1.3013471554e+02   4.8977911086e+01    0.6501923    0.3391106  48.99  0.003380259    1.885    0.470
         3 -13.4383    203.2163     29.0960   6.0068824009e+01   3.0471200683e+01     1.421727     1.240924  28.96  0.006235075    1.177    0.150
         4 -13.3717    219.0612     11.6479   5.2884393196e+01   2.8185437328e+01     1.025662    0.8838824  27.79  0.002878337    1.240    0.193
         5 -11.6725     80.4967    167.4605   1.1893600750e+02   3.1767563326e+01    0.3906254    0.3518129 -52.55  0.002855396    1.456    0.313
         6 -13.2847    243.7184    246.8945   1.0104600729e+02  -3.7689807975e+00     0.952284    0.3771829  42.33  0.005815694    1.871    0.466
         7 -11.3631    139.1571    245.8504   1.1670282036e+02   1.1482804442e+01    0.1791777    0.1528687 -84.12  0.001419492    1.505    0.336
         8 -11.7471    125.6552    249.9999   1.1914359058e+02   1.2867926040e+01    0.3337929    0.1610198  36.86  0.002116177    1.959    0.490
         9 -12.7716      9.4036    207.1087   1.3456933867e+02   3.2634436776e+01    0.6090167    0.3461645  39.10  0.003097666    1.811    0.448
        10 -13.2245     33.3899    247.1028   1.3260862341e+02   2.4354655032e+01     1.030185    0.7337134  42.11  0.009349392    1.611    0.379
        11 -14.0816      8.2607    240.7865   1.3589984751e+02   2.7646335557e+01     1.440754    0.9022332  76.31   0.01349293    1.200    0.167
        12 -13.0725     41.6932    212.1553   1.2965812978e+02   2.8683838676e+01    0.7762998    0.5702915 -79.39  0.005780817    1.459    0.315
        13 -12.9316     25.5790    229.5708   1.3301258942e+02   2.7648677861e+01    0.2337824    0.1828551  78.92 0.0007351532    1.292    0.226
        14 -14.0963     30.4800    223.7416   1.3201846393e+02   2.8039195361e+01    0.6405516    0.4034358  65.08  0.002528021    1.092    0.084
        15 -12.1916    163.3243    248.7164   1.1327007435e+02   7.6915835025e+00    0.3966433     0.156686  47.90  0.002321672    1.896    0.473
        16 -11.5574    180.7850    245.2195   1.1022113788e+02   5.5042127630e+00    0.1920705    0.1363875  54.11  0.001463493    1.398    0.285
        17 -11.1569    144.7253    244.4360   1.1570610181e+02   1.0855624884e+01    0.1794251    0.1235282 -80.19  0.001305332    2.192    0.544
        18 -12.0050    139.8211    249.8388   1.1697079916e+02   1.0922673216e+01    0.5326145    0.1045351  42.43  0.002220085    3.790    0.736
        19 -12.2981    109.1729    230.9152   1.2007757727e+02   1.7581458745e+01    0.4955133    0.1112088  46.39  0.002230202    3.155    0.683
        20 -11.4062     58.4414    213.3611   1.2699548380e+02   2.6635149427e+01    0.4099462    0.1660003  58.33  0.002459727    2.057    0.514
        21  -8.6814    152.5365    213.3799   1.1105785500e+02   1.3556910209e+01    0.1140156   0.08572339  47.55 0.0001172232    1.037    0.036
        22  -9.4022     34.3113    202.5827   1.3032817132e+02   3.1004105652e+01    0.1192574   0.08422212  41.17 0.0009418151    1.558    0.358
        23 -11.6944     54.5481    196.8689   1.2650783921e+02   2.9771213621e+01    0.2260579     0.186409 -77.49  0.000612705    1.400    0.286
        24 -11.9153     61.5978    188.4201   1.2459541860e+02   3.0394009111e+01    0.2104838    0.1773931  75.88 0.0003432058    1.163    0.140
        25 -12.1493      5.0285    185.7017   1.3440823103e+02   3.6572555649e+01    0.4356106    0.2179254  75.30  0.002576536    1.530    0.346
        26 -12.2919    199.7448    246.5799   1.0749531728e+02   2.5783711429e+00    0.3456455    0.1951676  42.64  0.002431135    1.279    0.218
        27 -10.2240     90.2177    167.9565   1.1703958072e+02   3.0332415317e+01     0.353939    0.1767258  66.80  0.001421435    2.537    0.606
        28 -10.1571     94.4909    151.5814   1.1401132819e+02   3.2792477814e+01    0.2462634    0.2131979  74.37 0.0008497666    1.006    0.006
        29 -11.9765     82.8936    150.3912   1.1634465185e+02   3.4691615947e+01    0.2463925    0.2083944 -63.59 0.0005806931    1.283    0.221
        30  -9.1301     97.9559    147.3428   1.1264629834e+02   3.3090389960e+01    0.1681573    0.1436873  57.30 0.0003550774    1.104    0.094
        31 -11.7008     68.0238    143.0111   1.1864547523e+02   3.8133166282e+01    0.4859062    0.3170322  77.64  0.001885282    1.551    0.355
        32 -10.4372     64.6748    141.6883   1.1922529314e+02   3.8819059279e+01    0.2630225    0.1697226 -54.98 0.0009089315    1.674    0.403
        33  -9.5578    107.6963    136.8281   1.0880350024e+02   3.3606310148e+01    0.3252775    0.2217319 -18.88  0.001416233    2.917    0.657
        34 -10.3160     94.3765    134.0450   1.1137128427e+02   3.6268497820e+01    0.2068561    0.1875305  56.22 0.0004263801    1.136    0.119
        35  -8.9898     70.8173    125.5494   1.1558171888e+02   4.1356998611e+01    0.1683406    0.1038731  54.07 0.0005755996    1.621    0.383
        36  -9.0597    105.4621    123.5033   1.0692346717e+02   3.6635986353e+01     0.130422    0.1216023  85.42  8.25708e-05    1.017    0.017
        37 -13.0628     58.9904    173.7407   1.2381595137e+02   3.3323201879e+01    0.3925292     0.233422 -51.23  0.001648843    2.267    0.559
        38  -9.4102     41.2659     66.5629   1.1309144823e+02   5.7493447023e+01    0.2185322    0.1501493  60.97 0.0008841548    1.820    0.451
        39 -11.1796    109.5610    248.0016   1.2142841490e+02   1.5282174358e+01    0.1696983    0.1255765 -73.81  0.001429687    1.694    0.410
        40 -12.0863     98.7001    247.5533   1.2304220814e+02   1.6757766634e+01    0.3805639    0.2104838  64.37  0.002753642    1.644    0.392
        41 -10.6051     72.9303    175.6766   1.2130502594e+02   3.1255041989e+01    0.1866572    0.1525069  88.04 0.0003363187    1.137    0.120
        42 -11.0389     63.1099    246.2377   1.2827712505e+02   2.1267367906e+01    0.2294829    0.1237973  65.18   0.00100759    1.462    0.316
