#   1 NUMBER                 Running object number                                     
#   2 MAG_AUTO               Kron-like elliptical aperture magnitude                    [mag]
#   3 X_IMAGE                Object position along x                                    [pixel]
#   4 Y_IMAGE                Object position along y                                    [pixel]
#   5 X_WORLD                Barycenter position along world x axis                     [deg]
#   6 Y_WORLD                Barycenter position along world y axis                     [deg]
#   7 A_WORLD                Profile RMS along major axis (world units)                 [deg]
#   8 B_WORLD                Profile RMS along minor axis (world units)                 [deg]
#   9 THETA_WORLD            Position angle (CCW/world-x)                               [deg]
#  10 FWHM_WORLD             FWHM assuming a gaussian core                              [deg]
#  11 ELONGATION             A_IMAGE/B_IMAGE                                           
#  12 ELLIPTICITY            1 - B_IMAGE/A_IMAGE                                       
         1 -11.1561     13.5726     60.4485   9.7922183165e+01   6.3307558347e+01    0.2877251    0.2437215 -73.45  0.001675228    1.475    0.322
         2 -14.2484    221.5903     34.4632   3.4815876706e+01   2.6653868621e+01     1.472755      1.07965  37.06  0.008600025    2.108    0.526
         3 -13.7594    240.7213     18.2191   2.9930012419e+01   2.4746341526e+01    0.7862046    0.6205425 -53.29   0.00261709    1.203    0.169
         4 -12.8673    201.7718     50.7141   4.0662774198e+01   2.8767198588e+01     1.101984     0.686621 -54.02  0.005821589    1.512    0.338
         5 -11.5782      2.4763      3.4594   8.2187307685e+01   7.4129700336e+01    0.6327745    0.1282519 -41.49   0.00256367    4.217    0.763
         6 -11.4327      8.0070      4.3323   7.9207423633e+01   7.3495675435e+01    0.2794583    0.1532264 -46.10  0.001623258    2.460    0.594
         7  -9.6801     16.5367      1.4887   7.2677104445e+01   7.2916351282e+01    0.1150546   0.08373967   2.11 3.896058e-05    1.017    0.017
         8  -8.9328    197.5445    223.4513   7.9204745529e+01  -1.7408297092e+00    0.1313235    0.1113128   1.52 0.0002068512    1.024    0.024
         9 -15.5085      5.3314    178.6996   1.1846075668e+02   3.5295853362e+01     9.129956     1.274651 -75.10   0.02547552    5.730    0.825
        10 -11.9515     59.2916    171.2122   1.0370436479e+02   3.1619327670e+01    0.3384161      0.29426 -31.05 0.0008164883    1.341    0.255
        11 -14.3321      9.1713    207.7271   1.1964943930e+02   2.8150848851e+01     1.322122     0.917914 -54.11  0.006540528    1.692    0.409
        12 -15.2286     26.5194    248.1106   1.1868612660e+02   1.7763113612e+01     6.362818     1.589611  26.57   0.01964294    6.910    0.855
        13 -10.1095     31.2625    222.3055   1.1596046606e+02   2.2672605694e+01    0.2897697    0.2079604 -35.96  0.001649797    2.088    0.521
        14 -11.1336     24.9144    213.8510   1.1668375476e+02   2.5236249300e+01    0.2826651    0.2349042 -17.23   0.00169883    1.781    0.439
        15 -13.4162     11.0738    233.1947   1.2079933448e+02   2.2408032749e+01      1.15137    0.5761729  86.94  0.003706903    1.825    0.452
        16 -12.5962     53.1442    176.7454   1.0611650680e+02   3.0990057533e+01    0.8498061    0.4807652 -25.12  0.003267584    3.309    0.698
        17  -9.7490     67.9012    206.1798   1.0606920862e+02   2.1893896861e+01    0.2051681    0.1643494  69.03 0.0004289518    1.191    0.160
        18  -9.7778    111.8462    204.9930   9.5251055936e+01   1.5612455392e+01    0.2549992    0.1964705 -88.65  0.001086695    1.590    0.371
        19 -10.3156    192.5614    194.1277   7.4841759922e+01   4.2716847551e+00    0.5977732    0.3263694 -64.90  0.001816169    5.489    0.818
        20 -12.8488     56.9820    239.5908   1.1193439395e+02   1.5940127063e+01    0.6647092     0.500228  89.46  0.001024104    1.303    0.233
        21 -11.6528     70.3466    161.8326   9.9178727599e+01   3.2530162016e+01    0.3394662    0.3218803  84.42 0.0004030026    1.037    0.035
        22 -13.9701     56.6870    119.7910   9.5479617634e+01   4.5193000984e+01     2.522215      1.16222 -70.31  0.002778697    2.801    0.643
        23 -13.7698     77.9257    155.8025   9.5962686509e+01   3.2977838758e+01     2.832151     1.348135  60.60  0.001228293    3.875    0.742
        24 -12.5746     69.5114    145.9863   9.6631989925e+01   3.6738936092e+01    0.5832711    0.4365515 -41.82  0.001110735    1.373    0.271
        25  -9.8426    230.4082    167.1994   6.2218426733e+01   3.0647631225e+00    0.1954128    0.1134539 -46.18 0.0009533111    1.685    0.406
        26  -9.1219    110.4593    167.2670   8.9063327353e+01   2.4757418852e+01    0.2090228    0.1489806 -70.34 0.0009328534    1.607    0.378
        27 -13.4607     56.6922    158.0866   1.0246797598e+02   3.5323318298e+01    0.5874621    0.3939075 -40.29  0.001701206    1.666    0.400
        28 -11.6923     32.5177    156.0448   1.0907009575e+02   3.8571432216e+01    0.3608341    0.3024467 -49.48  0.001761357    1.236    0.191
        29  -9.6619    133.2902    140.8223   7.7288856952e+01   2.6849946684e+01     0.613587    0.2468053 -57.57  0.001820605    3.420    0.708
        30  -9.8437    134.0000    146.9836   7.8526192356e+01   2.5259169705e+01    0.4199254    0.1792594 -55.17  0.001387892    2.672    0.626
        31 -11.3257     36.7356    161.0160   1.0852714468e+02   3.6867693174e+01     0.460918    0.2272175  64.31  0.001835846    2.723    0.633
        32 -12.4005     81.7723    140.2829   9.1812940022e+01   3.6369335214e+01    0.3857991    0.2878374 -56.49 0.0005904203    1.273    0.214
        33  -9.4183    145.6859    142.5594   7.4528497434e+01   2.3941881012e+01    0.3555916    0.2405756 -83.14  0.001325465    2.627    0.619
        34 -13.0149     67.5336    142.4990   9.6574892662e+01   3.7919222669e+01    0.6913708    0.4840695  39.08  0.001406596    1.502    0.334
        35  -9.7632    176.3900    141.0097   6.7016276784e+01   1.8010017424e+01    0.3986988    0.2488516 -65.20  0.001565835    2.368    0.578
        36 -10.9631     95.1362    141.1295   8.8007402942e+01   3.3950835179e+01    0.7333136    0.4371707 -19.93  0.002558341    2.996    0.666
        37  -9.5943     46.4590    135.4991   1.0182739239e+02   4.2405984356e+01    0.1449533    0.1278276 -57.07 0.0001028192    1.042    0.041
        38  -9.8818     36.9766    134.5153   1.0463948606e+02   4.3676847711e+01    0.1938689    0.1407291  25.40 0.0006785154    1.558    0.358
        39 -10.7792    106.4607    130.8950   8.2356267707e+01   3.4458510575e+01    0.3895727    0.3502634   2.45   0.00106165    1.206    0.171
        40 -11.1760     93.4326    127.1711   8.5356446822e+01   3.7732956548e+01    0.3175569    0.2590178 -36.96 0.0005067548    1.230    0.187
        41  -9.6097    114.9796    124.8323   7.8420985812e+01   3.4282279776e+01    0.2680217    0.1884598   5.61  0.001085496    2.062    0.515
        42  -9.0640    162.3492    120.6828   6.5235747356e+01   2.5256825565e+01    0.1595852    0.1237771 -84.79  0.000704786    1.732    0.422
        43  -9.7842    104.8560    119.3075   7.9977107820e+01   3.7556015969e+01    0.2325861    0.2073846 -57.76 0.0002983093    1.142    0.124
        44  -9.5586     72.9731    172.9184   1.0023415068e+02   2.9327034273e+01    0.2080941    0.1984549 -79.38 0.0002837468    1.037    0.036
        45 -10.0114    205.1131    110.6473   5.4315951841e+01   1.8138515774e+01    0.3203565    0.2458439  33.64  0.001362764    1.574    0.365
        46  -9.5150     67.6436    104.6080   8.8197292635e+01   4.7424088839e+01    0.2277856    0.1637329 -22.93 0.0007161482    1.569    0.363
        47 -11.2486     53.4899     92.1778   9.0054199109e+01   5.2314338080e+01    0.5156894    0.2546034 -63.72  0.001902517    2.463    0.594
        48 -10.0846     41.7472     92.0522   9.4446568526e+01   5.3748306065e+01    0.2230693    0.1949746  -3.59 0.0005053043    1.182    0.154
        49 -10.1108     41.1722     88.0284   9.3654849890e+01   5.4747354552e+01    0.2219069    0.1984082   5.66 0.0005277306    1.180    0.153
        50  -8.8041     80.4676     86.4759   7.8721102024e+01   4.9495889514e+01     0.144109    0.1411325 -32.45 0.0004767763    1.117    0.105
        51 -15.0124    100.8033    225.9698   1.0082097971e+02   1.2757666192e+01     6.607206     1.091126  39.67   0.01919133    4.509    0.778
        52  -9.3942    163.4509     83.4943   5.5290600657e+01   3.2335575423e+01    0.1460334    0.1425525 -69.04 6.737664e-05    1.024    0.024
        53 -13.0567     22.3602    203.2192   1.1642556917e+02   2.7936896151e+01    0.4373191    0.3243385 -48.49 0.0008794669    1.645    0.392
        54 -11.9414    210.7307     42.3633   3.7671968208e+01   2.7943155900e+01    0.5307299    0.3780827  55.78  0.002071267    1.575    0.365
        55 -15.3656     32.7604    191.8680   1.1300130618e+02   2.9568944041e+01     3.361186     1.738596  76.02   0.01178592    2.203    0.546
        56 -10.8516    177.5342    218.3312   8.2452833078e+01   2.1893209407e+00    0.2454079    0.1168669  34.14  0.001085209    1.974    0.493
        57  -9.1377     23.9607     50.2969   8.9965533336e+01   6.4498813990e+01     0.171495    0.1379479  -7.37 0.0003608121    1.131    0.116
        58  -9.8169     32.5209    233.8755   1.1655382135e+02   2.0032860709e+01    0.2892558    0.1476407  72.60  0.001047783    1.990    0.498
        59 -10.9739      2.3245     38.2503   9.6784455302e+01   6.8448012303e+01    0.3243059   0.08342102 -54.91  0.001344342    3.093    0.677
        60  -9.6651    126.0234     33.9511   4.8419244347e+01   4.8733793984e+01    0.2013541    0.1816593  78.53 0.0004614782    1.135    0.119
        61  -8.7275    115.4895     31.5097   4.9926223960e+01   5.1466691110e+01    0.1353549    0.1210331  48.55 0.0002536227    1.002    0.002
        62 -10.2345    127.4952     27.4730   4.6025751598e+01   4.9143870672e+01    0.2600826    0.2083708 -79.72 0.0008451854    1.440    0.305
        63 -10.1641      4.3211     20.3139   8.8987224377e+01   7.1463209795e+01    0.1231449   0.06606747 -20.83  0.000403841    1.655    0.396
        64 -10.5138    189.6445     15.1269   3.3647022477e+01   3.5896677003e+01      0.21432    0.1486399 -89.18 0.0006446809    1.287    0.223
        65 -10.4040     25.6349    232.6461   1.1787060623e+02   2.1041186898e+01    0.3758909    0.1317447  49.06   0.00175433    2.367    0.577
        66 -11.4244     57.8671    226.0180   1.1050297596e+02   1.8715207082e+01    0.4095894    0.2346866 -78.04  0.002127451    1.813    0.449
