#   1 NUMBER                 Running object number                                     
#   2 MAG_AUTO               Kron-like elliptical aperture magnitude                    [mag]
#   3 X_IMAGE                Object position along x                                    [pixel]
#   4 Y_IMAGE                Object position along y                                    [pixel]
#   5 X_WORLD                Barycenter position along world x axis                     [deg]
#   6 Y_WORLD                Barycenter position along world y axis                     [deg]
#   7 A_WORLD                Profile RMS along major axis (world units)                 [deg]
#   8 B_WORLD                Profile RMS along minor axis (world units)                 [deg]
#   9 THETA_WORLD            Position angle (CCW/world-x)                               [deg]
#  10 FWHM_WORLD             FWHM assuming a gaussian core                              [deg]
#  11 ELONGATION             A_IMAGE/B_IMAGE                                           
#  12 ELLIPTICITY            1 - B_IMAGE/A_IMAGE                                       
         1 -15.1249    234.8108     28.7915   5.0905422146e+01   2.2506046530e+01      2.24207    0.6212475 -27.56  0.007620861    3.173    0.685
         2 -14.4868    247.6261     18.0302   4.6871754606e+01   2.0631024039e+01     2.487812    0.7426251 -30.27  0.009431309    2.734    0.634
         3 -13.6849    247.2749     42.9450   5.3297620077e+01   1.7875951367e+01     1.100436    0.6823625 -30.12  0.005521158    1.463    0.316
         4 -14.0918    249.4175     59.5707   5.7306659252e+01   1.5326580738e+01     2.303486    0.5014536 -24.37  0.005883303    5.727    0.825
         5 -10.9315      1.3169      7.8366   1.1020108906e+02   7.3566361513e+01    0.2185865   0.09027979 -66.80  0.001084435    2.567    0.610
         6 -10.2806    110.8579      5.1507   6.2280088476e+01   5.7259743262e+01    0.1939484    0.1472395  24.74            0    1.290    0.225
         7  -9.6891     50.7247      3.6623   8.1694834377e+01   6.9290524938e+01    0.1274039    0.0839217  -4.95 0.0003290745    1.610    0.379
         8 -10.8315    250.6985    245.4590   9.4736829255e+01  -6.5117756132e+00     0.150526   0.08574507 -21.11 0.0009468366    1.992    0.498
         9 -11.6823    193.3653    248.4362   1.0404976295e+02   1.4089557262e+00    0.2513431    0.1998196 -36.66  0.001999938    1.739    0.425
        10 -10.6182    224.8705    243.1500   9.8372240570e+01  -2.6918738364e+00    0.1578856    0.1222635  37.35 0.0009411838    1.292    0.226
        11 -10.6635    202.1087    242.4434   1.0189617763e+02   7.2652570670e-01    0.1700445    0.1478483 -70.93   0.00130685    1.966    0.491
        12 -10.6102    240.1354    240.3116   9.5615429463e+01  -4.6167370247e+00    0.1474526    0.1406154 -73.92 0.0009644911    2.032    0.508
        13 -10.8358    248.4421    239.8349   9.4281964695e+01  -5.7368145488e+00    0.1605019   0.09522665 -27.70  0.001125406    2.042    0.510
        14 -10.2786    148.4980    240.4845   1.1052819232e+02   9.0593617240e+00    0.1124495   0.08191569  47.05 0.0001633772    1.046    0.044
        15 -11.3897    230.3491    236.5417   9.6603455246e+01  -2.8723656175e+00    0.2328998    0.1956152 -50.56  0.001444008    2.103    0.525
        16 -11.7151    191.2889    236.1762   1.0285920852e+02   3.0367404207e+00    0.4007211    0.2911076  85.30  0.002365031    3.055    0.673
        17 -11.0003    206.3692    236.4404   1.0042075837e+02   7.0622087319e-01    0.2081437    0.1949046  65.21  0.001679655    1.583    0.368
        18 -10.0953    243.4805    236.5216   9.4563090043e+01  -4.7567999206e+00    0.1076555   0.07800074  25.57 0.0001064217    1.069    0.065
        19 -11.6875    216.4532    233.5270   9.8391644322e+01  -5.1922398028e-01    0.2875047     0.250038  39.66  0.002264451    1.379    0.275
        20 -10.3543    170.5871    234.7803   1.0614909474e+02   6.3966218551e+00    0.1254918    0.1088749 -73.63 0.0009506762    1.642    0.391
        21 -10.1117    247.6991    234.3465   9.3602088966e+01  -5.1619147925e+00   0.09015312    0.0797144  42.12 0.0007038189    1.685    0.406
        22 -10.6019    240.3153    231.5124   9.4324701638e+01  -3.8546450421e+00    0.1461996     0.132006 -38.04  0.001156928    1.821    0.451
        23 -10.2429    225.5982    231.7289   9.6672631956e+01  -1.7120564835e+00    0.1213842    0.1028737 -29.27 0.0007088854    1.622    0.383
        24 -10.4382    201.6401    231.8259   1.0057458465e+02   1.9202008279e+00     0.125599    0.1064374 -43.88 0.0009445139    1.686    0.407
        25 -11.4060    235.3333    229.1740   9.4760667426e+01  -2.9096425943e+00     0.260318    0.1869137 -27.16  0.001614928    1.717    0.418
        26 -10.7855    229.7899    228.5008   9.5539079019e+01  -2.0225936404e+00    0.1726872    0.1428184 -43.29 0.0009048934    1.908    0.476
        27 -10.4850    211.6930    227.4636   9.8315201645e+01   8.3571388182e-01     0.165997    0.1013099 -30.07  0.001073769    2.015    0.504
        28 -11.9028    246.6060    225.7248   9.2486552246e+01  -4.2353520282e+00     0.312539    0.2097524  47.58  0.001968023    1.798    0.444
        29 -12.3029    240.0695    220.9272   9.2775129876e+01  -2.8231333238e+00    0.4373458    0.2443854 -31.85  0.002774292    2.150    0.535
        30 -10.4547    223.1631    226.5034   9.6309615817e+01  -8.2462416911e-01    0.1615153     0.142808  32.82  0.001197209    1.353    0.261
        31 -10.9786    198.9128    226.6290   1.0031763668e+02   2.9208429538e+00    0.1817895    0.1715253 -38.64  0.001245702    1.482    0.325
        32 -10.7853    205.9678    225.3023   9.8954980687e+01   1.9609787709e+00     0.204722     0.156117 -43.71  0.001440731    1.847    0.459
        33 -11.6254    217.1334    222.7921   9.6748360075e+01   4.8852111788e-01    0.3053061    0.2311078 -47.78  0.001606789    2.047    0.512
        34 -10.5513    190.5612    225.7432   1.0160364841e+02   4.3421837214e+00    0.1773989    0.1120492 -30.64    0.0011321    2.034    0.508
        35 -12.3731    247.8842    216.6357   9.0880812651e+01  -3.5740421823e+00    0.4082675    0.2482294 -28.37  0.002424023    1.894    0.472
        36 -10.8832    193.2594    219.0095   1.0020949605e+02   4.7093836467e+00    0.2204628    0.1412429 -56.62  0.001279264    2.630    0.620
        37 -10.9545    228.1071    221.7608   9.4809704272e+01  -1.0974327558e+00    0.2450317    0.1571465  51.81  0.001519145    1.932    0.483
        38 -11.0405    219.4427    216.7669   9.5468784427e+01   7.7274857312e-01    0.2597995    0.1862428 -45.61  0.001532088    2.082    0.520
        39 -11.3839    217.5802    212.3661   9.5103590077e+01   1.5526266403e+00    0.3067239    0.2576346  61.67  0.002117308    1.727    0.421
        40  -9.7856    185.6902    215.3347   1.0099840007e+02   6.3946189773e+00    0.1114019   0.08546235  63.79 0.0007043242    1.677    0.404
        41 -11.3149    232.9645    212.7339   9.2633040096e+01  -9.1963865793e-01    0.2601211    0.1860404 -22.63  0.001521232    1.571    0.363
        42  -9.8583    204.7151    212.3622   9.7275255606e+01   3.6376355435e+00    0.1053402   0.08945201  66.85 0.0007020316    1.685    0.406
        43 -11.5449    240.4527    208.1164   9.0687473506e+01  -1.6060099162e+00    0.3206311    0.2218244 -49.47  0.001926291    2.624    0.619
        44 -11.2963    235.1234    203.2242   9.0744175520e+01  -2.5492322187e-01    0.2442573    0.2185943 -52.02  0.001168958    1.811    0.448
        45 -10.7429    231.5410    198.8267   9.0597314769e+01   8.0348443543e-01    0.3583931    0.1781009 -43.71  0.001645647    3.026    0.670
        46 -11.0095    231.3564    194.1748   8.9836798178e+01   1.3577480447e+00    0.2492698    0.1617475 -32.78  0.001521634    1.781    0.438
        47 -10.6327    192.8125    209.9743   9.8974686590e+01   5.8917223276e+00    0.1655339    0.1381678 -86.80 0.0009488136    1.936    0.483
        48 -11.5242    246.9162    206.2886   8.9360758292e+01  -2.4163381111e+00    0.3523327    0.1905418 -44.90  0.001831764    3.317    0.699
        49 -11.1666    243.3515    200.8843   8.9025342315e+01  -1.3092075802e+00    0.2907004    0.2015453 -23.13  0.001933678    1.555    0.357
        50 -10.9557    229.4781    206.9929   9.2283595470e+01   2.3854978763e-01    0.2198279    0.1076279 -37.27  0.001196792    2.524    0.604
        51 -10.3848    224.6774    207.5751   9.3169015483e+01   9.4384704160e-01    0.1777506    0.1047152 -30.69  0.001068663    1.960    0.490
        52 -10.4019    206.3175    207.6711   9.6283024237e+01   3.9317969783e+00    0.1091521   0.08989946  63.40 0.0007046501    1.682    0.405
        53 -10.3805    217.4556    204.9638   9.3958542513e+01   2.4127986479e+00    0.1580244     0.113638 -25.81  0.000903349    1.589    0.371
        54 -10.1160    202.3516    204.2211   9.6430818918e+01   5.0134937389e+00    0.1430585    0.1130948 -42.75 0.0009400205    1.654    0.395
        55 -10.3246    197.4736    203.9962   9.7248690131e+01   5.8637395402e+00    0.1605177    0.1194081 -30.74  0.001034788    1.600    0.375
        56 -10.1978    172.7957    203.9336   1.0166076449e+02   1.0064173986e+01    0.1374423   0.09926972 -39.58 0.0005991104    1.706    0.414
        57 -11.1405    250.1695    200.6549   8.7905300786e+01  -2.3475019355e+00    0.2944912    0.1537779 -25.49  0.001691324    2.016    0.504
        58 -10.1371    223.5919    201.2335   9.2319773377e+01   1.8327965083e+00    0.1512118    0.1046396  -9.38 0.0009434228    1.565    0.361
        59 -10.0111    215.4234    198.2100   9.3204233781e+01   3.5463878171e+00    0.1478582    0.1146512 -41.77 0.0009491654    1.705    0.413
        60 -11.2123    224.3213    192.2819   9.0689181863e+01   2.7530962977e+00     0.278763    0.1538671 -39.16  0.001347893    2.230    0.552
        61 -10.4340    202.0108    197.2093   9.5371531503e+01   5.9541437450e+00    0.1553609     0.139449 -67.20 0.0007655674    1.632    0.387
        62 -10.4817    187.2444    203.2618   9.8949447244e+01   7.6949351362e+00    0.1631456    0.1004664 -53.88 0.0008885314    2.409    0.585
        63 -11.6903    246.4516    193.1189   8.7197292487e+01  -9.7910069471e-01    0.3111251    0.2497525 -38.41  0.001994316    1.745    0.427
        64 -10.6398    243.8518    188.1429   8.6736666787e+01  -1.9248195237e-02    0.1718536    0.1519777  19.78 0.0007967898    1.250    0.200
        65 -10.0867    209.4528    194.5269   9.3624303619e+01   5.0143368452e+00    0.1243138    0.1003528  27.61 7.364311e-05    1.004    0.004
        66 -10.0001    219.3164    194.6446   9.1942437986e+01   3.3173226344e+00    0.1092302   0.09665129  73.98 0.0007045506    1.745    0.427
        67 -11.2073    237.1282    187.0611   8.7638308196e+01   1.2112210333e+00    0.2556355    0.1681864 -22.93  0.001094141    1.586    0.369
        68 -10.6493    230.1285    187.2042   8.8824955160e+01   2.3710729869e+00    0.1974119    0.1629496 -59.09  0.001038065    2.025    0.506
        69 -10.0176    210.3128    188.6584   9.2479064697e+01   5.6088889267e+00    0.1134452   0.09843461  74.10 0.0004574426    1.701    0.412
        70  -9.9133    220.2964    187.3361   9.0515509076e+01   4.0383161125e+00    0.1282837   0.08305601  14.24 0.0005818792    1.650    0.394
        71 -10.2688    215.3640    187.1602   9.1336841422e+01   4.9167622889e+00     0.156731    0.1140765 -41.93 0.0007133977    1.750    0.428
        72 -12.1203    247.6286    178.1112   8.4303876548e+01   4.7961571866e-01     0.461302    0.2708445 -42.75  0.002477308    2.393    0.582
        73 -10.8327    223.9099    183.9314   8.9293543537e+01   3.8315720979e+00    0.2486029    0.1721915 -44.19  0.001145527    1.939    0.484
        74 -10.2341    189.6296    184.7871   9.5544131967e+01   9.8138261661e+00    0.1575542     0.121742 -48.21 0.0009445562    1.629    0.386
        75 -10.6736    197.5275    182.5248   9.3704768517e+01   8.7036471635e+00    0.2331479    0.1263674 -37.36  0.001072238    2.117    0.528
        76 -11.5176    241.3390    180.6083   8.5781350417e+01   1.2468322964e+00    0.3547797    0.2076507 -37.46  0.001979366    2.046    0.511
        77 -10.7920    235.5054    181.0939   8.6829165786e+01   2.1780625250e+00    0.1821165    0.1636747  31.41  0.001014972    1.287    0.223
        78 -10.1494    226.0000    178.9490   8.8034312793e+01   4.0826502030e+00    0.1862948   0.06924076 -32.58 0.0007988329    2.918    0.657
        79 -10.3121    231.5020    178.5406   8.7028263805e+01   3.1724273974e+00    0.1249015    0.1040361  20.74 0.0001864753    1.052    0.049
        80 -10.7574    219.2294    177.7863   8.8986786493e+01   5.4284451552e+00    0.2163846    0.1497863 -32.15  0.001267231    1.602    0.376
        81 -10.3311    197.5955    176.7745   9.2674903873e+01   9.4982360348e+00    0.1640093    0.1237377 -47.11 0.0009481282    1.662    0.398
        82 -10.3533    210.5111    175.9991   9.0194081278e+01   7.2365914432e+00    0.1784786    0.1247771 -31.93  0.001001503    1.583    0.368
        83 -10.3654    232.5838    174.2649   8.6050551690e+01   3.5057359222e+00    0.1674685    0.1109194 -12.28 0.0009479917    1.581    0.368
        84 -10.6070    223.5794    173.1898   8.7379971548e+01   5.2399963515e+00    0.2236467    0.1174574 -37.23    0.0011234    2.141    0.533
        85 -11.0483    188.3291    172.4257   9.3619852718e+01   1.1858254424e+01    0.2381389    0.1644434 -40.25  0.001321104    1.658    0.397
        86 -10.4727    227.7943    171.0120   8.6245397698e+01   4.7615724778e+00    0.1834623    0.1451504 -55.88   0.00106288    1.952    0.488
        87 -10.8575    245.9102    169.2714   8.2907661561e+01   1.7909724908e+00    0.2529067    0.1668404 -39.66  0.001441552    1.889    0.471
        88 -11.3321    237.3111    168.9043   8.4242001380e+01   3.3321716255e+00    0.3132927    0.1527511 -35.09  0.001551865    2.210    0.547
        89 -10.3722    205.2905    169.2757   8.9884526510e+01   9.1286555772e+00    0.2448074    0.1569615 -57.13   0.00117214    2.577    0.612
        90 -10.9954    218.7883    168.2743   8.7280174362e+01   6.7554909229e+00    0.2977249    0.1799105 -37.17  0.001425238    1.852    0.460
        91 -10.0868    229.3768    166.1682   8.5044087194e+01   5.0945572126e+00    0.1726208     0.114785 -38.29  0.000951746    1.746    0.427
        92 -10.9352    191.3452    165.6591   9.1795730172e+01   1.2305432251e+01    0.2700019    0.1666107 -29.20  0.001371011    1.863    0.463
        93 -10.5571    199.4308    164.7659   9.0105698738e+01   1.0888653655e+01    0.2331344    0.1281075 -40.74  0.001126538    2.058    0.514
        94 -10.5654    240.0292    164.0139   8.2841867603e+01   3.4523878549e+00    0.1766521    0.1613323 -68.17  0.001054451    1.700    0.412
        95 -11.3169    212.8987    162.6309   8.7230629225e+01   8.6272164655e+00    0.3865636    0.1807541 -39.58  0.001756094    2.395    0.582
        96 -11.1147    245.7501    157.2709   8.0568855621e+01   3.2637362143e+00    0.3066445    0.1847659 -29.17  0.001419825    1.659    0.397
        97 -10.9341    241.9210    153.4334   8.0409005238e+01   4.4329863476e+00    0.2863537    0.1986698 -33.17  0.001037045    1.536    0.349
        98 -11.1360    244.0517    149.0896   7.9167370444e+01   4.5928477383e+00    0.3199491    0.1978935 -34.61  0.001665771    1.697    0.411
        99 -10.7512    205.2209    161.5570   8.8413205460e+01   1.0246114018e+01     0.244976    0.1859427 -30.58  0.001403804    1.420    0.296
       100 -10.2726    221.4945    161.5148   8.5489383562e+01   7.1603430658e+00    0.1319851    0.1135853  19.63 0.0001904352    1.020    0.019
       101 -10.9197    237.7268    158.6586   8.2157620744e+01   4.5355707722e+00    0.2473688    0.1656959 -35.52  0.001320567    1.648    0.393
       102 -11.0380    176.7224    158.4668   9.3270146914e+01   1.6283749159e+01    0.3410695    0.1209907 -35.84  0.001216074    3.558    0.719
       103 -10.6092    226.5001    157.0068   8.3719520579e+01   6.8271844691e+00    0.1913428    0.1243652 -27.93  0.001006373    1.578    0.366
       104 -10.5870    196.7727    157.0018   8.9087603543e+01   1.2566812759e+01     0.174352    0.1121964 -34.62 0.0008857597    1.684    0.406
       105  -9.9818    222.2838    156.6475   8.4377399307e+01   7.6724892116e+00    0.1205006    0.1066357 -69.99 0.0005311972    1.660    0.397
       106 -10.5712    216.0044    156.2961   8.5413632008e+01   8.9218784842e+00    0.1916219    0.1651306  25.39 0.0009946007    1.036    0.035
       107 -10.1012    187.6411    155.1869   9.0477770018e+01   1.4655739026e+01    0.1882467    0.1272963 -24.06 0.0009484871    1.724    0.420
       108 -10.6667    250.6276    152.1782   7.8756736219e+01   3.0178006269e+00    0.5021942    0.1003245 -32.68  0.001630524    4.622    0.784
       109 -10.7671    233.2712    153.7885   8.1912914075e+01   5.9848708536e+00    0.2323819    0.1951402 -45.69  0.001400229    1.543    0.352
       110 -10.4812    205.6133    153.7911   8.6789406460e+01   1.1308014929e+01    0.1798613    0.1262852 -42.94 0.0009472735    1.645    0.392
       111 -10.9969    229.4804    148.0484   8.1363907766e+01   7.4687019153e+00    0.2487379     0.125732 -25.09 0.0009542026    2.093    0.522
       112 -10.6462    157.4604    152.9584   9.6164376883e+01   2.1013958082e+01    0.1881833    0.1212835 -72.82 0.0008092517    2.566    0.610
       113 -11.8519    235.3314    147.1748   8.0195674680e+01   6.4693905436e+00    0.4006186    0.2986189 -39.27  0.001545529    1.546    0.353
       114 -10.4147    214.9977    148.9476   8.4082401000e+01   1.0164540249e+01    0.2004684    0.1721596 -77.58 0.0009071059    1.724    0.420
       115 -10.8180    223.5322    146.6573   8.2094226751e+01   8.8127044739e+00    0.2510816    0.2234282 -39.32  0.001349687    1.336    0.252
       116 -10.6023    207.6331    145.2225   8.4635208695e+01   1.2183841114e+01    0.1920741    0.1265822 -20.55  0.000952062    1.676    0.403
       117  -9.9235    200.6394    145.3077   8.5956013496e+01   1.3589555579e+01    0.1347087    0.1118018  86.64 0.0005486028    1.736    0.424
       118 -10.6778    247.2950    143.9911   7.7579875156e+01   4.6419183732e+00    0.1908469    0.1727088 -25.05  0.000720985    1.276    0.216
       119 -11.4939    243.6744    140.0688   7.7321708391e+01   5.8222850906e+00    0.3994193    0.1707702 -32.40  0.001392251    2.267    0.559
       120 -11.2322    242.1744    133.7618   7.6192324849e+01   6.9380771425e+00     0.348548    0.1841105 -29.24  0.001107661    1.821    0.451
       121 -12.9825    240.4982    124.6050   7.4416503276e+01   8.4979397864e+00    0.8577129    0.3106052 -38.81  0.003294494    2.861    0.650
       122 -11.6136    242.0048    117.8567   7.2633979254e+01   9.1131402219e+00    0.5735316    0.1296868 -35.98   0.00180304    4.003    0.750
       123 -10.2925    214.4406    142.9292   8.2907363612e+01   1.1151082172e+01    0.1840904     0.114358 -55.16 0.0008031511    2.508    0.601
       124 -11.2225    230.0314    140.4114   7.9643703804e+01   8.4064487766e+00    0.4696067    0.1684422 -34.13  0.001846836    2.762    0.638
       125 -10.6087    181.8353    142.0165   8.8919426434e+01   1.7991190734e+01    0.2261096     0.165346 -69.14  0.001079026    2.027    0.507
       126 -10.4864    238.5026    140.0897   7.8164012297e+01   6.8049763840e+00    0.1967443    0.1232073 -27.54 0.0009497688    1.558    0.358
       127 -11.9341    234.6846    135.5167   7.7797818072e+01   8.1636673636e+00    0.4611009    0.2586007 -41.94  0.001477364    2.041    0.510
       128 -10.4176    224.4462    140.0538   8.0522007990e+01   9.5608005456e+00     0.203975    0.1283646 -29.71  0.001028566    1.597    0.374
       129 -10.5076    218.5252    137.9822   8.1105815203e+01   1.1048766647e+01    0.2066441    0.1318246 -29.18  0.001030952    1.588    0.370
       130 -10.8139    208.4626    137.5150   8.2817178477e+01   1.3180630264e+01    0.2458918    0.1236752 -44.85  0.001032508    2.354    0.575
       131 -10.5503    172.5909    137.8401   8.9916572017e+01   2.0634875717e+01    0.2019643    0.1348382 -53.14 0.0009546786    1.775    0.436
       132 -10.4820    248.8329    135.5704   7.5534078685e+01   5.4302838986e+00    0.2202917    0.1396001 -28.76  0.001063944    1.511    0.338
       133 -10.1732    187.6519    135.8174   8.6416597480e+01   1.7811430522e+01    0.1982914    0.1305493 -46.49 0.0009440713    1.711    0.416
       134 -10.8052    179.5025    132.5082   8.7322902578e+01   2.0104487821e+01    0.2503814    0.1335362 -49.96  0.001032981    2.264    0.558
       135 -10.8818    198.3429    131.7672   8.3431977490e+01   1.6204370570e+01    0.1933836    0.1313725 -23.50 0.0005230624    1.601    0.376
       136 -11.5837    248.4463    129.6644   7.4300099321e+01   6.2681720117e+00    0.3275943     0.309318 -53.97  0.001945406    1.387    0.279
       137 -11.2126    249.2801    123.7681   7.2856312431e+01   6.8779757400e+00    0.3182555    0.1849038 -29.84 0.0008889008    1.616    0.381
       138 -11.4094    247.8875    118.6168   7.1900615458e+01   7.8315900692e+00    0.3589863    0.1827027 -31.82  0.001218564    1.838    0.456
       139 -10.5750    220.8272    128.9970   7.8696454564e+01   1.1890514518e+01    0.2211081    0.1554875 -54.36  0.001076653    1.936    0.483
       140 -10.0614    186.3687    129.1625   8.5180296023e+01   1.9202782291e+01    0.2031208    0.1328767 -47.33 0.0009458247    1.721    0.419
       141 -10.7132    227.8559    125.2726   7.6641424205e+01   1.0974443135e+01    0.2427662     0.180185 -36.32  0.001178854    1.401    0.286
       142 -10.8488    199.8367    126.0283   8.1834976947e+01   1.6806212719e+01    0.2284953    0.1629403 -59.96 0.0009833029    1.942    0.485
       143 -10.7042    179.6923    124.4676   8.5450945046e+01   2.1460840782e+01    0.3026011    0.1711725 -50.08  0.001276241    2.095    0.523
       144 -11.0582    234.9296    123.1397   7.4979866749e+01   9.8236571678e+00    0.2023662    0.1849583 -41.11 0.0007648637    1.274    0.215
       145 -10.4681    212.6178    122.2356   7.8589590377e+01   1.4640898778e+01    0.2023937    0.1322804 -20.02 0.0009547101    1.647    0.393
       146  -9.9629    194.0000    121.0029   8.1776726912e+01   1.8902718422e+01    0.2335662   0.08265798 -35.99 0.0007968583    2.904    0.656
       147 -10.8942    140.2424    118.2553   9.2726073816e+01   3.1107188989e+01    0.2334096    0.1179118 -56.47 0.0008510856    2.425    0.588
       148 -10.9267    230.6420    116.2143   7.4072527728e+01   1.1690113419e+01    0.1987483    0.1253617 -18.57 0.0008683857    1.642    0.391
       149 -10.4525    186.0000    114.9701   8.1901771375e+01   2.1704474417e+01      0.24147   0.08423031 -36.77  0.000802502    2.943    0.660
       150  -9.7800    173.6472    114.3101   8.4282158063e+01   2.4601570841e+01      0.15123    0.1194731 -87.18 0.0007044205    1.722    0.419
       151 -11.6749    247.5182    112.5169   7.0549502546e+01   8.7192968817e+00    0.2719079    0.1232807 -29.46 0.0008640446    2.046    0.511
       152 -10.1936    243.6514    109.3273   7.0387483368e+01   9.9392653258e+00     0.203526    0.1282708 -40.89 0.0009831473    1.667    0.400
       153 -11.9353    241.6745    106.3265   6.9976499126e+01   1.0760918893e+01    0.2645108    0.1223928 -33.83  0.000818314    2.015    0.504
       154 -10.2628    183.0000    108.9336   8.1008684725e+01   2.3427988166e+01    0.2444949   0.08509652 -36.69 0.0008013105    2.935    0.659
       155 -10.1328    160.5259    108.4887   8.5682923126e+01   2.8621642152e+01    0.1487154    0.1448243  65.46 0.0008095364    1.049    0.046
       156 -10.2825    222.4711    104.9636   7.2714974511e+01   1.5096769035e+01    0.2224237    0.1356579 -30.53  0.001029468    1.587    0.370
       157 -10.2482    205.7690    105.0550   7.5651628210e+01   1.8845983769e+01    0.1991418    0.1195185 -33.19 0.0008806583    1.652    0.395
       158 -11.0409    229.2001    102.8668   7.1093518571e+01   1.3921300470e+01    0.2180715    0.1967461 -44.98   0.00124128    1.223    0.182
       159 -10.7016    167.1638    100.5558   8.2174453047e+01   2.8579141635e+01    0.2954796    0.1074158 -40.80 0.0009849364    2.771    0.639
       160 -10.5104    224.4591    248.4467   9.9141171415e+01  -3.1168431990e+00    0.1402515   0.09893355 -41.88 0.0009980362    2.226    0.551
       161 -10.4171    242.3013    248.0263   9.6353579546e+01  -5.5771776327e+00    0.1437902     0.105094  19.36  0.001019842    1.105    0.095
       162 -10.8216    232.9244    247.4468   9.7702909025e+01  -4.2251741056e+00    0.1576505    0.1453957 -22.36  0.001185953    1.678    0.404
       163 -12.1133    231.3729     90.5164   6.7668638366e+01   1.5213904779e+01    0.4158572    0.2267933 -32.13  0.001263197    1.718    0.418
       164 -10.1190    202.6155     97.8006   7.4369786133e+01   2.0731704202e+01    0.2151674    0.1331415 -41.76 0.0009494788    1.664    0.399
       165 -10.9807    188.9667     92.9725   7.5661105336e+01   2.4755166466e+01    0.3652834    0.2102701 -42.58  0.001421559    1.792    0.442
       166 -14.4432    240.4150     75.4573   6.2516467734e+01   1.5270356793e+01     1.246312    0.5024592 -27.82  0.004847849    2.331    0.571
       167 -10.4342    160.0000     99.9854   8.3605948452e+01   3.0337924251e+01    0.2511388   0.08665607 -39.40 0.0008037836    2.952    0.661
       168 -11.4468    175.7977     87.9408   7.6918439151e+01   2.8785556815e+01    0.3337492    0.2427582 -44.67  0.000804055    1.423    0.297
       169 -10.4779    151.0000     88.0463   8.2406470263e+01   3.4665512863e+01     0.255556    0.0870193 -39.18 0.0008049005    2.960    0.662
       170 -10.4151    188.4755     87.0330   7.4138834760e+01   2.5863699984e+01    0.2345754    0.1479298 -34.37 0.0008567005    1.577    0.366
       171 -12.3021    235.0502     95.0422   6.8239882401e+01   1.3755306586e+01    0.3980583    0.2571259 -49.77  0.001504019    1.825    0.452
       172 -10.1194    206.0000     84.9442   7.0360360269e+01   2.1956064232e+01    0.2464017   0.08339408 -31.61 0.0007966197    2.902    0.655
       173 -11.2218    225.1418     81.6788   6.6354001639e+01   1.7906099053e+01    0.2592018    0.1866833 -39.31 0.0008271245    1.366    0.268
       174 -10.4536    159.0000     81.9954   7.8837066608e+01   3.3896452710e+01    0.2563322   0.08761574 -36.91 0.0008027884    2.945    0.660
       175 -10.5172    218.4138    248.1912   1.0004869996e+02  -2.2282968997e+00    0.1150497    0.1010862 -36.17 0.0009452341    1.730    0.422
       176 -10.3145    201.2095     78.1894   6.9347416287e+01   2.4168884135e+01    0.2518193   0.09985285 -40.79 0.0008736787    2.523    0.604
       177 -11.4372    225.8880     87.3363   6.7707641965e+01   1.6916242201e+01    0.2619154    0.1829944 -38.03 0.0008825269    1.402    0.287
       178 -10.9769    236.4922     89.9925   6.6761433584e+01   1.4146489215e+01    0.3759214     0.212304 -24.20  0.001444074    1.731    0.422
       179 -12.6314    229.9284     70.1351   6.2602759691e+01   1.8414403635e+01    0.4959609    0.1496162 -36.31  0.001676581    2.909    0.656
       180 -10.4529    163.4850     71.5061   7.4729446589e+01   3.4655208522e+01     0.290777     0.132695 -44.87  0.001038697    2.341    0.573
       181 -10.2153    222.1459     71.1449   6.4013077792e+01   2.0121641935e+01    0.2074563    0.1630917 -49.25 0.0006846585    1.333    0.250
       182  -9.8465    187.3162     68.6702   6.9124010875e+01   2.9127557712e+01      0.15944    0.1179935 -65.97 0.0006610526    1.681    0.405
       183  -9.8636    182.3057     68.6316   7.0051598303e+01   3.0402822918e+01    0.1632518    0.1171627 -63.99 0.0007035101    1.751    0.429
       184 -10.3790    203.3795     66.2326   6.5610162968e+01   2.5445101646e+01    0.2241588     0.129833 -40.29 0.0009472354    1.705    0.413
       185 -10.0114    163.6639     64.6951   7.2591026466e+01   3.5763576181e+01    0.1621043    0.1184394  22.07 0.0007039562    1.669    0.401
       186 -12.0567    192.4873     55.4577   6.4275378457e+01   2.9806129169e+01    0.4864282    0.1838945 -35.91  0.001700979    2.480    0.597
       187 -10.7373    157.9648     61.7272   7.2874800342e+01   3.7690690958e+01    0.2963068    0.1911844 -46.68  0.001278515    1.645    0.392
       188 -12.4708    211.8071     94.1287   7.1784734998e+01   1.9161333977e+01    0.7869198    0.2297959 -43.70  0.002270674    4.149    0.759
       189 -10.2975    153.2982     59.6517   7.3233130817e+01   3.9204752808e+01    0.1598557    0.1195472 -66.64 0.0005844226    1.682    0.406
       190 -12.3621    224.4550     53.4862   5.8871948365e+01   2.1988784808e+01    0.2658195    0.2427874 -28.00 0.0007150518    1.052    0.049
       191 -13.1300    226.4923     50.9887   5.7915724418e+01   2.1818079588e+01    0.4428655    0.2561432 -35.73  0.001657548    1.605    0.377
       192 -14.1105    247.2189     87.5405   6.4604553317e+01   1.2142346470e+01      1.47923    0.4744438 -33.04  0.005428357    2.707    0.631
       193 -10.4951    169.3567     44.2334   6.4860339128e+01   3.7479965704e+01     0.226565    0.1334759 -38.94 0.0009486698    1.700    0.412
       194 -12.4946    223.6214     35.1825   5.3904962883e+01   2.4519737436e+01    0.3530368    0.2351092 -42.12  0.001728854    1.431    0.301
       195 -11.3467    234.6973     86.6565   6.6187861357e+01   1.5013606450e+01    0.2905525    0.2222551  14.44  0.001087988    1.450    0.310
       196 -14.4102    241.8729     53.1813   5.6568429198e+01   1.7862437472e+01     1.398215    0.4418858 -36.26  0.005075198    2.675    0.626
       197 -10.8528    210.2530    247.8409   1.0128594891e+02  -1.0132458566e+00    0.1557473     0.109342  67.19 0.0009550099    2.820    0.645
       198 -11.6812    176.2706    245.8027   1.0650908157e+02   4.2422406694e+00    0.3310812    0.2033248 -36.00  0.002266706    2.251    0.556
