#   1 NUMBER                 Running object number                                     
#   2 MAG_AUTO               Kron-like elliptical aperture magnitude                    [mag]
#   3 X_IMAGE                Object position along x                                    [pixel]
#   4 Y_IMAGE                Object position along y                                    [pixel]
#   5 X_WORLD                Barycenter position along world x axis                     [deg]
#   6 Y_WORLD                Barycenter position along world y axis                     [deg]
#   7 A_WORLD                Profile RMS along major axis (world units)                 [deg]
#   8 B_WORLD                Profile RMS along minor axis (world units)                 [deg]
#   9 THETA_WORLD            Position angle (CCW/world-x)                               [deg]
#  10 FWHM_WORLD             FWHM assuming a gaussian core                              [deg]
#  11 ELONGATION             A_IMAGE/B_IMAGE                                           
#  12 ELLIPTICITY            1 - B_IMAGE/A_IMAGE                                       
         1  -8.9959     73.9636     19.3288   9.7595483116e+01   6.3498420507e+01    0.3713279    0.1812512 -44.19  0.001028875    2.329    0.571
         2  -7.7721     83.3990     11.2092   8.9853110234e+01   6.2700834934e+01    0.1982495    0.1227059 -34.96  0.000575463    1.633    0.388
         3  -8.6272     55.8590     10.2013   1.0032777524e+02   6.8288614599e+01    0.2729753    0.1750464 -44.57 0.0008273351    1.775    0.436
         4  -7.8395     47.5434     10.0463   1.0435489740e+02   6.9697139149e+01    0.1791683    0.1104898 -54.61 0.0008082111    2.470    0.595
         5  -7.9841     27.8380     10.0818   1.1573830560e+02   7.2368901854e+01    0.1887429    0.1444427 -69.32 0.0007315683    1.973    0.493
         6  -8.7184     90.7043      9.1734   8.6433559514e+01   6.1319095664e+01    0.2192216      0.16585 -36.08 0.0005623258    1.416    0.294
         7  -7.6998    101.3763      8.2122   8.2922683933e+01   5.8920998721e+01    0.1942845    0.1257337 -31.07 0.0003038815    1.554    0.357
         8  -8.7086     33.1509      4.7755   1.0927492827e+02   7.2684856285e+01    0.2853968    0.1676579 -51.21  0.001418964    2.072    0.517
         9  -7.8325     68.7898      7.9416   9.3384277031e+01   6.6191411454e+01    0.1850817    0.1032339 -25.37 0.0006091648    1.672    0.402
        10  -8.4351     78.9113      3.8134   8.7274630728e+01   6.4586774809e+01    0.2548884    0.1615956 -45.64   0.00107811    1.995    0.499
        11  -7.8684     44.9382      3.4618   1.0165356405e+02   7.1162534978e+01    0.1525685    0.1221605  72.39 0.0005658602    2.310    0.567
        12  -7.8348     15.5465      3.4722   1.2034855296e+02   7.4887957169e+01    0.1290871   0.09692927 -31.46 9.338248e-05    1.050    0.047
        13  -7.5204    115.3209      2.6305   7.6943533471e+01   5.6024405751e+01    0.1520029    0.1046316 -53.36 0.0007035438    1.797    0.443
        14  -8.5552     62.3318      1.6257   9.2204645566e+01   6.8296709940e+01    0.2090547    0.1660597  57.53 0.0005937607    1.587    0.370
        15  -7.8299     39.4604      1.4953   1.0339356683e+02   7.2324371271e+01    0.1324077    0.1089958 -14.11 -1.07276e-05    1.039    0.038
        16  -7.7637    139.5014    244.5062   1.3146404259e+02   1.0511809327e+01    0.1063944   0.07819109  36.30 0.0008093831    1.080    0.075
        17  -9.6139    241.5094    238.4233   1.1373090674e+02  -1.5324854978e+00    0.5215865    0.2225021  -0.45  0.002460832    3.880    0.742
        18  -9.2580    243.2461    246.2775   1.1455816220e+02  -2.3949982511e+00    0.3570129    0.1632086 -10.92  0.002215167    2.430    0.588
        19  -9.6318    246.7361    228.4362   1.1148159492e+02  -1.2788644747e+00    0.4277804     0.177582 -21.12  0.002067344    2.439    0.590
        20 -10.1031    248.8410    243.4056   1.1331885889e+02  -2.7949757317e+00    0.5847081    0.1689464 -29.34   0.00313864    3.700    0.730
        21  -8.8520    247.6376    235.0253   1.1231017501e+02  -1.9571546403e+00     0.198897    0.1193679  13.25 0.0009957068    1.188    0.158
        22  -9.1623    232.8807    248.3513   1.1642012463e+02  -1.3777301118e+00    0.2454028    0.1836337 -28.53   0.00162131    1.947    0.486
        23  -9.3062    211.0050    246.8975   1.1967154975e+02   1.3467637207e+00    0.2542063    0.2184502 -61.09  0.001783733    2.732    0.634
        24  -8.2011    191.4528    249.5296   1.2317862096e+02   3.4785496980e+00    0.1643187    0.1215089  44.70 0.0007091261    1.735    0.424
        25  -8.6405     93.7079    249.3265   1.3987313767e+02   1.5336513094e+01    0.2482706    0.1271068  60.02  0.001473575    2.257    0.557
        26  -7.2968     86.3223    250.6674   1.4123867410e+02   1.5977443209e+01    0.1042565   0.05615294  54.73 0.0007050039    1.702    0.413
        27  -8.9531     78.2472    243.3615   1.4214722449e+02   1.7875730585e+01    0.2907164    0.1155851  58.99  0.001529818    3.092    0.677
        28  -8.3868      9.2463    243.2383   1.5379695198e+02   2.4465894185e+01    0.2199617   0.05250549  67.01  0.001059311    4.226    0.763
        29  -9.4462    160.4298    240.6809   1.2739870153e+02   8.3354760679e+00    0.2562295    0.2035775  86.10  0.001237477    2.417    0.586
        30  -7.9709     49.5163    242.5668   1.4707778394e+02   2.0964420982e+01    0.1599451   0.07718966  81.69  0.001030577    2.463    0.594
        31  -8.1907    214.1733    241.9450   1.1851594742e+02   1.4286725367e+00    0.1256353    0.1232238  36.45 0.0009764726    1.993    0.498
        32  -9.3100    182.8424    240.0400   1.2346365340e+02   5.5467305623e+00     0.315102    0.1987469  50.76  0.001797508    2.258    0.557
        33  -7.9751    153.4039    242.1712   1.2878924643e+02   9.0514156991e+00      0.11415    0.1035966 -77.98 0.0006781715    1.688    0.408
        34  -8.2062     88.1024    242.2737   1.4033914149e+02   1.6938595491e+01    0.1420397    0.1021068  47.01 0.0006681033    1.087    0.080
        35  -8.4017    146.6177    240.1068   1.2975711067e+02   1.0161520397e+01    0.2765514    0.1577712  59.09  0.001052831    2.987    0.665
        36  -9.0109    194.1168    239.6355   1.2151072348e+02   4.1576154269e+00    0.1509898    0.1296668   8.09  0.000367577    1.318    0.241
        37  -8.8065    135.7626    239.1095   1.3157736181e+02   1.1657487865e+01    0.1604324    0.1161828  45.79 0.0009225344    1.297    0.229
        38  -8.6300    129.7451    239.0638   1.3264609134e+02   1.2416657257e+01    0.2183152   0.09646372  50.64  0.001160852    2.593    0.614
        39  -9.5054    230.7632    236.9099   1.1518674554e+02  -1.2104586704e-01    0.2189024    0.1781917 -38.00  0.001228151    2.236    0.553
        40  -8.3882     26.0179    237.5994   1.5086114704e+02   2.3896463550e+01    0.2314781   0.05634039  59.59  0.001089323    3.897    0.743
        41  -7.7385    209.2896    238.6754   1.1887421225e+02   2.3481030010e+00   0.09071463    0.0744223  35.72 0.0003600565    1.611    0.379
        42  -8.7327    217.3436    235.6962   1.1715990391e+02   1.6361292298e+00    0.1839173    0.1294258  33.32 0.0008954274    1.448    0.310
        43  -9.1715    214.0432    232.1651   1.1720899991e+02   2.3960386932e+00     0.258853    0.2400521 -71.22   0.00152855    2.396    0.583
        44  -8.7297    203.1250    234.7903   1.1937213219e+02   3.5156939997e+00      0.19189    0.1679639 -53.94   0.00119994    2.177    0.541
        45  -9.6999    175.6734    233.2350   1.2385290924e+02   7.2342922681e+00    0.3504212    0.2374527 -59.43  0.002237427    2.841    0.648
        46  -8.1386    170.2739    235.9444   1.2512795954e+02   7.6232356375e+00    0.1398276    0.1161587  14.68 0.0004677076    1.164    0.141
        47  -9.2925    109.2333    234.6826   1.3593225459e+02   1.5535843055e+01    0.4097753    0.1517024  45.36  0.001641919    2.270    0.559
        48  -7.6323     57.9557    237.0000   1.4532009218e+02   2.0949162053e+01    0.1632097   0.04463555  32.90 0.0007981933    2.913    0.657
        49  -8.8243     79.0236    234.6205   1.4141016607e+02   1.9060141790e+01    0.2075764    0.1194146  62.38 0.0009050284    1.794    0.442
        50  -8.1897    122.8559    234.1439   1.3340331637e+02   1.3932395131e+01    0.1641895    0.1168995  49.57 0.0007197061    1.334    0.250
        51  -8.1953     99.6476    234.3445   1.3764760649e+02   1.6732829061e+01    0.1654475   0.09638358  55.74 0.0009620297    1.720    0.419
        52  -8.6766     92.9848    232.9021   1.3874389781e+02   1.7724674027e+01    0.2775233    0.1781884  62.33  0.001941612    1.652    0.395
        53  -9.4069     68.3054    232.4433   1.4319801229e+02   2.0555925002e+01    0.3943207    0.1360647  57.69  0.001863927    3.540    0.718
        54  -8.5882    194.3258    232.9642   1.2060792005e+02   4.8370603589e+00    0.1445473    0.1125151  14.88 0.0005815455    1.111    0.100
        55  -7.7133    163.6775    233.6978   1.2601614964e+02   8.7470157467e+00    0.1091288    0.0701209  12.28 0.0007028509    1.632    0.387
        56  -8.3493    132.9205    232.9775   1.3145557321e+02   1.2818708978e+01    0.1677317    0.1090461  54.07 0.0009109219    1.723    0.420
        57  -7.8788     37.5171    233.4898   1.4872422062e+02   2.3483459332e+01    0.1010701    0.0696754  54.33  0.000809286    1.073    0.068
        58  -9.0428    236.0062    231.1173   1.1353791031e+02  -2.2827715786e-01    0.1955372    0.1276223 -14.13 0.0005156056    1.475    0.322
        59  -9.2048    186.4845    230.8272   1.2166819694e+02   6.0928080068e+00    0.2300297    0.2012869  81.34  0.001490465    2.256    0.557
        60  -8.1518    157.7221    232.1107   1.2688602921e+02   9.7193187450e+00    0.1457401    0.1311805  55.12 0.0008533802    1.476    0.323
        61  -8.5404      1.6963    231.1070   1.5473953063e+02   2.6909503861e+01    0.1528569   0.07735102  64.50 0.0006966941    1.494    0.330
        62  -8.8625    151.4911    229.0078   1.2764278522e+02   1.0929015778e+01    0.2153599    0.1586064  59.23  0.001249158    1.849    0.459
        63  -9.2750    148.8263    224.6997   1.2762125081e+02   1.1843660978e+01    0.2694648     0.202341  69.37  0.001297964    2.099    0.524
        64  -8.8539    139.8308    230.1010   1.2988836260e+02   1.2311880129e+01    0.2371251    0.1160481  44.90 0.0008776691    1.846    0.458
        65  -8.6776    229.7026    229.0743   1.1423741145e+02   7.3484991739e-01    0.1418336    0.1169226  -8.27 0.0008105134    1.474    0.321
        66  -8.4564    162.1705    228.0510   1.2560014920e+02   9.6363840602e+00    0.2015035    0.1207006  50.66  0.001077922    2.057    0.514
        67  -8.6730    128.1268    227.4898   1.3175891665e+02   1.4179093289e+01    0.2238603    0.1446069  55.86   0.00118529    1.771    0.435
        68  -7.9919    120.0066    227.3089   1.3324772171e+02   1.5241228287e+01     0.193209    0.1467751 -76.87   0.00139891    1.822    0.451
        69  -9.1020      8.3725    227.7922   1.5353719108e+02   2.6906455841e+01    0.1181117   0.07587919 -78.55 0.0006317135    1.693    0.409
        70  -9.3473    225.3126    221.5803   1.1384031391e+02   2.0163053283e+00    0.1970971    0.1515348  -7.73 0.0002523247    1.311    0.237
        71  -7.8820     58.9786    228.0000   1.4461079872e+02   2.2224677685e+01    0.1670983   0.04679719  32.66 0.0007986401    2.916    0.657
        72  -8.4446     49.4541    226.9588   1.4628078595e+02   2.3355859867e+01    0.2394828    0.1048585  69.86  0.001224437    2.640    0.621
        73  -8.8556    205.9313    225.9464   1.1768470927e+02   4.0777119847e+00    0.1643508     0.139815  -9.70 0.0007544932    1.405    0.288
        74  -8.1406    200.1309    226.2132   1.1870406925e+02   4.8092963107e+00    0.1361398    0.1138822  26.00 0.0005373893    1.347    0.258
        75  -8.9158     94.2944    224.5394   1.3780331862e+02   1.8817814358e+01    0.3074347    0.1515361  58.76  0.001651527    2.410    0.585
        76  -8.8872    216.6219    223.7358   1.1558341623e+02   2.9178770740e+00    0.1969472    0.1575104 -29.73 0.0008746548    1.727    0.421
        77  -8.8980    180.6099    224.4113   1.2184477965e+02   7.6113647871e+00    0.2225022    0.1822442  46.55 0.0009835011    1.577    0.366
        78  -8.7006    104.8884    223.9210   1.3575114891e+02   1.7626066614e+01    0.2435829    0.1536695  64.03  0.001560606    1.906    0.475
        79  -7.8045     38.4528    224.9458   1.4816426492e+02   2.4742808290e+01    0.1423573   0.05958061  68.22 0.0008082318    2.502    0.600
        80  -8.6332    173.0010    223.2219   1.2304144261e+02   8.7802677519e+00    0.1849484    0.1561484 -46.46 0.0006233687    1.686    0.407
        81  -9.4537      7.6224    234.3747   1.5383721287e+02   2.5937238885e+01    0.1867464    0.1042881  32.03  0.001432964    1.668    0.401
        82  -9.3240    192.4975    221.3108   1.1933293614e+02   6.3720038817e+00    0.2379691    0.2262796  76.94  0.001179783    1.852    0.460
        83  -8.1806    140.4670    222.9519   1.2896372611e+02   1.3191559247e+01    0.1314135   0.09545013  81.23 0.0008080871    2.430    0.589
        84  -9.0286    238.9305    221.4988   1.1164989338e+02   3.0424908406e-01    0.1662369    0.1335985 -14.98 0.0006171483    1.543    0.352
        85  -8.9626    159.9228    221.2596   1.2515955004e+02   1.0800729383e+01    0.3650119    0.1674972  47.68  0.001828676    2.501    0.600
        86  -8.3070    202.8084    220.2673   1.1740312686e+02   5.1048434109e+00    0.1630748    0.1392558 -14.06 0.0005310915    1.416    0.294
        87  -8.4996     82.8506    220.7628   1.3965241796e+02   2.0747596450e+01    0.2619391    0.1152778  55.50  0.001042536    2.404    0.584
        88  -7.9853     73.0287    220.9561   1.4152962526e+02   2.1830631358e+01    0.1711571   0.09807096  60.30  0.000613614    1.699    0.411
        89  -8.0249     27.5250    221.5175   1.4997611276e+02   2.6300608311e+01    0.1011012   0.07276583  56.84 0.0001310773    1.032    0.031
        90  -8.2588    223.6980    226.2750   1.1479534019e+02   1.7571008299e+00     0.220448    0.1111873 -13.13   0.00127822    2.226    0.551
        91  -9.2151    120.4769    219.2551   1.3232365927e+02   1.6346354094e+01    0.3431118    0.1745077  54.64  0.001711972    2.394    0.582
        92  -9.0387    247.6956    216.7397   1.0954886207e+02  -3.3684150337e-01    0.2915359    0.2415561 -50.00   0.00196249    3.038    0.671
        93  -8.3167    209.9697    218.9729   1.1599610298e+02   4.2909931143e+00    0.1727079    0.1383048 -15.63 0.0007836058    1.401    0.286
        94  -9.0770    132.7627    216.0181   1.2961308992e+02   1.5197869476e+01    0.3435301    0.2195439  70.51  0.001881199    2.810    0.644
        95  -8.4204     62.1532    217.4267   1.4334157281e+02   2.3587064355e+01    0.2974299    0.1033133  52.51  0.001498018    2.661    0.624
        96  -8.7922     51.6831    217.2912   1.4531430109e+02   2.4698248997e+01    0.2517119    0.1251769  60.40  0.001219107    1.862    0.463
        97  -8.6256    179.0436    217.3591   1.2116460895e+02   8.6752915074e+00    0.1611307    0.1198634  27.27 0.0005834146    1.082    0.076
        98  -8.6196    169.4533    216.4721   1.2278464780e+02   1.0111020090e+01    0.2157777    0.1587906  62.88 0.0009974072    2.288    0.563
        99  -8.3370    142.8161    216.4003   1.2774387692e+02   1.3784524608e+01    0.1818893    0.1452859  71.68 0.0008564595    1.795    0.443
       100  -8.3279     18.5381    215.4930   1.5136056486e+02   2.8077671530e+01    0.2208176   0.08540358 -81.47  0.001320883    2.582    0.613
       101  -8.5043    232.1793    214.6884   1.1167661157e+02   1.8206225142e+00    0.1694203    0.1308255 -14.99 0.0007786583    1.425    0.298
       102  -8.4433    185.6935    214.5459   1.1957459034e+02   8.1001157586e+00    0.1800887    0.1610208  53.56 0.0008075032    1.674    0.403
       103  -7.8881    154.4142    215.2264   1.2540895856e+02   1.2356250920e+01    0.1273309    0.1127379 -65.28 0.0006377083    1.618    0.382
       104  -9.0568     93.5289    214.4135   1.3704681295e+02   2.0489757615e+01    0.3204556    0.1432544  53.37  0.001415019    2.361    0.576
       105  -9.4528    214.0404    212.1588   1.1428054562e+02   4.4842878447e+00    0.2798049    0.2562569  30.22  0.001148815    1.642    0.391
       106  -9.3361     73.2277    212.0743   1.4081380614e+02   2.3257058429e+01    0.5213778    0.1545621  51.99  0.002182251    3.712    0.731
       107  -8.0708    224.8883    212.8828   1.1258276415e+02   2.9571287957e+00    0.1443499    0.1306849  27.90 0.0007795982    1.692    0.409
       108  -8.5039    161.8794    212.4635   1.2364518568e+02   1.1691185605e+01    0.1731796    0.1608272  71.48 0.0007852041    1.543    0.352
       109  -7.7745    106.4013    213.1810   1.3441091680e+02   1.9081835613e+01    0.1348409    0.1039635  89.26 0.0007935442    1.638    0.389
       110  -8.8064    204.4007    210.8714   1.1573387914e+02   5.9443854406e+00    0.2168964     0.180435 -42.90 0.0008873121    1.873    0.466
       111  -9.3582    175.7055    210.2910   1.2077738683e+02   1.0030882539e+01    0.3263723    0.2271639  58.99  0.001441747    2.399    0.583
       112  -8.9019    116.5262    210.7631   1.3216692905e+02   1.8147978489e+01     0.280527    0.1637949  58.49  0.001007806    2.105    0.525
       113  -7.9987    192.4451    210.5072   1.1777914633e+02   7.6480959001e+00    0.1591717    0.1087944 -45.11 0.0006906168    2.105    0.525
       114  -8.7510    147.8971    210.5398   1.2603874497e+02   1.3912452435e+01    0.2225719    0.1658638  58.24 0.0009251576    1.719    0.418
       115  -8.4080     85.8230    209.7893   1.3814131996e+02   2.2172429391e+01    0.2104039    0.1222206  69.34  0.001143161    2.143    0.533
       116  -8.4500     46.9804    210.1655   1.4578176535e+02   2.6371062303e+01    0.2163853    0.1041357  49.76  0.001346158    1.655    0.396
       117  -7.8228     32.3478    210.6502   1.4859944560e+02   2.7685409726e+01    0.1162783   0.05340077  57.75 0.0007039618    1.818    0.450
       118  -9.2266    236.5293    207.7146   1.0987074109e+02   1.9558455934e+00    0.3145901    0.1784531 -25.43  0.001678632    1.779    0.438
       119  -9.3194    124.4608    206.4615   1.3010512596e+02   1.7753848776e+01     0.306983    0.1920405  64.56 -0.0001541599    2.328    0.570
       120  -9.3888    246.3341    207.3109   1.0825386817e+02   7.2840911311e-01    0.2397164    0.1586141  -6.70 0.0005194169    1.257    0.205
       121  -9.3928    250.1119    201.9546   1.0678301282e+02   7.6600934786e-01    0.2933729    0.1380839 -23.81  0.001165992    1.991    0.498
       122  -8.0094    156.4620    208.0386   1.2406887455e+02   1.3060290302e+01    0.1461626    0.1154194 -38.76 0.0005376859    1.524    0.344
       123  -8.3365    139.2505    207.8598   1.2736651201e+02   1.5505919018e+01    0.1996554    0.1587457  61.77  0.000780242    1.567    0.362
       124  -9.1127     99.3765    206.2210   1.3509376920e+02   2.1092916711e+01    0.2940891    0.1827372  67.30  0.001539859    2.026    0.506
       125  -9.1941     11.6824    206.9998   1.5231291083e+02   3.0090081016e+01    0.1414645    0.1042438  70.40 0.0007136398    1.103    0.093
       126  -9.1888    194.9414    203.8175   1.1631524033e+02   8.1084462294e+00    0.2604966    0.2498191 -10.68      0.00113    1.508    0.337
       127  -9.5452    192.3996    197.4076   1.1576344527e+02   9.2784150183e+00    0.3606159    0.2877799 -25.58  0.001417888    1.409    0.290
       128  -8.9807    183.8031    203.9769   1.1835981227e+02   9.6873587314e+00     0.250551    0.2003899  55.85 0.0009981857    1.857    0.461
       129  -8.6051    131.3451    204.0706   1.2844500722e+02   1.7177388343e+01    0.2497175    0.1625662  63.55  0.001040307    2.198    0.545
       130  -9.5886      7.0008    209.9157   1.5326450341e+02   2.9958549010e+01      0.43476   0.09080335  64.14  0.001755632    4.944    0.798
       131  -7.8245     92.4169    205.2619   1.3639893522e+02   2.2123914637e+01    0.1406832    0.1030422  87.39 0.0006939956    1.630    0.386
       132  -9.5668    163.8626    203.0889   1.2196324948e+02   1.2690156876e+01    0.3668064    0.2061678  50.87  0.001277389    2.260    0.558
       133  -7.7974     24.7168    204.6898   1.4976961528e+02   2.9402907223e+01   0.08628296   0.07665897 -49.81 0.0002407536    1.569    0.363
       134  -8.5402     48.8043    202.6615   1.4495611608e+02   2.7495486949e+01    0.2171592    0.1046759  66.73  0.001227613    2.175    0.540
       135  -9.3352    243.1000    200.7505   1.0767872421e+02   1.7975563691e+00    0.2703263    0.1525199 -25.83  0.001110053    1.763    0.433
       136  -8.2357    211.0345    202.0222   1.1319759869e+02   6.0378922941e+00    0.1511239    0.1403747  40.10 0.0006267415    1.692    0.409
       137  -8.8585    140.4023    201.1945   1.2627258050e+02   1.6342844878e+01    0.2844417    0.2013027  66.29  0.001306419    2.091    0.522
       138  -8.3127     79.7871    201.4717   1.3860541654e+02   2.4301247314e+01    0.2142197    0.1130595  63.83 0.0009873133    2.254    0.556
       139  -8.4051     56.7818    205.7234   1.4357864846e+02   2.6135136968e+01    0.2642899    0.1080631  55.53  0.001257612    2.340    0.573
       140  -7.8452    221.9769    201.2560   1.1120806934e+02   4.5973350250e+00    0.1372955    0.1204848 -22.65 0.0005050472    1.596    0.374
       141  -9.3958    149.5465    198.8489   1.2413995395e+02   1.5379682084e+01    0.3322099    0.2402984  68.19  0.001647533    2.220    0.550
       142  -8.8485    123.9878    199.2815   1.2932458361e+02   1.8952963917e+01     0.247261    0.1777487  78.97  0.001365366    2.075    0.518
       143  -9.0040    113.1552    198.8280   1.3148193272e+02   2.0510498282e+01    0.3891962    0.2020921  58.18  0.001850332    2.611    0.617
       144  -9.0077     88.6635    198.4883   1.3649661378e+02   2.3743868789e+01     0.309596     0.180166  71.70  0.001410724    2.304    0.566
       145  -8.9639    236.9814    198.1689   1.0822250659e+02   2.8789037324e+00    0.2390828    0.1439779 -30.03  0.001258953    1.827    0.453
       146  -8.4825    177.2429    199.0023   1.1881977690e+02   1.1296427201e+01    0.1982748    0.1479071  47.71 0.0007365479    1.603    0.376
       147  -9.0282     61.5825    197.2155   1.4197872797e+02   2.7127257906e+01     0.370492    0.1659615  65.10  0.001691562    2.768    0.639
       148  -8.3269    202.1427    197.6911   1.1405489989e+02   7.8227495084e+00    0.1761392    0.1500173 -21.50 0.0006507037    1.407    0.289
       149  -8.9946     12.6281    197.4607   1.5179105360e+02   3.1700577009e+01    0.2479391   0.08847428  76.19  0.001280981    2.835    0.647
       150  -8.3661    215.8796    195.5956   1.1130569208e+02   6.0959080102e+00    0.1939317    0.1463978 -40.89 0.0007201079    1.942    0.485
       151  -8.0359    133.0398    196.2906   1.2709793435e+02   1.8155702748e+01    0.1705716    0.1341075  38.90 0.0007348554    1.113    0.101
       152  -7.9134     53.4838    196.4984   1.4358839537e+02   2.8120470969e+01    0.1134286   0.08610483  58.28 1.300572e-05    1.094    0.086
       153  -9.4949    245.6916    192.7402   1.0590537938e+02   2.2715964853e+00    0.3585874    0.1916388 -24.21  0.001754096    1.758    0.431
       154  -8.4110    224.2833    193.9277   1.0959502719e+02   5.0936718245e+00    0.2052605      0.14372 -32.90  0.001002348    1.745    0.427
       155  -8.8732    185.1789    194.9827   1.1670534022e+02   1.0660166280e+01    0.1952001    0.1737181  22.98 0.0006678888    1.254    0.203
       156  -8.8103    160.9802    194.3363   1.2123215959e+02   1.4361992512e+01    0.2194737    0.1939624 -89.42 0.0008364368    1.728    0.421
       157  -8.1907    230.8638    193.9086   1.0849633358e+02   4.1737867136e+00    0.1952392    0.1358095 -20.46 0.0008918364    1.423    0.297
       158  -8.6696     77.0538    193.9344   1.3847653758e+02   2.5958066281e+01    0.2040505    0.1518442  60.60 0.0006401227    1.246    0.198
       159  -8.9700     43.5965    193.3748   1.4540370982e+02   2.9694159395e+01    0.3097904    0.1482034  66.93  0.001726226    2.158    0.537
       160  -7.9298    205.2061    191.9348   1.1255706633e+02   8.0827788289e+00     0.144526   0.08888644 -29.23 0.0004169312    1.707    0.414
       161  -8.0810    198.8204    191.6292   1.1365146750e+02   9.0660881721e+00    0.1725714    0.1344383 -25.52 0.0005211153    1.412    0.292
       162  -7.9498    178.9986    191.9385   1.1737955648e+02   1.1997407853e+01    0.1650462    0.1461612  58.64 0.0005909905    1.627    0.385
       163  -8.5305    172.3465    191.6250   1.1860262222e+02   1.3045370245e+01    0.2001763     0.192791 -36.42 0.0009347471    1.399    0.285
       164  -9.0021    139.5041    190.5991   1.2499224245e+02   1.8124117800e+01    0.2805049    0.2026273  64.82  0.001078154    1.931    0.482
       165  -9.4516     21.3603    191.4331   1.4981766166e+02   3.2086107801e+01    0.3187353   0.09777948  60.20  0.001490445    3.133    0.681
       166  -8.4593      6.7448    191.3540   1.5271203992e+02   3.3269964121e+01     0.232234   0.05730731  65.08 0.0009597858    4.159    0.760
       167 -10.3770     92.2223    188.6398   1.3471113999e+02   2.5039102063e+01    0.8531988    0.2198186  45.58  0.003195438    3.691    0.729
       168  -8.5186    148.6131    189.5050   1.2297450606e+02   1.6942043796e+01     0.179275    0.1509809 -82.88 0.0006971332    1.754    0.430
       169  -8.9332    129.4884    188.8317   1.2681747346e+02   1.9878220183e+01    0.2874205     0.189172  61.21  0.001080448    2.013    0.503
       170  -9.5231    191.1552    188.2161   1.1448429153e+02   1.0661799139e+01     0.290029    0.2186452 -33.06 0.0007210757    1.521    0.342
       171  -9.2635    155.9421    187.5535   1.2119731517e+02   1.6136035897e+01     0.285679    0.1957128 -55.99  0.001074354    2.000    0.500
       172  -9.8524    121.0362    186.9328   1.2833862594e+02   2.1417100568e+01    0.4415659    0.2688574 -80.32  0.002136973    3.004    0.667
       173  -9.1371     54.7908    187.2038   1.4261280272e+02   2.9704323754e+01    0.3494853    0.1566467  61.95  0.001620958    2.468    0.595
       174  -8.8280     34.3477    188.3169   1.4699801826e+02   3.1520752057e+01    0.2864399       0.1313  70.12  0.001117958    2.248    0.555
       175  -8.5419    242.5903    188.2151   1.0560511500e+02   3.1669948108e+00    0.1576097   0.08983332 -11.61 0.0007945097    1.591    0.371
       176  -8.3689    237.3802    187.8836   1.0638362845e+02   3.9244321222e+00     0.204077      0.11989 -15.07  0.001245979    1.544    0.352
       177  -8.5886    216.4757    187.8425   1.0987836544e+02   6.9236201963e+00    0.1950828    0.1767944  26.44 0.0007229215    1.497    0.332
       178  -8.7270    165.0042    186.9129   1.1928793752e+02   1.4847269466e+01    0.2374959    0.2053005 -81.44  0.001072836    1.834    0.455
       179  -8.0049    230.4084    187.2304   1.0741099522e+02   4.9800844863e+00    0.1484955    0.1007811 -31.78 0.0009368767    1.719    0.418
       180  -9.0641    109.6073    186.2088   1.3068532783e+02   2.3151778270e+01    0.3180985    0.2012823  61.90  0.001427487    1.943    0.485
       181  -8.6443    249.4115    185.5377   1.0405517677e+02   2.5167373781e+00    0.2392445    0.1474018 -21.30  0.001317435    1.490    0.329
       182  -8.7529    210.2645    184.4148   1.1036442680e+02   8.2631472037e+00    0.2032131    0.1730691  -8.34 0.0006395752    1.256    0.204
       183  -8.4933    202.8602    184.6296   1.1172558753e+02   9.3536718603e+00    0.1992326    0.1600401 -45.05 0.0006032346    1.820    0.450
       184  -8.8314    183.0294    184.8743   1.1544977924e+02   1.2361817780e+01    0.2015502    0.1675934 -20.83 0.0006133805    1.283    0.220
       185  -8.9592     66.7357    184.3937   1.3979711888e+02   2.8923497865e+01    0.3504322    0.1703637  58.55  0.001366702    2.195    0.544
       186  -8.2484    224.1469    183.8974   1.0786896419e+02   6.2671956223e+00    0.1659088    0.1430046   6.83 0.0005044778    1.289    0.224
       187  -8.8641    174.2549    183.6473   1.1693626087e+02   1.3897255351e+01    0.2153482    0.1947073  65.22 0.0006747897    1.597    0.374
       188  -8.2577      2.0362    183.8172   1.5338870707e+02   3.5020116224e+01    0.1828734   0.08940666  41.26  0.001195899    1.688    0.408
       189  -8.9747     44.3569    182.4537   1.4449217785e+02   3.1681452017e+01    0.3025889    0.1531377  64.56  0.001054334    1.975    0.494
       190  -8.7059     19.7619    183.1505   1.4974674490e+02   3.3780945716e+01    0.2028625   0.06492229  58.70 0.0009565481    2.887    0.654
       191  -8.0741    240.4729    181.4702   1.0473664313e+02   4.1923758875e+00    0.1879694   0.09694807 -35.86  0.001023176    2.288    0.563
       192  -9.2589    147.5284    180.6856   1.2184712359e+02   1.8509445199e+01     0.284964    0.2338966  83.86  0.001063648    1.834    0.455
       193  -9.7267     25.6831    179.1347   1.4828886727e+02   3.4057246538e+01    0.5758026     0.192462  71.80  0.002366403    3.969    0.748
       194  -7.6543    235.2552    181.6469   1.0561445279e+02   4.9160545880e+00    0.1009338   0.08858006 -24.05 0.0003053587    1.604    0.377
       195  -7.7036     90.6306    181.7298   1.3427670969e+02   2.6512026394e+01    0.1148489   0.09131896  -1.50 0.0006997159    1.668    0.401
       196  -8.5899    137.5290    179.4617   1.2375994729e+02   2.0247367725e+01    0.2522352    0.1735218  67.24 0.0008527316    2.228    0.551
       197  -9.4545    191.5261    178.0211   1.1265171986e+02   1.1987558760e+01    0.2955688     0.249464 -40.67  0.001136979    1.555    0.357
       198  -8.0796    169.5153    178.7281   1.1704313844e+02   1.5369391834e+01    0.1482088    0.1234945 -49.48 0.0009243162    1.561    0.360
       199  -9.2343     35.7933    176.6917   1.4595084100e+02   3.3630607953e+01    0.5438485     0.200635  76.71  0.002203072    3.990    0.749
       200  -9.5130    248.5279    176.7193   1.0258962165e+02   3.5751422595e+00    0.3809665    0.2194168 -33.28  0.002258488    1.958    0.489
       201  -8.4836    250.5151    172.9125   1.0157110038e+02   3.7073697838e+00    0.1692939    0.1191044 -19.92 0.0005377908    1.350    0.259
       202  -8.5018    205.0296    177.5660   1.1007708154e+02   9.9354122288e+00    0.2105912    0.1659393 -38.24 0.0007122672    1.637    0.389
       203  -8.5769    129.1394    177.5285   1.2526716909e+02   2.1850449546e+01      0.24012    0.1854061  75.87 0.0008206401    1.788    0.441
       204  -8.0702     97.2577    178.1324   1.3237483444e+02   2.6307740682e+01    0.1978197    0.1274671 -16.25 0.0009485489    2.835    0.647
       205  -8.0946    231.1876    177.1663   1.0546542981e+02   6.0202511107e+00    0.1505682    0.1260513 -15.92 0.0004868236    1.370    0.270
       206  -8.2609    217.5027    177.1724   1.0779244010e+02   8.0683258816e+00    0.1750187    0.1553553  15.27 0.0005339828    1.332    0.249
       207  -9.1685    183.0758    176.3052   1.1395911677e+02   1.3569687266e+01    0.2370425    0.1989325 -25.52 0.0004912298    1.301    0.231
       208  -9.1982    104.2957    174.8332   1.3037240975e+02   2.5958064600e+01     0.458612    0.2345371  60.12  0.001738589    2.878    0.653
       209  -8.7462     89.0046    177.0125   1.3408734924e+02   2.7612165190e+01    0.2446662     0.155442  62.03 0.0008464156    1.740    0.425
       210  -9.8440     57.2340    173.2525   1.4088882034e+02   3.2151856119e+01    0.7016607    0.2961428  72.73  0.002717372    4.134    0.758
       211  -8.7061     12.8231    176.8555   1.5090322168e+02   3.5553496813e+01    0.2114808    0.1092828  69.69  0.001022751    1.672    0.402
       212  -9.0798    158.7657    175.0501   1.1859860771e+02   1.7649963433e+01    0.2951088    0.2396072  81.09  0.001098959    2.007    0.502
       213 -10.5396     76.0761    171.0887   1.3634985260e+02   3.0400983291e+01    0.8981176    0.3843448 -84.25  0.003230604    4.747    0.789
       214  -9.1255     74.7457    160.4101   1.3541903052e+02   3.2729093532e+01    0.6477064    0.3076659  12.05  0.002100555    5.732    0.826
       215  -7.9120    224.2459    174.2765   1.0609622436e+02   7.4001112559e+00    0.1498377    0.1353422  -0.27 0.0008597634    1.384    0.277
       216  -9.3931    175.6909    172.4305   1.1471604912e+02   1.5328713083e+01    0.2698687    0.2158308 -24.92 0.0007771723    1.300    0.231
       217  -8.1185    143.1236    172.9048   1.2152970677e+02   2.0488002135e+01    0.1874236    0.1643684  56.48 0.0006929289    1.314    0.239
       218  -8.5985    134.8212    172.0312   1.2318354547e+02   2.1939339652e+01    0.1896427     0.164528  58.30 0.0007343083    1.299    0.230
       219  -9.4446    121.4168    170.6018   1.2592367345e+02   2.4249770545e+01    0.3136969    0.2389635  87.25  0.001104554    1.827    0.453
       220  -9.0182     45.1440    171.1521   1.4345532450e+02   3.3835224257e+01    0.3229968    0.1663166  77.07  0.001389859    2.164    0.538
       221  -9.1159    230.4615    169.7882   1.0420250188e+02   6.9997609999e+00    0.3525646    0.2013292 -33.81   0.00198047    1.882    0.469
       222  -7.9587    236.8739    169.7734   1.0314329890e+02   6.0387878195e+00    0.1493083    0.1305003   6.87 0.0006053088    1.336    0.252
       223  -8.1725    205.7126    170.1947   1.0859099488e+02   1.0801277117e+01    0.1770981     0.152463 -32.60 0.0006510161    1.476    0.323
       224  -8.5936    198.2230    169.9576   1.0992440367e+02   1.2034142288e+01    0.1783496     0.165944   7.03 0.0007505807    1.304    0.233
       225  -9.1699    167.2668    168.8084   1.1576405477e+02   1.7262604737e+01    0.3149324    0.2333018  61.87  0.001073857    2.018    0.504
       226  -8.7978    149.8335    169.7291   1.1956590839e+02   1.9953766096e+01    0.2549252    0.2158212  76.12 0.0009350287    1.660    0.397
       227  -7.8600    244.2153    169.1753   1.0185034325e+02   5.0252751903e+00    0.1503221    0.1285941 -10.89 0.0007317253    1.379    0.275
       228  -8.2324    218.8315    168.3579   1.0590943018e+02   8.9670395397e+00    0.1909028     0.151729 -21.03 0.0005015137    1.311    0.237
       229  -8.8626    111.6587    167.7355   1.2770357853e+02   2.6236601740e+01    0.3184359     0.194365  63.45 0.0009408854    2.264    0.558
       230  -8.2815     88.7366    168.9068   1.3315736398e+02   2.9217233405e+01    0.2167764     0.161057  84.11 0.0007108458    1.544    0.352
       231  -8.8397     13.0461    167.5356   1.5041766962e+02   3.7387130610e+01    0.2415915   0.07274546  62.11  0.001036724    3.384    0.704
       232  -9.0879    191.9128    166.5642   1.1047452720e+02   1.3539331515e+01    0.2527244    0.1749121 -35.23 0.0007596788    1.568    0.362
       233  -8.9964    185.0936    166.6674   1.1180892190e+02   1.4648522129e+01    0.2003498     0.174043 -33.97 0.0006997386    1.372    0.271
       234  -9.3085     20.4821    166.1862   1.4869115760e+02   3.7077363585e+01    0.3244446     0.132551  60.89  0.001188759    2.305    0.566
       235  -9.8940    136.7969    164.5092   1.2151314486e+02   2.2956141932e+01    0.5628578    0.2693731  52.78  0.002307741    2.836    0.647
       236  -9.9897     94.8087    162.7774   1.3092046972e+02   2.9609875492e+01    0.6898375    0.3691714  72.71  0.002675047    3.774    0.735
       237  -8.3042    233.8493    165.0464   1.0272851670e+02   7.0521634196e+00    0.1734721    0.1471182 -11.19 0.0005749489    1.297    0.229
       238  -8.8826    159.4339    164.4071   1.1659476813e+02   1.9267463899e+01    0.2548362     0.225269 -69.88 0.0009474297    1.564    0.360
       239  -9.4318     33.5367    163.4904   1.4553120648e+02   3.6511068452e+01    0.5103312    0.1588806  51.12  0.002238815    2.994    0.666
       240  -8.3907    239.8849    164.1504   1.0157239458e+02   6.2435943701e+00    0.1744038    0.1460635  -6.11 0.0005233367    1.251    0.200
       241  -8.4270    212.9060    163.8689   1.0608435881e+02   1.0488081735e+01    0.2048884    0.1591669 -26.60 0.0006205167    1.369    0.270
       242  -8.1990     57.2066    164.0426   1.4001922425e+02   3.4026111537e+01    0.2982769    0.1585041   9.37  0.001299798    3.514    0.715
       243  -8.6332    246.1085    162.7590   1.0031276355e+02   5.4746260168e+00      0.19781    0.1410397 -21.13 0.0005444959    1.330    0.248
       244  -8.5295    204.8578    163.0561   1.0737867238e+02   1.1905104577e+01    0.1793518    0.1637723  -3.49 0.0005540089    1.275    0.216
       245  -9.2704      3.3075    162.3574   1.5233477825e+02   3.9138378054e+01    0.3586544    0.1250058  52.18  0.001888265    2.337    0.572
       246  -9.0732    177.5299    160.8170   1.1219533708e+02   1.6800869405e+01    0.2677001    0.2279929 -62.97 0.0009438545    1.746    0.427
       247  -8.5839    151.4990    160.8807   1.1764880971e+02   2.1183645571e+01    0.2359384    0.2023374  65.89 0.0009245653    1.511    0.338
       248  -8.6238    227.2547    158.9259   1.0262112385e+02   8.8281493272e+00    0.2402068    0.1504323 -35.09  0.001003035    1.762    0.432
       249  -8.3763     60.4031    160.0258   1.3884252423e+02   3.4506930463e+01    0.2324329    0.1377905  58.01   0.00104587    1.683    0.406
       250  -9.5088    250.1639    157.8847   9.8722710262e+01   5.4270912291e+00     0.260914    0.1445393 -25.40 0.0007465398    1.605    0.377
       251  -8.5079    236.5801    158.9826   1.0108851839e+02   7.3599452555e+00    0.1812356    0.1669676  29.59   0.00093708    1.543    0.352
       252  -8.2091    128.0387    158.9977   1.2255372233e+02   2.5366236131e+01    0.2042973    0.1577617  69.95   0.00077642    1.698    0.411
       253  -9.5145    105.8892    157.7811   1.2754883812e+02   2.9017653424e+01    0.4322655    0.3191487 -88.81  0.001211922    1.754    0.430
       254  -8.2914    196.8102    158.0780   1.0789530586e+02   1.3943787316e+01    0.1815715    0.1741848   6.71 0.0006759199    1.341    0.254
       255  -8.2431    188.1775    157.7150   1.0948080896e+02   1.5462788337e+01     0.210693    0.1682873 -36.10 0.0005850416    1.419    0.295
       256  -9.0477    167.6489    157.3475   1.1355079061e+02   1.9039448871e+01    0.2739227    0.2390442  81.57 0.0009679754    1.726    0.421
       257  -8.2630    217.8977    156.5345   1.0374760947e+02   1.0644022208e+01    0.2357451    0.1532164 -42.11 0.0008926376    1.992    0.498
       258  -9.0793    157.4629    156.2789   1.1550413428e+02   2.0963828563e+01    0.2779737    0.2183741 -64.68 0.0009640512    1.811    0.448
       259  -9.1674    119.4765    155.3139   1.2392113824e+02   2.7426037154e+01    0.3391861     0.246886  86.37  0.001739815    2.039    0.510
       260  -9.2766     81.9044    155.1950   1.3300358617e+02   3.2899742874e+01    0.4630369    0.2545355  66.76  0.001538385    2.556    0.609
       261  -8.9913     49.4376    155.0770   1.4100884024e+02   3.6740932930e+01     0.372822    0.2094502  82.58  0.001887431    1.976    0.494
       262  -8.8296    242.8431    155.0522   9.9296900646e+01   6.8624052281e+00    0.1763757    0.1450331 -13.42 0.0004551535    1.258    0.205
       263  -8.4118    144.6160    155.0122   1.1808450010e+02   2.3369935720e+01     0.191709    0.1658988 -65.86 0.0007086854    1.454    0.312
       264  -9.6712     67.9955    153.5572   1.3624333477e+02   3.4991869357e+01     0.477638    0.2697951  77.49  0.001865133    2.351    0.575
       265  -7.9105    232.7966    154.0105   1.0070653026e+02   8.5602172426e+00    0.1803595    0.1373009 -44.79 0.0006708547    1.957    0.489
       266  -9.9019    133.0903    151.7956   1.2011476327e+02   2.5893203788e+01    0.5914272    0.3235859 -48.72  0.001772547    1.963    0.491
       267  -7.5607    204.5856    155.5204   1.0593103828e+02   1.2994950505e+01    0.1307433    0.1095403   4.04 0.0001508163    1.046    0.044
       268  -8.3275    151.5907    152.8378   1.1612536072e+02   2.2567848908e+01    0.1781833    0.1298902 -55.29 0.0006294379    1.706    0.414
       269  -9.3490     19.9684    152.3829   1.4796781463e+02   4.0002207760e+01    0.2487381    0.1287398  50.40   0.00095139    1.724    0.420
       270  -7.5029      9.4988    153.5000   1.5051680813e+02   4.0545378569e+01    0.1127774   0.08923855  74.75 0.0008106669    1.012    0.012
       271  -8.2324    182.7680    151.6936   1.0933929538e+02   1.7318246420e+01    0.2207255    0.1731863 -60.69 0.0007444677    1.982    0.495
       272  -9.5502     29.4381    150.8382   1.4555632163e+02   3.9553722844e+01    0.4210957    0.1678386  63.20  0.001827741    2.825    0.646
       273  -8.8288      3.0254    150.2873   1.5187817243e+02   4.1662216132e+01     0.299542    0.1184249  80.65  0.001512414    2.332    0.571
       274  -9.3228    248.8724    149.4804   9.7225901249e+01   6.5895803466e+00    0.3079105    0.1490775 -26.68 0.0007699362    1.812    0.448
       275  -8.7831    246.9787    144.1461   9.6412743006e+01   7.5123269223e+00     0.212619    0.1460019 -15.12 0.0005838294    1.207    0.172
       276  -8.3917    243.3525    150.3128   9.8252860295e+01   7.3460616788e+00    0.2774701   0.09547342 -32.80  0.001198631    2.700    0.630
       277  -8.6659    189.5361    150.6268   1.0778393787e+02   1.6296913559e+01    0.2356297    0.2110028 -41.69 0.0008646973    1.424    0.298
       278  -8.1638    162.7246    150.9207   1.1333136000e+02   2.0964100216e+01     0.198072    0.1601236 -74.46  0.001051517    1.944    0.486
       279  -8.6291     98.3216    150.7095   1.2828760282e+02   3.1560337091e+01    0.2744006    0.1971395  71.65  0.001000365    1.712    0.416
       280  -8.1937    212.8727    150.0248   1.0330079855e+02   1.2355093692e+01    0.1832421    0.1638266 -11.12 0.0004678619    1.250    0.200
       281  -8.3902    198.9086    149.1279   1.0567493390e+02   1.4882897660e+01    0.1844363     0.172061   4.19 0.0004456516    1.247    0.198
       282  -9.6609     39.6955    147.7640   1.4273721188e+02   3.9293026914e+01    0.5053868    0.2084386  60.97  0.001884697    2.874    0.652
       283  -8.5010    233.3204    147.9647   9.9375679777e+01   9.2296606501e+00    0.1827095    0.1354371 -11.49 0.0003903122    1.139    0.122
       284  -8.9965     78.0433    147.1632   1.3286830012e+02   3.5107586581e+01    0.2432174    0.1536077  77.31 0.0007304468    2.044    0.511
       285 -10.2990     54.7393    144.4825   1.3853888611e+02   3.8481630135e+01    0.7430584    0.3212993  66.97  0.002677644    3.803    0.737
       286  -9.6379     56.1116    135.8538   1.3712648909e+02   4.0261073501e+01    0.4986095    0.2588588   2.05  0.001797115    4.715    0.788
       287  -7.8309    223.2797    146.9772   1.0084695548e+02   1.1011032962e+01    0.1810079    0.1425369  -8.43 0.0003768918    1.089    0.082
       288 -10.2609    149.0733    145.0328   1.1515278834e+02   2.4402056219e+01    0.4915398    0.3719335  89.09  0.001726732    2.314    0.568
       289 -10.0187    132.2911    131.0427   1.1620191784e+02   3.0045937690e+01    0.6032087    0.3846123 -63.69  0.001625594    2.174    0.540
       290 -10.0522    131.1516    119.5638   1.1393531253e+02   3.2550496065e+01    0.6559923    0.3249514 -59.85  0.002328239    3.204    0.688
       291  -9.2887    139.1572    145.0551   1.1742802235e+02   2.6131717396e+01    0.3552786    0.2595992 -73.11  0.001191175    2.059    0.514
       292  -8.7307    139.1999    138.3370   1.1606832631e+02   2.7396511853e+01    0.4242058    0.2804863 -11.03  0.001918697    2.175    0.540
       293  -9.4913    134.9929    137.3998   1.1687568133e+02   2.8320357502e+01    0.3957942    0.2408719 -36.60            0    1.762    0.432
       294 -10.1090    106.7211    143.6057   1.2501435287e+02   3.1767331722e+01    0.7263309    0.5028743 -72.21  0.002147046    1.770    0.435
       295  -9.4516     13.3296    146.0995   1.4918513907e+02   4.1854661395e+01    0.3709756    0.1543612  59.77  0.001389875    2.280    0.561
       296  -9.1197    240.3497    145.2542   9.7677958182e+01   8.4316482680e+00    0.2638808    0.1493563 -19.03 0.0004699066    1.560    0.359
       297  -8.7847    242.6812    143.3185   9.6904840291e+01   8.2939797282e+00    0.3750813    0.1595528 -16.67  0.001601713    2.620    0.618
       298  -8.0634    206.7413    146.5509   1.0367927733e+02   1.3891244477e+01    0.1644439    0.1237044  44.94 0.0004612156    1.541    0.351
       299  -8.2338    175.4589    146.2956   1.0971104129e+02   1.9473985449e+01    0.2113097    0.1638187  57.23 0.0007474988    1.704    0.413
       300  -9.8405    125.0441    142.7886   1.2033935576e+02   2.8974310859e+01    0.4974989     0.350918 -89.31  0.001555813    2.376    0.579
       301 -10.6990     69.0086    141.9101   1.3448364406e+02   3.7396309609e+01    0.6259567    0.4207006 -83.09  0.002714404    1.597    0.374
       302  -9.6197     69.6235    134.5577   1.3327595015e+02   3.8959430058e+01    0.5261015    0.2723485  13.68  0.002128186    3.257    0.693
       303  -9.9586     89.0789    146.1739   1.2990437156e+02   3.3830263890e+01    0.6140162    0.3531627  81.71  0.002525466    3.100    0.677
       304  -8.7379    165.6836    144.1956   1.1132744869e+02   2.1581960810e+01    0.2691735     0.185093  43.77 0.0008509562    1.475    0.322
       305  -9.3649      2.6696    141.8961   1.5156718185e+02   4.3481245343e+01    0.3604551    0.1522353  71.83  0.001713982    2.190    0.543
       306  -7.5436    230.6702    142.3068   9.8617940552e+01   1.0383439652e+01    0.1137055    0.1026468 -46.26 0.0007038587    1.659    0.397
       307  -8.4012    182.0713    141.6959   1.0738629138e+02   1.9021998734e+01    0.2241446    0.1816278 -40.72 0.0006266661    1.414    0.293
       308  -8.0082    250.3330    140.9793   9.5238628229e+01   7.3598861579e+00    0.1785431    0.1288989 -12.47 0.0004598951    1.124    0.111
       309  -9.8224     23.4897    138.2873   1.4607466088e+02   4.2807086183e+01    0.5066599    0.1998499  60.27  0.002279876    2.755    0.637
       310  -8.6143    172.3510    138.2616   1.0864686069e+02   2.1368764112e+01    0.2613406    0.2047556 -63.38 0.0008070177    1.905    0.475
       311  -8.3120    207.1904    137.9527   1.0174260527e+02   1.5041271340e+01    0.1920177    0.1805126 -22.94 0.0006926498    1.335    0.251
       312  -8.6020    197.3882    137.5134   1.0346975147e+02   1.6877905036e+01    0.2541383    0.2131445 -42.97  0.000940955    1.481    0.325
       313  -8.1910    162.4707    136.6646   1.1041878136e+02   2.3471636980e+01    0.2430851    0.1346194 -44.54 0.0007848524    1.952    0.488
       314  -9.2105     39.0871    136.0798   1.4174863108e+02   4.1954439834e+01    0.2743799    0.1658263  73.10 0.0008678208    1.712    0.416
       315  -8.8764    248.4003    135.2675   9.4314593313e+01   8.3477040976e+00    0.2469773    0.1720434 -23.87  0.000767428    1.296    0.228
       316  -8.3456    246.8358    130.7901   9.3579769353e+01   9.1442646904e+00    0.2266996     0.149988 -19.57 0.0005631446    1.268    0.211
       317  -8.6242    151.1915    136.0028   1.1279486797e+02   2.5669680544e+01    0.2630977    0.1713309  25.01  0.001081747    1.643    0.391
       318 -10.2421     83.3125    132.7117   1.2926313324e+02   3.7564940227e+01    0.5224378    0.2903441 -71.20  0.001335233    2.088    0.521
       319  -7.5275    231.4661    134.4283   9.6781880853e+01   1.1266057396e+01    0.1322241    0.1069904  -1.24 8.162253e-05    1.019    0.019
       320  -8.4710    179.4764    133.8708   1.0619566363e+02   2.0769787333e+01    0.2361966    0.2214002 -68.98 0.0007949354    1.455    0.313
       321  -9.0059    113.0005    133.4895   1.2154772834e+02   3.2868062234e+01    0.2949554    0.2195007  66.30 0.0008930143    1.686    0.407
       322  -7.8310    237.4410    133.5433   9.5629955582e+01   1.0366101320e+01     0.130141    0.1057772  -5.79  0.000344546    1.065    0.061
       323  -9.0853    143.1539    131.9952   1.1379371597e+02   2.7892745595e+01    0.3175694    0.2423787 -67.70 0.0008071698    1.802    0.445
       324 -10.6345     98.5718    130.8514   1.2482221284e+02   3.5734722243e+01    0.6113175     0.308851 -62.10   0.00183561    2.229    0.551
       325  -8.6082     98.9993    120.7930   1.2273945212e+02   3.7872148948e+01    0.6257216    0.3064539  16.03  0.001840629    5.169    0.807
       326  -8.7944    250.6444    129.9545   9.2830780147e+01   8.6221715485e+00    0.3847504    0.1029426 -27.57  0.001425556    3.263    0.694
       327  -9.9735     12.9277    129.1870   1.4817820979e+02   4.5635319038e+01    0.4849734    0.2099086  70.06  0.001888145    2.406    0.584
       328  -7.7631    220.6692    130.2946   9.7659108715e+01   1.3704155857e+01    0.1193616    0.1072783 -54.36  0.000420115    1.634    0.388
       329  -7.9675    204.5338    130.1286   1.0047571698e+02   1.6665381327e+01    0.2019668    0.1243595 -29.96 0.0007401219    1.537    0.349
       330  -7.9190    192.7589    130.5158   1.0278582434e+02   1.8806418012e+01    0.1714211    0.1334886  50.33 0.0004008881    1.533    0.348
       331  -8.9481    168.1833    129.5462   1.0759074193e+02   2.3638557828e+01    0.2740053    0.2358415  77.13 0.0005665562    1.669    0.401
       332  -9.7318    152.9740    128.9139   1.1082698814e+02   2.6642701632e+01    0.4852276    0.2433494 -49.65 0.0008274486    2.352    0.575
       333  -9.8401     73.0665    128.3621   1.3137105106e+02   3.9923331386e+01    0.5374194    0.2701394 -61.41  0.001603736    1.909    0.476
       334  -8.0382      1.7939    130.5804   1.5120697725e+02   4.6022327488e+01    0.1562833   0.08816092  43.02 0.0009460669    1.709    0.415
       335  -8.0129    211.4961    129.0223   9.8965795598e+01   1.5542826957e+01    0.2002993    0.1217725 -30.84  0.000615007    1.553    0.356
       336 -10.6241     45.0277    123.7887   1.3868221450e+02   4.4209764058e+01      1.06705    0.4694179  72.00  0.003824251    3.989    0.749
       337 -10.3032     59.8656    124.9655   1.3458135915e+02   4.2330960526e+01     0.698227    0.3793533  76.46  0.002594319    2.708    0.631
       338  -9.7940    117.8180    125.2633   1.1862248638e+02   3.3773754319e+01    0.4499139    0.3237405  85.13  0.001397302    2.204    0.546
       339  -8.4481    228.2686    125.0312   9.5199389176e+01   1.3059310208e+01    0.1959009    0.1505075 -17.31 0.0006917667    1.138    0.121
       340  -8.1461    199.5027    125.2025   1.0027117601e+02   1.8346137943e+01    0.1961389    0.1272279 -26.46  0.000719469    1.449    0.310
       341  -8.9447    179.2991    124.7859   1.0414357156e+02   2.2303605427e+01     0.280142    0.2484026  70.41 0.0007383687    1.548    0.354
       342 -10.1030     28.2438    122.1723   1.4332077528e+02   4.6110898617e+01    0.7273875    0.2958331  71.65  0.002810428    3.532    0.717
       343  -9.0504     27.2184    113.6388   1.4271326935e+02   4.8204015826e+01    0.4792992    0.1298726  24.81  0.001859648    3.841    0.740
       344  -7.8277    188.5061    124.0104   1.0210528228e+02   2.0642890514e+01     0.206217    0.1313659 -33.48 0.0004923173    1.528    0.345
       345  -9.3637    158.7627    121.5527   1.0780407150e+02   2.6878075467e+01    0.3447527    0.2558204 -63.83 0.0009908952    1.952    0.488
       346  -7.7801    203.1207    122.1539   9.8882827924e+01   1.8115601173e+01    0.1792282    0.1597884 -35.69 0.0004535462    1.322    0.244
       347  -7.7443    195.1467    122.1969   1.0038652402e+02   1.9642425349e+01    0.1815931    0.1613399 -40.33 0.0003996266    1.344    0.256
       348  -8.4487    172.0779    121.6838   1.0491770203e+02   2.4240140116e+01      0.22696    0.1921773 -39.87 0.0005400343    1.286    0.222
       349  -9.6135     71.1353    119.6562   1.3046854022e+02   4.2175765083e+01    0.4519966     0.234956 -75.05  0.001433972    2.343    0.573
       350 -10.3246    244.9842    116.6352   9.0691530774e+01   1.1201806106e+01    0.3439582    0.2395233 -34.69 0.0004203747    1.490    0.329
       351  -9.8636    141.4220    118.2888   1.1108988886e+02   3.0860658382e+01    0.5140932    0.2943976 -54.71 0.0009438145    2.183    0.542
       352  -8.3217    119.4990    119.6239   1.1695010449e+02   3.4659223998e+01    0.2880583    0.1295074  26.04 0.0009419468    3.519    0.716
       353  -9.5455      3.0691    117.2925   1.5007856292e+02   4.8963372862e+01    0.5047722    0.1798676  67.00  0.002160295    3.080    0.675
       354  -7.7987    231.5284    117.5185   9.2944834059e+01   1.3470427726e+01    0.1355082    0.1122185  -7.71 4.044897e-05    1.041    0.039
       355  -9.9390    109.2467    114.4910   1.1854998831e+02   3.7551307582e+01    0.5297436    0.3633307 -80.72  0.001451096    2.249    0.555
       356  -8.8697    109.5719    107.3967   1.1680502963e+02   3.9034726294e+01    0.3414693    0.2495277   2.81  0.001597103    1.839    0.456
       357  -8.4990     59.4954    115.3646   1.3319580878e+02   4.4622466959e+01    0.3380333    0.2028593   4.58  0.001509625    2.675    0.626
       358  -8.5160    250.1457    115.1097   8.9597453142e+01   1.0502358898e+01    0.2063929    0.1486878   3.77 0.0008897501    1.258    0.205
       359  -8.0166    193.0185    115.3480   9.9138998018e+01   2.1128495847e+01    0.1919793    0.1711189  18.73  0.000450701    1.107    0.097
       360  -8.1539     84.4884    122.8935   1.2721247385e+02   3.9603070908e+01     0.238362    0.1647532  -2.11  0.001115108    2.194    0.544
       361  -9.9353     78.8001    112.4996   1.2688163028e+02   4.2797795363e+01    0.5270035    0.3447489  80.83  0.001742144    2.213    0.548
       362  -8.6185     78.5000    105.4816   1.2554121151e+02   4.4474416632e+01    0.3225125    0.2221341  -9.41  0.001008971    2.173    0.540
       363  -7.7130    167.4453    114.5079   1.0416271876e+02   2.6410893993e+01    0.1456061    0.1348978  -3.63 0.0002062594    1.049    0.046
       364  -9.9392     92.6943    112.4927   1.2278922335e+02   4.0725788023e+01    0.4795069    0.3387402 -81.40  0.001176456    1.849    0.459
       365  -8.7577     93.5435    104.9380   1.2086030856e+02   4.2301209829e+01    0.4257721    0.2667855  -7.30  0.001628125    3.054    0.673
       366  -8.7531    159.4656    111.9968   1.0530342064e+02   2.8475254309e+01    0.2791872    0.2306635 -59.28 0.0007346625    1.526    0.345
       367  -9.8954    121.4850    112.1309   1.1468823358e+02   3.5869418451e+01    0.4313898    0.3248045 -77.13   0.00128788    1.869    0.465
       368  -8.6470    174.7955    111.7829   1.0190820786e+02   2.5389223467e+01    0.2766884    0.1899825 -43.33 0.0006244312    1.570    0.363
       369  -9.6603    133.5824    109.2376   1.1082816271e+02   3.4169512564e+01    0.5421912    0.2708533 -46.50  0.001524718    2.041    0.510
       370 -10.1554     66.4489    109.8791   1.3012572672e+02   4.5070141385e+01    0.5588436     0.329919 -68.79  0.002050102    1.696    0.410
       371  -9.9388     14.1128    110.9594   1.4638193539e+02   4.9782011805e+01    0.4321078    0.2097927  67.86  0.001724243    2.195    0.544
       372  -7.7362    182.6725    109.7820   9.9781990311e+01   2.4112240107e+01    0.2001294    0.1251113 -39.16 0.0004902386    1.620    0.383
       373  -9.5108    248.4600    108.5254   8.8323665544e+01   1.1600461545e+01    0.2795583    0.2162453   0.42  0.001025764    1.125    0.111
       374 -10.3838    248.4160    103.0844   8.7058978684e+01   1.2277749777e+01    0.4134485    0.2886211 -21.91  0.002400279    1.194    0.163
       375  -8.0950     44.2378    109.3676   1.3693814165e+02   4.7707186581e+01    0.1762093    0.1125663  41.70 0.0007960565    1.636    0.389
       376  -8.1308    189.2134    108.1567   9.8075195490e+01   2.3034988673e+01    0.1947923    0.1636051 -43.10 0.0005907529    1.357    0.263
       377  -9.2990    139.9937    104.7934   1.0807467155e+02   3.3782031787e+01    0.3454167    0.2840754 -88.77 0.0008364749    1.734    0.423
       378 -10.5152     45.8621    102.7340   1.3539031197e+02   4.9142920588e+01    0.7541683    0.3718256  65.08  0.003009312    3.084    0.676
       379 -10.5202     22.8724    102.8057   1.4282688843e+02   5.1129121440e+01    0.7048579    0.3266599  68.96  0.002878465    2.724    0.633
       380  -9.5135    150.4584    103.0128   1.0506236553e+02   3.1983972158e+01    0.4622695    0.2853431 -55.41  0.000955602    2.145    0.534
       381  -8.2910    150.7278     96.2369   1.0315961360e+02   3.3195214851e+01    0.3167347    0.1807496 -16.38  0.001171352    2.561    0.610
       382 -10.5279    108.8807     98.8723   1.1487646504e+02   4.1012170978e+01     1.036424    0.5634876  64.86  0.001645203    4.205    0.762
       383  -9.0330    108.1636     92.6641   1.1343924791e+02   4.2490849754e+01    0.4851452    0.2992738  18.01  0.001963785    2.347    0.574
       384  -8.2724    166.8170    104.1746   1.0165122066e+02   2.8356791874e+01    0.2146847     0.199224 -51.46 0.0005278912    1.267    0.210
       385  -9.0946      6.8986    103.1654   1.4790352061e+02   5.2059963481e+01    0.3374849    0.1577296  64.55  0.001296865    2.263    0.558
       386  -9.5578    128.3743    102.0594   1.1033500301e+02   3.6642884450e+01    0.3653802    0.2804836 -65.65 0.0007200435    1.655    0.396
       387  -7.8089    175.5420    102.4458   9.9337887540e+01   2.6818183797e+01    0.1473784    0.1359528  -6.62 0.0008061674    1.049    0.047
       388  -8.2959    159.8435    101.1188   1.0238435784e+02   3.0368455958e+01    0.2207653    0.1999263 -60.19  0.000493587    1.335    0.251
       389  -9.1371     82.1771    100.1460   1.2322794403e+02   4.5177433697e+01    0.3409641     0.238347 -81.01 0.0009116261    1.833    0.454
       390  -9.1115     95.0408     97.0893   1.1852218118e+02   4.3830198785e+01    0.3145202    0.2277591 -65.48 0.0005406163    1.544    0.352
       391 -10.0413     64.0423     95.9864   1.2815530028e+02   4.8687029020e+01    0.5599754    0.3400133  78.46  0.001766594    2.631    0.620
       392  -9.6993    248.2109     96.7723   8.5592038208e+01   1.3090546165e+01    0.2225886    0.1873586  25.59  0.001399657    1.260    0.206
       393 -10.0804    123.7580     91.3076   1.0864421683e+02   3.9761918510e+01    0.6020114     0.485544   3.84  0.001394953    1.413    0.292
       394  -7.8668    128.4632     83.4655   1.0508163129e+02   4.0375685227e+01     0.226069    0.1448618  32.11 0.0009744154    1.715    0.417
       395  -9.3106     46.1554     92.8519   1.3357890830e+02   5.1514016607e+01    0.4171087    0.2285095   6.75  0.001821795    2.802    0.643
       396  -9.2568    139.0056     92.3033   1.0492129790e+02   3.6423632506e+01    0.3344997     0.273744 -78.02  0.000741592    1.698    0.411
       397  -9.3963      5.3916     92.4055   1.4743576158e+02   5.4712108832e+01    0.3256198    0.1684156  57.50  0.001069945    2.061    0.515
       398  -7.7635    157.6462     91.7856   1.0030562974e+02   3.2520349173e+01     0.210115    0.1339086 -43.61 0.0003946952    1.628    0.386
       399  -9.4613     34.8329     90.0357   1.3701924335e+02   5.3283451368e+01    0.4523585    0.2369933  81.49  0.001621334    2.649    0.622
       400  -8.9639     23.2756     90.2461   1.4109138648e+02   5.4152105282e+01    0.2760383    0.2186319  14.40  0.001532563    1.537    0.349
       401  -7.9233    164.7948     94.3454   9.9430508215e+01   3.0512473516e+01    0.2011552     0.174958 -31.87 0.0002950668    1.143    0.125
       402  -7.8662    150.8461     89.3381   1.0118056639e+02   3.4446192651e+01    0.2102115     0.185092 -40.36 0.0005620837    1.178    0.151
       403  -9.9883     86.4002     86.2851   1.1844329274e+02   4.7714771706e+01     0.593285    0.3887646 -66.59  0.001710391    1.814    0.449
       404  -8.8625     66.3019     87.2676   1.2544323790e+02   5.0475545086e+01    0.5952557    0.2476649  17.76  0.001803001    4.980    0.799
       405  -9.7047     48.5485     84.5165   1.3109583166e+02   5.3292633553e+01    0.4808351    0.2869434  68.13  0.001809207    2.421    0.587
       406  -9.6961    104.7415     83.1381   1.1177116486e+02   4.5187659302e+01    0.4384003    0.3070889 -67.99  0.001010248    1.926    0.481
       407  -8.2605    157.9775     84.0329   9.7986456196e+01   3.3825363639e+01      0.22922     0.211333 -10.20 0.0003382792    1.013    0.013
       408  -9.1358    140.7018     82.8423   1.0172621627e+02   3.7869165396e+01    0.3791806    0.2400154 -45.50  0.001018373    1.643    0.391
       409  -9.2801      9.8451     81.1147   1.4468543782e+02   5.7220849051e+01    0.3699955    0.1739464  60.65  0.001322228    2.570    0.611
       410  -8.2491    176.3963     93.2844   9.6683707718e+01   2.8170167133e+01    0.2603753    0.1719888 -40.24 0.0005856455    1.535    0.349
       411  -9.6465     24.5104     80.3795   1.3916877948e+02   5.6482833375e+01    0.4683676    0.2378233  82.91  0.001367197    2.564    0.610
       412  -8.2871    150.2214     80.8753   9.8824722554e+01   3.6123753329e+01    0.2288529    0.2044205 -53.28 0.0006379195    1.267    0.211
       413  -8.7726    119.2643     80.3114   1.0665795321e+02   4.2920148051e+01    0.3705199    0.2480397 -60.04  0.001074442    1.931    0.482
       414  -8.7501     74.5278     80.5437   1.2089346620e+02   5.0895795638e+01    0.3133174    0.2235942 -69.13  0.001136923    1.571    0.363
       415  -8.1282    166.7778     79.7705   9.4802972452e+01   3.2568997257e+01    0.1992357    0.1702806 -47.67 0.0003800715    1.295    0.228
       416  -8.0993    183.8295     78.5831   9.1055626035e+01   2.8879795242e+01      0.18648    0.1487703  67.24 0.0004885391    1.551    0.355
       417  -9.8700     63.3889     73.6148   1.2301734173e+02   5.4107378148e+01    0.5163574    0.2768233 -67.79  0.001777409    2.248    0.555
       418  -9.3332    128.0842     75.5067   1.0272386893e+02   4.2013719878e+01    0.3927994    0.2772951 -56.82 0.0007363107    1.736    0.424
       419  -8.5887    105.3676     76.9327   1.0970983131e+02   4.6392040060e+01    0.3008881    0.1989358  21.24  0.000993352    1.913    0.477
       420  -9.0381     65.4921     77.9840   1.2341493068e+02   5.2789850890e+01    0.3083207    0.2447073  76.12  0.001244743    1.588    0.370
       421  -7.7128    157.1774     76.2472   9.5817874851e+01   3.5360919383e+01    0.2087674    0.1771255 -55.05   0.00055473    1.371    0.271
       422  -9.6388     82.3961     72.8439   1.1595413064e+02   5.1419676951e+01    0.4177514    0.2819175 -70.56 0.0009405357    2.000    0.500
       423  -8.1714    163.5013     73.5113   9.3599126450e+01   3.4363662778e+01    0.2625326    0.1313896 -41.92 0.0009192757    2.048    0.512
       424  -7.9739    151.4672     73.4867   9.6252630798e+01   3.7149353235e+01    0.1542835    0.1445461 -11.93 0.0001962199    1.025    0.025
       425  -8.4912    115.5898     72.8525   1.0536398680e+02   4.5184328850e+01    0.2671305    0.1800563 -45.56 0.0007190638    1.479    0.324
       426  -7.8994     42.5807     72.8435   1.3077459667e+02   5.6760958371e+01    0.1928001    0.1201365 -77.07 0.0005670675    1.730    0.422
       427  -7.8532    175.4840     72.5480   9.0867331562e+01   3.1735503772e+01    0.1515063    0.1402226 -10.48 0.0001086313    1.023    0.023
       428  -8.7158    106.0107     71.9388   1.0793135181e+02   4.7311366667e+01    0.2760831    0.2394062 -80.20 0.0007588067    1.463    0.317
       429  -9.2201     95.1827     71.2067   1.1113128517e+02   4.9537701429e+01    0.3582742    0.2432068 -61.07  0.000846842    1.783    0.439
       430  -9.4266     51.5529     69.9267   1.2654793855e+02   5.6481853315e+01    0.4361166    0.2563759 -79.89  0.001423594    2.363    0.577
       431  -8.6090     28.4189     70.8035   1.3594526997e+02   5.8538708380e+01    0.2251371    0.1716667 -33.06  0.000755975    1.401    0.286
       432  -8.6429     31.8281     68.3614   1.3406700412e+02   5.8856906182e+01    0.3041821    0.1976731 -31.10  0.001127939    1.722    0.419
       433  -8.8529     16.6237     70.0992   1.4054227311e+02   5.9535261068e+01    0.2759096    0.1766581  78.03 0.0009695233    1.742    0.426
       434  -8.5924    140.5131     75.3032   9.9446563730e+01   3.9313172054e+01    0.2744128    0.1431234 -40.76  0.000617818    1.880    0.468
       435  -8.6450    147.0992     68.3595   9.5627692665e+01   3.9048800295e+01     0.290101    0.2103232 -40.14 0.0005895965    1.378    0.274
       436  -8.5997    138.8851     66.4814   9.6990115463e+01   4.1276291017e+01    0.2901442    0.2016732 -48.75 0.0007237103    1.595    0.373
       437  -8.6534    121.7340     66.1778   1.0140015127e+02   4.5181938452e+01    0.3373633     0.220733 -55.20 0.0008980206    1.898    0.473
       438  -9.0036     83.7899     65.0655   1.1300220904e+02   5.2904644570e+01    0.4682282    0.2654027   0.36  0.001334902    5.231    0.809
       439  -8.9666    110.1845     63.7411   1.0391218703e+02   4.8119714043e+01    0.3295034    0.2246398 -57.76 0.0007079883    1.841    0.457
       440  -8.7277     64.4764     63.6712   1.1971331115e+02   5.6269928408e+01    0.5261492    0.2936875 -16.12  0.001869531    3.522    0.716
       441  -8.7806     37.2937     64.1410   1.3084691780e+02   5.9391377273e+01    0.3280182     0.201079  84.26 0.0009740126    2.405    0.584
       442  -8.2661    158.1644     61.9169   9.1046973287e+01   3.7509901031e+01    0.2267486    0.2011494 -48.79 0.0003397739    1.235    0.190
       443  -9.5952     73.3642     59.6453   1.1499689867e+02   5.5829600163e+01    0.4110531    0.2577042 -60.19  0.001029642    1.823    0.451
       444  -7.3457    163.6796     65.7054   9.1114986132e+01   3.5590810733e+01    0.1583954    0.1139723  16.71  0.000583555    1.612    0.380
       445  -9.7975     23.5658     56.6803   1.3500583519e+02   6.2351171145e+01    0.4727296    0.2626916  81.80  0.002081095    2.697    0.629
       446  -9.5296      7.5005     57.3395   1.4226449602e+02   6.3140994848e+01    0.3221236    0.1932185  81.53  0.001155554    1.838    0.456
       447  -8.2830    130.9310     57.9611   9.6076959264e+01   4.4611972814e+01    0.2366273    0.1856185 -62.84 0.0005347003    1.637    0.389
       448  -8.1525    139.8956     56.3791   9.3290655759e+01   4.2778147684e+01    0.2632142    0.1983925 -40.21 0.0005339472    1.339    0.253
       449  -9.2464    119.1826     55.2155   9.8247738799e+01   4.7777392189e+01    0.6111191    0.2523457 -40.65  0.001511476    2.360    0.576
       450  -9.1975     97.4714     60.7551   1.0686304876e+02   5.1289264308e+01    0.2758188     0.265149  31.64 0.0007647468    1.130    0.115
       451  -8.7434     44.0242     55.4029   1.2560919448e+02   6.0784645734e+01    0.2967569    0.1778706 -66.47  0.001102802    1.719    0.418
       452  -8.4865    197.0761     55.0102   8.1818269558e+01   2.9204547793e+01    0.2129357    0.1944723 -28.30  0.001192801    1.073    0.068
       453  -9.6000     54.3539     55.7588   1.2129860232e+02   5.9462363768e+01    0.3640979    0.2467765 -69.74 0.0009996369    1.747    0.428
       454  -8.6580    105.8925     53.2883   1.0144837666e+02   5.1034073303e+01    0.2614321    0.2077086 -58.93 0.0006930834    1.533    0.348
       455  -9.4659     92.3733     50.6867   1.0485628217e+02   5.4298088593e+01    0.4069003    0.2533352 -49.62  0.001125192    1.729    0.422
       456  -8.2787    144.9691     49.0078   8.9502505092e+01   4.2736012538e+01    0.2440397    0.1791673 -56.30 0.0005872442    1.671    0.402
       457  -8.0166    129.7809     49.0460   9.3134435353e+01   4.6392656228e+01    0.2085914    0.1209108 -32.01 0.0004259538    1.655    0.396
       458  -7.9541    163.5243     48.4533   8.5470110898e+01   3.8242171945e+01    0.1534781    0.1411979   5.05 0.0002596696    1.048    0.046
       459  -7.5638    149.6818     48.7157   8.8366428124e+01   4.1624493066e+01    0.1583072    0.1134498  21.04 0.0002405392    1.587    0.370
       460  -8.8647    120.9020     47.5841   9.4913160396e+01   4.8716571122e+01    0.2829449    0.2085426 -36.54 0.0004985007    1.327    0.246
       461  -8.4058    112.0695     47.0565   9.7197789298e+01   5.0817761537e+01    0.2303681     0.184397 -64.08 0.0005803195    1.629    0.386
       462  -8.8375     82.1746     46.4993   1.0684018115e+02   5.7068128693e+01    0.2847292    0.2193888 -54.25 0.0006035234    1.463    0.317
       463  -8.5980     45.0015     44.6156   1.2167152700e+02   6.3154294838e+01    0.2486468    0.1777663 -66.65 0.0005945842    1.556    0.357
       464  -8.9379     16.7506     44.7361   1.3536427666e+02   6.5684685255e+01    0.2514969    0.1545566 -75.55 0.0007513087    1.576    0.365
       465  -8.6760    132.9740     43.5081   9.0261507503e+01   4.6509357458e+01    0.2919296    0.2019591 -47.00   0.00108466    1.604    0.377
       466  -8.8772     58.2691     42.8268   1.1501734289e+02   6.1791057342e+01    0.3081579    0.2092936 -65.32 0.0009748992    1.916    0.478
       467  -8.3787     32.6190     44.5713   1.2753208699e+02   6.4480664768e+01    0.2425884    0.1197136  -0.73 0.0009514102    3.438    0.709
       468  -8.5569     93.2342     42.8012   1.0141787532e+02   5.5619248233e+01    0.3000588    0.2014429  31.42  0.001211333    1.605    0.377
       469  -9.3296     69.5457     41.5120   1.0972051453e+02   6.0293925761e+01    0.4476439    0.2710153 -59.58  0.001407922    2.258    0.557
       470  -9.1417      5.2282     42.1875   1.4053949326e+02   6.6897775850e+01    0.3068121    0.1832493  88.36  0.001236767    1.845    0.458
       471  -8.6637    105.8459     41.3113   9.6751278633e+01   5.3194415385e+01    0.2571654    0.1930776 -40.56 0.0005580793    1.349    0.259
       472  -7.6305    140.4651     41.5248   8.7772686139e+01   4.4971683401e+01    0.1523585    0.1448639 -12.41 9.272417e-05    1.044    0.042
       473  -8.3144     36.8243     41.0674   1.2432739027e+02   6.4868012984e+01    0.1962112    0.1710246 -65.58 0.0005216406    1.234    0.190
       474  -8.6213     95.3812     38.0763   9.8713447049e+01   5.6016650366e+01    0.2453579    0.2123561 -79.19 0.0007465995    1.581    0.367
       475  -8.2690     80.4690     36.7086   1.0338631704e+02   5.9262625566e+01     0.275246    0.1319721 -43.24 0.0009175868    2.039    0.509
       476  -7.8361    133.5015     36.4654   8.7425167024e+01   4.7430375618e+01    0.1529791    0.1430915   4.07 6.557004e-05    1.003    0.003
       477  -7.9313    125.9562     35.7116   8.8932972358e+01   4.9391895656e+01    0.2048668    0.1902696  28.82 0.0003179141    1.068    0.064
       478  -8.7246    111.7632     34.7021   9.2264488781e+01   5.2926963234e+01    0.2968934    0.1875464 -39.12 0.0006204039    1.599    0.374
       479  -8.1068     88.6095     34.7980   9.9589377579e+01   5.7995002546e+01    0.2138298    0.1288895 -43.90 0.0007596905    1.724    0.420
       480  -8.9813    119.2985     33.0459   8.9531547452e+01   5.1394437707e+01     0.405165    0.1587307 -33.38  0.001184262    2.398    0.583
       481  -8.9626     48.4041     33.3030   1.1566591760e+02   6.5181327419e+01    0.3031161    0.2106321 -54.46 0.0008414927    1.477    0.323
       482  -8.8954     72.2088     31.3439   1.0419315832e+02   6.1785955360e+01    0.2484577    0.2134127 -71.27 0.0006560116    1.628    0.386
       483  -7.7410    139.4985     31.5116   8.4164350171e+01   4.6615160064e+01    0.1507652    0.1437322  -1.92 0.0008104109    1.029    0.028
       484  -8.9152     12.8945     30.5307   1.3349724307e+02   6.9254694528e+01    0.2908293    0.1683302 -75.35  0.001336387    1.815    0.449
       485  -8.5288    101.4035     29.2876   9.2939874680e+01   5.6137064773e+01    0.2577882    0.1713895 -36.60 0.0006990313    1.491    0.329
       486  -8.6584     60.5587     32.7630   1.0978604737e+02   6.3505230555e+01    0.2428546    0.2193672 -80.06 0.0006909756    1.515    0.340
       487  -7.3884    192.3124     28.7102   7.4404024921e+01   3.3563644470e+01    0.1467776    0.1027842 -55.61  0.000231953    1.586    0.369
       488  -8.8514     81.4321     27.6212   9.8874398640e+01   6.0672418461e+01    0.2811319    0.2249871 -63.10 0.0007277246    1.747    0.428
       489  -8.6677      3.7701     27.7028   1.3794013439e+02   7.0373239861e+01    0.2510681    0.1493631 -78.68  0.001057492    1.664    0.399
       490  -8.7058     91.7681     26.4848   9.4714348052e+01   5.8700079046e+01    0.3197822    0.1895469 -39.16 0.0006640151    1.701    0.412
       491  -9.8028    145.8065     21.8793   7.9171039258e+01   4.6194287772e+01    0.2657448    0.2406969   0.39 0.0002982312    1.073    0.068
       492  -8.3957    104.3299     22.9586   8.9194465575e+01   5.6387733193e+01    0.2093864    0.1796674 -20.66 0.0005418107    1.125    0.111
       493  -9.0365     63.5656     21.1824   1.0286963329e+02   6.5136464313e+01    0.3233139    0.2193935 -49.79 0.0009497363    1.763    0.433
       494  -8.9333     48.3195     21.7300   1.1034344671e+02   6.7499975081e+01    0.2437073     0.212846 -67.22 0.0005969954    1.576    0.366
       495  -8.1089     19.8045     21.8179   1.2636214136e+02   7.0728617930e+01    0.1645034    0.1437315 -70.83 0.0006116211    1.343    0.255
       496  -8.0397    120.6196     20.8750   8.4018048554e+01   5.2724301713e+01    0.2193665    0.1251843 -36.38 0.0009360962    1.773    0.436
       497  -8.6370    218.5789    247.2035   1.1850301496e+02   4.0718123357e-01    0.2593183   0.09232305 -32.12  0.001480017    3.288    0.696
       498  -8.0612     87.8287     17.8052   9.1797752479e+01   6.0842510984e+01    0.1928895     0.163617 -41.50 0.0004524314    1.330    0.248
       499  -7.9012     38.9119     18.4025   1.1362886967e+02   6.9429604046e+01    0.1849236    0.1470226 -43.13 0.0005238501    1.220    0.180
       500  -7.7194    112.8435     16.8827   8.4124964809e+01   5.5134719141e+01    0.1964627    0.1682207 -45.00 0.0004161595    1.312    0.238
       501  -8.1369     30.1208     16.2501   1.1759493738e+02   7.0907231645e+01    0.2230707    0.1663606 -73.26  0.000820312    2.045    0.511
       502  -7.8750      1.7075     17.3320   1.3618598130e+02   7.2830401697e+01    0.1129347   0.08838181  79.52 0.0004270271    1.632    0.387
       503  -7.9116     17.0024     14.2849   1.2488314844e+02   7.2568949330e+01    0.1723428    0.1447062 -29.24 0.0005522768    1.098    0.089
       504  -7.2889    119.7058     11.3067   7.9991047030e+01   5.4058079209e+01    0.1450208    0.1108186 -55.32 0.0004516886    1.583    0.368
       505  -9.0974    175.5825    247.3627   1.2556660725e+02   5.6704437187e+00    0.2169127    0.2091407  77.21  0.001209185    1.713    0.416
       506  -8.4683    156.2524    248.3104   1.2895777905e+02   7.9755758950e+00    0.1809367     0.138813  50.85 0.0009956216    1.565    0.361
       507  -8.2649    113.1598    248.6864   1.3644967675e+02   1.3177229841e+01    0.1531856    0.1231959  70.31 0.0008201479    1.507    0.337
       508  -9.1704    103.8441    246.9432   1.3793031450e+02   1.4496895055e+01    0.3097467    0.1813019  82.36  0.001644197    2.953    0.661
       509  -8.7042    132.0087    247.8294   1.3309510296e+02   1.1023199741e+01    0.1523913    0.1380621  30.71 0.0005989594    1.233    0.189
       510  -8.0474     63.6668    248.6838   1.4498509938e+02   1.8662747622e+01   0.08525105   0.07125593   6.90 0.0007047207    1.689    0.408
       511  -7.8176     40.7068    248.3732   1.4882535808e+02   2.0962377266e+01    0.1025824   0.04779103  57.47  0.000702474    1.731    0.422
       512 -10.0069    223.9584    244.2424   1.1726200997e+02   3.2379857218e-02    0.3413289    0.1941696 -36.32  0.002361909    2.478    0.596
       513  -9.0418    147.2560    246.2267   1.3028913780e+02   9.3386804762e+00    0.2316344    0.1470609  62.73  0.001222759    2.676    0.626
       514  -9.1769    120.2767    245.5483   1.3493387334e+02   1.2734969563e+01    0.2833479    0.1740161  64.88  0.001635008    2.321    0.569
       515  -8.4630     67.5902    245.2715   1.4411844081e+02   1.8740937912e+01    0.1534875    0.0914038 -83.11  0.001127293    2.045    0.511
       516  -9.0598    201.9337    242.9875   1.2064337390e+02   2.8368037999e+00    0.2179293     0.144535 -32.17  0.001010439    1.906    0.475
       517  -8.5137    168.9908    243.4205   1.2623244373e+02   6.9327874555e+00    0.1537681    0.1434112  48.87  0.000563007    1.533    0.348
