#   1 NUMBER                 Running object number                                     
#   2 MAG_AUTO               Kron-like elliptical aperture magnitude                    [mag]
#   3 X_IMAGE                Object position along x                                    [pixel]
#   4 Y_IMAGE                Object position along y                                    [pixel]
#   5 X_WORLD                Barycenter position along world x axis                     [deg]
#   6 Y_WORLD                Barycenter position along world y axis                     [deg]
#   7 A_WORLD                Profile RMS along major axis (world units)                 [deg]
#   8 B_WORLD                Profile RMS along minor axis (world units)                 [deg]
#   9 THETA_WORLD            Position angle (CCW/world-x)                               [deg]
#  10 FWHM_WORLD             FWHM assuming a gaussian core                              [deg]
#  11 ELONGATION             A_IMAGE/B_IMAGE                                           
#  12 ELLIPTICITY            1 - B_IMAGE/A_IMAGE                                       
         1 -15.0195      6.5073     71.6282   1.0759231305e+02   6.1319314108e+01     1.562836    0.9788556 -52.93  0.006651326    1.240    0.194
         2 -13.8792    189.7099     24.8185   3.9818676307e+01   3.4765067934e+01     1.628437    0.7299809 -52.79  0.007114285    2.349    0.574
         3 -12.3782    121.2858     25.8431   5.1067509006e+01   5.1228961116e+01    0.7393405    0.5040463  61.70  0.003920997    1.370    0.270
         4 -14.1243    166.6687     30.2102   4.4324844209e+01   3.9712992992e+01     1.042073    0.7239951  63.93  0.003638263    1.321    0.243
         5 -14.4757    147.3397     29.3215   4.7170672673e+01   4.4559828216e+01     1.452592    0.8522266  58.18  0.006439049    1.531    0.347
         6 -13.4573    137.7271     22.3467   4.6657540866e+01   4.7681966347e+01     1.270183    0.2590288  51.83    0.0039877    3.886    0.743
         7 -14.0765    121.9675     37.4380   5.4946003308e+01   4.9662744170e+01    0.9756848    0.5004998  36.20  0.002562097    2.290    0.563
         8 -13.7307      2.6520     10.7641   9.0019712466e+01   7.3196282803e+01    0.9605722    0.4028471 -46.36  0.005336274    2.143    0.533
         9 -13.1671      8.0986      2.6740   8.2665568351e+01   7.3897008064e+01    0.4745114    0.3794203  35.44  0.002828405    1.882    0.469
        10 -13.3948     17.6001     11.6803   8.1874232733e+01   7.1703762184e+01    0.4515696    0.3523332 -46.07   0.00132718    1.773    0.436
        11 -16.0643     14.4402     19.8758   8.7456573808e+01   7.0787967459e+01     1.966159     1.030838 -24.28    0.0112217    1.772    0.436
        12 -12.4592    224.3826     20.7712   3.5352551159e+01   2.7289355008e+01    0.3983806    0.3077528 -87.76  0.001723168    1.151    0.131
        13 -12.7967    214.3503     20.6815   3.6234500922e+01   2.9525773040e+01    0.5569809    0.4409893  21.19  0.003304929    1.939    0.484
        14 -14.0376    216.9715     11.7259   3.3975006210e+01   2.9938823608e+01    0.8255623    0.5577047 -81.35  0.001458147    1.314    0.239
        15 -15.2901     97.9739     12.3439   5.1397076024e+01   5.7931700561e+01     1.711474    0.6901792  54.18  0.007663362    2.065    0.516
        16 -14.1314     41.3383      5.6729   6.7040317041e+01   6.9357875122e+01    0.9321845    0.5405726  -5.99  0.004458651    1.816    0.449
        17 -11.7108     46.5474     13.3315   6.8640276101e+01   6.7680076032e+01      0.28697    0.2167282  42.61  0.001547258    1.503    0.335
        18 -11.4694    152.8612      9.1377   4.0169408093e+01   4.5312385462e+01    0.2454085    0.1849785  45.99  0.001011882    1.368    0.269
        19 -12.1199     71.3806     17.5835   6.1241997602e+01   6.2879788425e+01    0.3286858    0.2535525 -30.43   0.00110884    1.436    0.304
        20 -12.0098     59.9032     17.1110   6.5100524548e+01   6.5025336563e+01      0.38234    0.2046555 -36.18  0.002001215    2.057    0.514
        21  -9.8906    145.2606      8.3311   4.1001792072e+01   4.7228068976e+01    0.1282974    0.0899675  37.57 0.0002947249    1.569    0.363
        22 -10.7336     58.5973      7.2451   6.0935850294e+01   6.6323172703e+01    0.1682014    0.1473351 -58.89  0.001102463    1.770    0.435
        23 -13.0246     47.9850     20.9581   7.1649992958e+01   6.6497806269e+01    0.5975268    0.2825627  36.31  0.002313668    2.003    0.501
        24 -11.8791    119.9980      3.7652   4.3582196797e+01   5.3646256777e+01    0.3364894    0.1828234  75.71  0.001214124    1.911    0.477
        25 -11.3479    117.4728      1.4724   4.3227508245e+01   5.4414949032e+01    0.2279675    0.1670549  69.64 0.0006238711    1.246    0.197
        26 -11.7686     78.1889      2.6211   5.2516476767e+01   6.2980481986e+01    0.3378683    0.2180282  46.17  0.001634864    1.296    0.228
        27 -11.0097     83.0219      1.2309   5.0602238421e+01   6.2093521725e+01    0.2765253     0.107239  58.96  0.001239632    2.307    0.567
        28 -10.3754     67.6339      4.2956   5.6446043458e+01   6.4926854846e+01    0.1103742   0.09686657 -81.08 0.0006715248    1.719    0.418
        29 -11.2713    232.5326      1.7669   3.0683522582e+01   2.7620915081e+01    0.2189207    0.1418515  85.89  0.001025246    1.364    0.267
        30 -11.8578     61.4480      1.7304   5.7271524988e+01   6.6318071896e+01    0.3970471    0.1442291  52.66  0.001586319    2.525    0.604
        31 -12.9857    187.5000     11.5141   3.6673028723e+01   3.6738738751e+01    0.5511329    0.3605841 -28.52  0.003099544    1.721    0.419
        32 -14.2523     25.2592     14.0315   7.8975202345e+01   7.0519589854e+01    0.6942875    0.4135512  20.45  0.003271633    1.583    0.368
        33 -12.4459    239.2220    159.5621   6.4300577070e+01   2.6307242100e+00    0.4139819    0.1219778  40.32  0.001460844    3.928    0.745
        34 -14.1596     96.8747    238.7859   1.0714205197e+02   1.1968917714e+01    0.9640587    0.4681502  39.05  0.004840231    1.760    0.432
        35 -14.2712     91.9068    231.4223   1.0735944087e+02   1.4123965162e+01    0.6834458    0.5753939  35.37  0.004374594    1.232    0.188
        36 -11.4785     52.2579    250.4190   1.1699363118e+02   1.5810306630e+01    0.2149508    0.1104235  65.16 0.0009305733    1.834    0.455
        37 -12.7295     56.1539    246.7881   1.1598399313e+02   1.6009540019e+01    0.7026105    0.2230681  32.27  0.002895113    3.442    0.709
        38 -13.0046     28.4937    246.1867   1.2110384834e+02   1.9401443760e+01    0.4448414    0.2863552  70.05   0.00301506    1.241    0.194
        39 -11.9274      2.9052    249.8584   1.2577878664e+02   2.1361947403e+01    0.3193728    0.1740563  54.10  0.001615958    1.382    0.276
        40 -13.6473      9.4082    245.6878   1.2447654653e+02   2.1506325185e+01    0.7296084    0.3666397  58.29  0.003302004    1.516    0.341
        41 -12.1193     77.3578    156.9190   1.0056331033e+02   3.3191710555e+01    0.4779676    0.3062301  25.57  0.001856748    1.852    0.460
        42 -13.3239     73.8321    153.4655   1.0093757709e+02   3.4571073503e+01     0.770474    0.5259925  30.64  0.003366582    1.614    0.381
        43 -12.3914    201.0203    191.7364   7.7805345361e+01   3.5698747219e+00    0.3893276    0.2736994 -16.04  0.001442714    1.528    0.346
        44 -12.2666    111.7176    156.3512   9.1236935889e+01   2.7616395181e+01    0.4624074     0.295638  78.36  0.001780772    2.554    0.608
        45 -11.6028     55.1750    156.5087   1.0653657896e+02   3.6343934099e+01    0.3568897    0.2264462 -11.85  0.001512466    2.901    0.655
        46 -12.8190    208.7703    154.5704   6.8646743332e+01   8.9392189221e+00    0.6695585    0.4139814  38.38   0.00318791    1.721    0.419
        47 -11.6775     85.9193    153.1672   9.7558159070e+01   3.2800762928e+01    0.4328133    0.1943711 -50.00  0.001678339    2.194    0.544
        48 -11.6416    103.2617    150.0045   9.2212366502e+01   3.0662762662e+01    0.4048163    0.2755296 -31.91  0.001781789    1.841    0.457
        49 -12.3454     60.8662    148.1404   1.0365795336e+02   3.7704730352e+01    0.3945366    0.2764887 -25.60  0.001896983    1.975    0.494
        50 -11.1144     79.6969    192.9911   1.0541185822e+02   2.4170646510e+01     0.434512     0.126616  45.60  0.001488314    3.274    0.695
        51 -10.8562     38.1543    145.8604   1.0970478840e+02   4.0965105578e+01    0.1852854    0.1469692 -48.23 0.0005910969    1.323    0.244
        52 -10.9902    149.3295    141.6566   7.8478875718e+01   2.3628387454e+01    0.1610675    0.1250964  89.75 0.0007050922    1.749    0.428
        53 -10.5001     62.8156    138.7593   1.0148252623e+02   3.9799922233e+01     0.191221    0.1561055  85.89 0.0005437978    1.279    0.218
        54 -12.2886     45.5322    134.9521   1.0592740923e+02   4.2891498716e+01    0.4016982    0.3380272 -24.87  0.002316182    1.412    0.292
        55 -12.6827    246.8296    134.5998   5.7854769821e+01   5.5199176009e+00    0.3926263    0.3367191 -61.11    0.0024007    1.347    0.257
        56 -13.5173    233.8492    133.0595   5.9541288001e+01   8.1109871721e+00    0.7778484    0.4445658  32.29  0.003557129    2.303    0.566
        57 -10.5296     10.9505    134.0638   1.1587486358e+02   4.6291641660e+01    0.1502925     0.127496 -79.67  0.000558257    1.048    0.046
        58 -12.2773    134.8086    132.2681   7.9865340199e+01   2.8768484227e+01    0.6125463    0.1990374  47.53   0.00182844    3.334    0.700
        59 -13.2708    223.3081    128.0552   6.0158383298e+01   1.0992719933e+01     0.429646     0.365188  84.91  0.002396413    1.486    0.327
        60 -12.6381    134.0236    102.9130   7.2462102969e+01   3.5430399844e+01     1.342024    0.3486809  49.68  0.003559755    4.280    0.766
        61 -12.5494    120.4193    112.0883   7.8586176337e+01   3.6344985326e+01    0.5504504    0.4218988  56.95  0.001838159    1.432    0.302
        62 -14.2920    105.6841    121.8873   8.5246953791e+01   3.7003678855e+01      1.62608     1.151024  29.61  0.007438501    1.571    0.363
        63 -14.6482    107.1508    105.0707   8.0466664809e+01   4.0612352729e+01     1.607413     1.291973   1.73  0.007499448    1.535    0.349
        64 -13.0596    120.6658    102.1214   7.5807070148e+01   3.8496370670e+01    0.5579593    0.3743778  43.19  0.002490979    1.517    0.341
        65 -11.2875     65.5311    126.6408   9.8352617964e+01   4.2461298110e+01    0.2609324    0.2345645  50.89  0.001472051    1.192    0.161
        66 -12.8337     28.4546    122.3839   1.0909448851e+02   4.7753208261e+01    0.4074361    0.2894464 -54.19  0.002313658    1.254    0.202
        67 -11.3012     59.9983    125.1905   9.9768637672e+01   4.3570101703e+01    0.3238783    0.1728962  18.61  0.001250778    2.568    0.611
        68 -12.2823    181.1778    121.0504   6.6334839266e+01   2.1113306649e+01    0.3322448    0.2262078  54.96 0.0008745037    1.590    0.371
        69 -12.5682     77.6308    117.7111   9.2665708897e+01   4.2876929730e+01    0.7057448    0.4482475 -64.27   0.00319279    1.640    0.390
        70 -13.3914     85.0534    115.1853   8.9761937838e+01   4.2287110279e+01     1.020774    0.8527527  32.49  0.003938694    1.273    0.215
        71 -11.9855      4.1539    119.9451   1.1619463504e+02   5.0169749621e+01    0.4224912    0.1882302  16.60  0.001775159    2.847    0.649
        72 -14.0925      6.9144     43.5308   1.0019708792e+02   6.7160937946e+01     1.254513    0.8099661 -55.56  0.007872134    1.409    0.290
        73 -14.1026     17.8806    111.1139   1.1068236374e+02   5.1383303410e+01    0.8268208    0.6293844 -46.38  0.003588198    1.249    0.199
        74 -14.0810     11.2453    102.9132   1.1158391038e+02   5.3819611980e+01      0.77374    0.7005754 -63.33  0.004328419    1.110    0.099
        75 -13.3564      2.2019     97.1886   1.1376729232e+02   5.5705692568e+01    0.7635833    0.2776845 -70.19  0.003428467    2.214    0.548
        76 -14.3716     22.3829     95.3523   1.0639646299e+02   5.4818795442e+01     1.544283     1.051572   4.31  0.008742203    1.793    0.442
        77 -13.8421    171.0794    242.5379   9.2499876748e+01  -8.9987345256e-02    0.8433101    0.5366393  30.25  0.004826399    1.354    0.261
        78 -12.8828     29.7182     89.6302   1.0254903824e+02   5.5542744039e+01    0.8774117    0.5057497  63.54  0.002593462    2.979    0.664
        79 -11.7636     62.1323    109.7952   9.5806107201e+01   4.7071350928e+01     0.577754    0.4035238  77.84  0.002677496    2.044    0.511
        80 -12.1935     31.9080    110.8186   1.0603255127e+02   5.0280755233e+01    0.3231927    0.2518674 -53.83  0.001181527    1.120    0.107
        81 -11.5628    222.7153    109.3941   5.5997818435e+01   1.4419283658e+01    0.2498999    0.2209475 -44.34  0.001423381    1.015    0.015
        82 -10.3718     46.3121    110.3272   1.0115807978e+02   4.8915857505e+01    0.1459166   0.09497856 -35.14 0.0007041818    1.665    0.399
        83 -11.5449     32.6136    105.2695   1.0475598366e+02   5.1563367152e+01    0.2651011    0.2461386  -1.54   0.00123087    1.230    0.187
        84 -12.1533    163.2767     99.2773   6.4510993336e+01   2.9494876426e+01    0.4795045    0.3525904 -34.32  0.001630792    1.387    0.279
        85 -12.3388     61.3689     98.5160   9.3357808698e+01   4.9865901439e+01    0.4993834    0.3565968  84.37  0.002335338    2.093    0.522
        86 -11.6248     52.6678     98.0111   9.6245498209e+01   5.1122264771e+01    0.3478675    0.2076832 -31.30  0.001592617    1.935    0.483
        87 -12.1226     49.1793     94.6203   9.6653725836e+01   5.2343263469e+01    0.4759961    0.3317529 -74.62  0.002220957    1.680    0.405
        88 -11.8592     47.1431     99.8450   9.8601688921e+01   5.1349233982e+01     0.432304    0.3498693  48.69  0.002451796    1.437    0.304
        89 -12.5095    136.6538     95.6208   6.9744181339e+01   3.6357888921e+01    0.5071326    0.3434885  56.11  0.001549242    1.577    0.366
        90 -11.9028    126.6330     93.9937   7.1877614096e+01   3.8928572780e+01    0.5920727    0.3735287 -75.37  0.002089188    3.031    0.670
        91 -11.7618     42.6183     90.6100   9.8042524711e+01   5.4028466620e+01    0.3173319    0.2194807 -61.30 0.0006952498    1.363    0.266
        92 -11.7736     90.1935     88.2902   8.0893081120e+01   4.7545477884e+01    0.4578208    0.3257081  49.45  0.002198282    1.557    0.358
        93 -13.2900    188.0901     84.4348   5.5664773690e+01   2.6436393467e+01    0.7614436    0.3356548  45.21  0.002390506    2.612    0.617
        94 -12.9029    242.7151     84.4154   4.7524573827e+01   1.4543062601e+01    0.5030837    0.2634526  67.19  0.002381592    2.326    0.570
        95 -13.1224    237.7539     80.4166   4.7258197061e+01   1.6168699881e+01     0.451086    0.2757318  75.12  0.002264489    2.000    0.500
        96 -13.6115    160.7820     80.9206   5.9971108257e+01   3.3539085047e+01    0.9411791    0.6365687  14.84  0.003806241    2.432    0.589
        97 -14.3048    169.2238     77.2951   5.7247710679e+01   3.2156304395e+01     1.670048     0.535535  54.32  0.005461736    3.056    0.673
        98 -11.5604    151.6859     84.0197   6.2828829234e+01   3.5136702640e+01    0.2864431    0.2155761  26.42  0.001321485    1.623    0.384
        99 -13.2698     39.4658     65.6129   9.2466049697e+01   5.9887129951e+01     1.931924    0.6643173  36.03   0.00775071    3.220    0.689
       100 -13.3398     65.5177     49.2949   7.6454838155e+01   5.9413573489e+01    0.8788127    0.5610011 -36.26  0.003155209    1.502    0.334
       101 -12.7327     59.9597     60.9568   8.2783216484e+01   5.8157915462e+01    0.9769941    0.4956968 -20.51  0.003444892    3.384    0.705
       102 -13.1351     55.0381     81.6551   9.1120597007e+01   5.4558693280e+01    0.5545632    0.4623701 -31.70  0.002659346    1.102    0.092
       103 -14.0808     60.9435     75.6299   8.7164020763e+01   5.5047312769e+01    0.8729573    0.5545638 -49.77  0.002160303    1.494    0.331
       104 -11.9219    214.4565     72.1554   4.8422315583e+01   2.2441875493e+01    0.2669865    0.2524874 -44.82      0.00123    1.131    0.116
       105 -13.6505    213.9421     79.0020   5.0146722823e+01   2.1457527334e+01    0.9756542    0.5619263  81.77  0.004145329    2.472    0.595
       106 -12.7864    135.3333     79.8617   6.5460716205e+01   3.9746865803e+01    0.7285559    0.4040746  51.97  0.002534274    1.809    0.447
       107 -13.8016    164.2525     71.5712   5.6612865735e+01   3.4334719374e+01     1.455476    0.9225061  61.62  0.006610844    1.610    0.379
       108 -11.9741    114.3280     80.1651   7.1112591036e+01   4.4392039679e+01    0.4073579    0.3280115 -52.35  0.000823114    1.321    0.243
       109 -13.0892     72.2149     75.2253   8.2956194734e+01   5.3408507310e+01    0.8622275    0.5139005  17.98  0.003401599    2.197    0.545
       110 -12.1413     80.6443     69.6777   7.8224672964e+01   5.3092913959e+01     0.508839    0.4026451  48.46  0.002713278    1.419    0.295
       111 -12.7764     87.5439     65.3522   7.4455045409e+01   5.2652906908e+01    0.5250615    0.3802785  -4.56  0.001245246    1.690    0.408
       112 -12.1858     92.0148     60.5115   7.1339093530e+01   5.2666099161e+01    0.4413611    0.2252366  45.38  0.001896596    1.961    0.490
       113 -12.3004     91.4846     56.9933   7.0270658465e+01   5.3382514037e+01    0.5109825    0.3083771  47.19  0.001363541    1.682    0.405
       114 -11.2647     41.8952     76.5766   9.4681199943e+01   5.7275875101e+01     0.255807    0.1827288 -56.51 0.0008701193    1.337    0.252
       115 -13.7663      3.5205     63.5557   1.0705294123e+02   6.3240307174e+01    0.5276118    0.4625949  12.42   0.00258316    1.374    0.272
       116 -13.6042    199.1790     70.0137   5.0121584074e+01   2.6259585252e+01    0.8032162    0.4841702  47.83  0.002432294    1.854    0.461
       117 -12.9776    134.3993     65.8982   6.1394630472e+01   4.2457984402e+01    0.6465766     0.598185  32.80  0.002229456    1.092    0.084
       118 -11.2773    100.2393     65.0598   7.0344837302e+01   5.0198004724e+01     0.342108    0.2425636 -16.17  0.001628625    1.660    0.398
       119 -11.1574    242.3283     71.6962   4.4775607378e+01   1.6586361289e+01    0.1376547   0.08741695 -64.57 0.0005171064    1.649    0.394
       120 -13.5596    177.8592     57.7594   5.0279540196e+01   3.3240937370e+01    0.8077431    0.6022224 -54.67  0.002410617    1.344    0.256
       121 -12.6555     79.7631     60.7151   7.5471836242e+01   5.4943280290e+01    0.5115532    0.4383135  14.20  0.002199739    1.137    0.120
       122 -12.7928     82.4781     54.5095   7.2330327206e+01   5.5542399959e+01    0.4989665    0.3685139  -9.48  0.001987223    1.497    0.332
       123 -12.0081     24.6376     59.9589   9.7014967904e+01   6.2532164970e+01    0.3447229    0.1980641 -49.00  0.001485773    1.445    0.308
       124 -14.4458    119.9771     54.6100   6.1290397163e+01   4.7655054549e+01    0.9281816    0.6099212  35.99  0.002923037    1.607    0.378
       125 -12.2621    135.5335     50.5231   5.6240385239e+01   4.4628133968e+01    0.5231399    0.3199054  35.74  0.001788131    1.885    0.469
       126 -11.2146     47.5280     56.9199   8.6336024501e+01   6.0661703552e+01    0.2470758    0.2024175  60.51 0.0009776345    1.799    0.444
       127 -11.8179    246.4777     51.4973   3.9967109792e+01   1.8676832508e+01    0.7542551    0.2187594 -47.72   0.00293926    2.946    0.661
       128 -11.3057    249.0293     49.0000   3.9194763936e+01   1.8507069466e+01    0.2425562    0.1665181  74.23  0.001456861    1.537    0.349
       129 -11.3328    231.6786     55.8849   4.2472159509e+01   2.1132472469e+01    0.2199779    0.1745199  63.37 0.0009541707    1.385    0.278
       130 -11.5104    109.7003     54.2216   6.3887104760e+01   5.0024063164e+01    0.3120841    0.2549293 -13.29   0.00166684    1.310    0.237
       131 -13.2426    103.0827     50.5270   6.4453617733e+01   5.2045071373e+01    0.6043133    0.4113938 -50.63 0.0008446522    1.764    0.433
       132 -12.2491     97.5544     50.3396   6.6009192058e+01   5.3243266650e+01     0.418124    0.3203999 -47.40  0.001513676    1.482    0.325
       133 -10.7025     36.6711     53.7043   8.9813511132e+01   6.2589598698e+01    0.1340819   0.08541619 -19.90 0.0007025201    1.633    0.388
       134 -11.1186     22.3930     50.5057   9.5103866146e+01   6.4633559482e+01    0.2708716    0.1576753   5.59  0.001473964    1.947    0.486
       135 -11.4915     77.7093     53.9818   7.3773856245e+01   5.6508872577e+01    0.2922527    0.2624669   8.79 0.0007897376    1.036    0.035
       136 -12.7965    157.7888     44.0890   4.9819266400e+01   4.0122263334e+01    0.7270785    0.4673035  34.42  0.003369721    1.949    0.487
       137 -11.8879    147.3366    239.0265   9.6777963501e+01   4.1768359675e+00    0.1713627    0.1633019  28.79  0.001036701    1.124    0.110
       138 -14.0470    217.6368     42.2755   4.0909556266e+01   2.6095830045e+01     1.227995    0.4704274  65.10  0.003977981    2.555    0.609
       139 -13.1004    205.2896     40.4607   4.1894050635e+01   2.9153054505e+01    0.7873499    0.3713253 -89.66  0.002986687    3.206    0.688
       140 -12.4181     24.5885    216.8709   1.1997805600e+02   2.5746451823e+01    0.6089761    0.4311653  53.85  0.004034635    1.238    0.192
       141 -11.6490     14.4278    223.8274   1.2241297634e+02   2.5332424256e+01    0.3722904    0.1472532  77.36  0.001709405    2.661    0.624
       142 -13.5982     25.9110    227.3318   1.2041831716e+02   2.3420456581e+01    0.6712783    0.3413814 -60.64  0.003769605    2.183    0.542
       143 -13.6062     20.5065    225.3533   1.2133726476e+02   2.4399048201e+01    0.5126188    0.3998353  83.09  0.002567023    1.106    0.095
       144 -12.2369    109.4695     42.1488   5.9694389129e+01   5.1888175263e+01    0.5146337    0.2201931  53.13  0.001436052    2.205    0.546
       145 -12.9898    131.6974     32.7320   5.1229413927e+01   4.7948320082e+01    0.5816396    0.4721423 -43.37  0.002355322    1.336    0.251
       146 -12.3243    236.6090    229.6330   7.8051611891e+01  -7.7320942615e+00    0.2841882      0.10018  39.75  0.001264075    2.976    0.664
       147 -12.5548    113.9288     38.1460   5.7121537913e+01   5.1428130451e+01    0.4497322    0.2980682  55.74  0.001442853    1.436    0.304
       148 -10.8946     55.3240     41.0894   7.7254617928e+01   6.2395735486e+01    0.1746363    0.1463104 -17.97 0.0004078789    1.081    0.075
       149 -12.5198     75.9364     37.2850   6.7990035640e+01   5.9490624897e+01    0.3409562    0.2452725  41.52  0.000732392    1.354    0.261
       150 -12.0119     69.4564     36.6932   7.0044858535e+01   6.0753865157e+01    0.4459321    0.2201824  34.70  0.001303565    2.023    0.506
       151 -12.8795    242.0786     35.9216   3.7073657135e+01   2.1659536991e+01    0.5647249    0.3064123  72.99  0.002283437    1.878    0.467
       152 -10.6795    104.3892     37.1436   5.9228814872e+01   5.3700609212e+01    0.1938726    0.1237607 -41.59  0.000950798    1.744    0.427
       153 -13.0568     63.2926    224.2888   1.1262514326e+02   1.9572156466e+01    0.9122763    0.3810912  54.08  0.004150808    2.298    0.565
       154 -12.4756     68.2964    221.3241   1.1127849469e+02   1.9523908754e+01    0.4423376    0.2951434 -78.55  0.002552922    1.514    0.340
       155 -14.3546     63.5498    214.5511   1.1161198542e+02   2.1604144687e+01    0.8578033    0.5367619  53.56  0.004780312    1.421    0.296
       156 -11.1018    201.2394    214.9917   8.2058661114e+01  -3.9714414602e-01    0.1670666    0.1050353 -36.99 0.0008868292    1.628    0.386
       157 -12.4969     46.0127     33.7202   7.8134626548e+01   6.4936707129e+01    0.4705892     0.323744  -5.12  0.002722442    1.467    0.318
       158 -12.9677    217.6910     29.3597   3.7907502318e+01   2.7742332906e+01     0.514261    0.3026136 -79.38   0.00257752    1.780    0.438
       159 -13.0855     55.9326     27.3488   7.1251886856e+01   6.4381052061e+01      0.67475    0.3414797  39.54  0.002363227    1.907    0.476
       160 -12.5188     67.8531     24.5919   6.5532595054e+01   6.2700349922e+01    0.5259961    0.4012437  50.51  0.003141812    1.476    0.323
       161 -10.3567     38.3373     30.2722   8.0086848477e+01   6.6511480366e+01    0.1265096   0.08224859  -3.87  0.000180101    1.603    0.376
       162 -10.1717     32.0087     31.0000   8.3348789664e+01   6.7173716567e+01    0.1820036   0.06471637  30.85 0.0005838738    2.878    0.653
       163 -10.7961     98.0964     27.4673   5.7276327867e+01   5.6297723398e+01    0.2094002    0.1217756  52.85  0.001030275    1.589    0.371
       164 -11.5454     36.2674     24.4824   7.8498394347e+01   6.7661013414e+01    0.2304332    0.2061626  74.18  0.001490201    2.044    0.511
       165 -12.8440      4.6085    211.5585   1.2361288716e+02   2.8835375140e+01    0.4684329    0.2272742 -77.42  0.002699736    1.762    0.432
       166 -10.8815    136.5323    211.0797   9.4944918891e+01   1.1099879682e+01    0.1949108    0.1375009 -53.70 0.0007625702    1.563    0.360
       167 -12.7472     41.6388    206.4091   1.1559102292e+02   2.6128257761e+01    0.3060705    0.1907271 -84.43  0.001523921    1.483    0.326
       168 -12.7297     94.6762    218.3768   1.0523733066e+02   1.6356843927e+01    0.3485704     0.218809  45.23  0.001453378    1.408    0.290
       169 -10.2469    248.6776     18.2882   3.2918151357e+01   2.2473230187e+01    0.1259193   0.06922988 -64.56 0.0002844731    1.603    0.376
       170 -10.9424    150.1165    207.2813   9.1338057528e+01   9.5244797803e+00    0.2277577    0.1658835  23.89  0.001186329    1.413    0.292
       171 -12.9632     16.3209    197.0137   1.2028950663e+02   3.0918277883e+01    0.6152729    0.2134964 -61.40  0.002648553    2.710    0.631
       172 -12.5827     57.5159    203.6893   1.1182243378e+02   2.4787192149e+01     0.518258    0.2780517  89.23  0.002446518    2.140    0.533
       173 -13.6768     40.5899    195.2746   1.1479658937e+02   2.8762807491e+01    0.7606649    0.3148697  58.68  0.003243899    2.643    0.622
       174 -13.0684    165.1039    196.6883   8.6212301522e+01   8.9546500171e+00    0.5272653    0.3485014  84.16  0.001977652    3.657    0.727
       175 -14.1715     29.9728    169.3924   1.1471930489e+02   3.6018657567e+01    0.8632953    0.4953112 -42.03  0.004255892    2.294    0.564
       176 -15.6334      9.2658    179.9907   1.2058323252e+02   3.5435422751e+01     2.313497     1.137623 -76.70   0.01240755    1.682    0.405
       177 -12.6416     98.6978    187.3420   1.0001928631e+02   2.2539561923e+01    0.4109434    0.3168645  -9.16   0.00203855    1.903    0.475
       178 -11.7519    155.5011    185.9618   8.6348206015e+01   1.2838504109e+01    0.2186436    0.1431448 -46.43  0.001017582    1.585    0.369
       179 -11.9758     49.1609    181.6659   1.1135908535e+02   3.0937382838e+01    0.4029095    0.2416323 -49.84  0.002032059    1.889    0.471
       180 -13.1201    197.5965    180.5229   7.6277239885e+01   6.1863465878e+00    0.5619416    0.4101767 -73.13  0.002611165    2.370    0.578
       181 -10.7243    123.3215    182.6559   9.3265906604e+01   1.9413563561e+01    0.1529194    0.1120382  74.53 0.0005886667    1.729    0.422
       182 -12.4495     86.0967    180.8515   1.0212945571e+02   2.6046725000e+01    0.2827973    0.2276564  63.37  0.001477264    1.213    0.176
       183 -11.9459     95.8673    171.3445   9.8133882740e+01   2.6759665666e+01    0.3224083    0.2972335 -84.65  0.001819335    1.046    0.044
       184 -13.1966    124.2320    166.8695   9.0109955773e+01   2.2843297332e+01    0.6832764    0.4453346 -75.29  0.002873398    2.105    0.525
       185 -13.1131     22.2202    181.3219   1.1772576917e+02   3.3947076554e+01    0.5210772     0.301915 -71.78  0.002008162    1.495    0.331
