#   1 NUMBER                 Running object number                                     
#   2 MAG_AUTO               Kron-like elliptical aperture magnitude                    [mag]
#   3 X_IMAGE                Object position along x                                    [pixel]
#   4 Y_IMAGE                Object position along y                                    [pixel]
#   5 X_WORLD                Barycenter position along world x axis                     [deg]
#   6 Y_WORLD                Barycenter position along world y axis                     [deg]
#   7 A_WORLD                Profile RMS along major axis (world units)                 [deg]
#   8 B_WORLD                Profile RMS along minor axis (world units)                 [deg]
#   9 THETA_WORLD            Position angle (CCW/world-x)                               [deg]
#  10 FWHM_WORLD             FWHM assuming a gaussian core                              [deg]
#  11 ELONGATION             A_IMAGE/B_IMAGE                                           
#  12 ELLIPTICITY            1 - B_IMAGE/A_IMAGE                                       
         1 -12.5540    248.0345     35.1968   2.5225265899e+01   2.0465004891e+01    0.9240281    0.3492021 -33.71  0.004571355    2.007    0.502
         2 -15.3498    242.8721     11.0743   2.0104021037e+01   2.3792040286e+01     4.247795     1.782976 -33.03   0.02235627    1.844    0.458
         3 -11.4143     13.0818     13.1390   8.6490901769e+01   7.5746002286e+01    0.3369739    0.1649049 -45.30   0.00132723    1.768    0.434
         4 -11.9090     15.7690      7.0768   8.0865732778e+01   7.6836915752e+01    0.5481114    0.2741435 -24.48  0.002458196    2.358    0.576
         5 -12.7064      6.1515     11.2928   9.2305051752e+01   7.6571328503e+01    0.8370919    0.4563021 -46.36  0.004436714    1.539    0.350
         6 -11.8425      9.8249      2.1907   8.4204683901e+01   7.8349568487e+01    0.9063294    0.2287867  16.78  0.003135398    4.275    0.766
         7 -11.4244     19.5764     14.5995   8.1367217006e+01   7.4886446465e+01    0.4361346    0.1603743 -41.12  0.001742041    2.630    0.620
         8 -11.0732     30.5222      9.5614   6.9306728861e+01   7.4619573891e+01     0.456631    0.2132384  12.55  0.001479859    4.483    0.777
         9 -11.0088    161.2851      9.5748   2.6085359666e+01   4.2777422578e+01    0.2709368    0.1320297  81.08  0.001128218    2.092    0.522
        10 -10.6859    149.1388      9.2383   2.7436974897e+01   4.6044630615e+01     0.285196    0.1856246 -78.02  0.001347233    1.639    0.390
        11 -11.9928     25.1520      4.2603   7.0294787639e+01   7.6346792711e+01    0.5247489    0.2982697 -27.36  0.002550131    1.921    0.479
        12 -11.1871    168.9866      2.8053   2.3091367110e+01   4.1382780000e+01    0.3374763    0.1611549 -60.40  0.001418448    2.253    0.556
        13 -11.0581    153.9776      5.1646   2.5415977325e+01   4.5123620490e+01    0.3137327     0.145489 -47.62  0.001298815    2.183    0.542
        14 -10.3455    179.3171      7.6409   2.3648894301e+01   3.8316139290e+01    0.1518554    0.0854237 -56.44  0.000704373    1.757    0.431
        15  -9.8759    134.3381      4.6692   2.7746308556e+01   5.0492358401e+01    0.1569292   0.09888613 -62.17 0.0007051947    1.738    0.425
        16 -12.6119     11.5349     24.3397   9.2073264518e+01   7.3272277399e+01    0.7096041     0.263817 -42.10  0.002967677    2.414    0.586
        17 -11.3780    159.7354      3.1058   2.4090160131e+01   4.3775189310e+01    0.3354074     0.180277 -80.44  0.001460477    2.028    0.507
        18 -10.5381     41.0973      2.8017   5.6807903560e+01   7.4041701792e+01    0.3399339    0.1937542  17.20  0.001453444    2.458    0.593
        19 -11.1761    181.8709      2.8868   2.2005005397e+01   3.8103913409e+01    0.3034885     0.140936 -63.56  0.001284689    2.329    0.571
        20  -9.9390    137.8323      1.8314   2.6169377808e+01   4.9784535257e+01    0.2092423    0.1562352 -68.87  0.001075321    1.360    0.265
        21  -9.7499    147.5952      1.8357   2.4971525690e+01   4.7129911128e+01    0.2012447    0.1179695 -38.34 0.0009409625    1.693    0.409
        22 -11.1686     29.8186    241.2053   1.0609397934e+02   2.2318824989e+01    0.3432469    0.1556946  56.39  0.002132373    1.850    0.459
        23 -11.6741    247.9397    215.3437   6.0565607769e+01   2.4255553785e-01    0.5173174    0.1978205 -21.44  0.002883753    2.572    0.611
        24 -12.2026    234.0384    245.7489   6.7026572900e+01  -1.1415123592e+00    0.5286716    0.2685608 -18.17   0.00373473    1.851    0.460
        25 -12.0215    241.6885    237.8368   6.4766616222e+01  -1.2058140578e+00    0.6096162    0.2619293  -2.02   0.00320725    3.101    0.678
        26 -12.2830    247.0909    226.2705   6.2307312343e+01  -7.0160770287e-01    0.5908517     0.289768  -9.08  0.003822669    1.913    0.477
        27 -11.4973    248.9632    248.5064   6.5111123195e+01  -2.8577495385e+00    0.4594435    0.2579151 -18.69   0.00334925    1.624    0.384
        28 -11.3663    249.3676    233.4401   6.2987864722e+01  -1.5883195669e+00    0.3729666    0.1771914 -23.97  0.002346109    1.944    0.486
        29 -11.7561    242.6352    246.3796   6.5782074869e+01  -2.0596513506e+00     0.460864    0.2131522 -14.78  0.003080856    2.063    0.515
        30 -11.3326    246.8497    240.1176   6.4294979557e+01  -1.9289428747e+00    0.3745422    0.1708955 -11.52  0.002399189    2.145    0.534
        31 -11.7190    224.9424    248.4777   6.8829265746e+01  -4.5532349726e-01    0.3589464    0.1825484  19.81  0.002514207    1.410    0.291
        32 -10.6296     74.5572    250.3347   9.7380264578e+01   1.6458520666e+01    0.4046835   0.06291023  32.98    0.0016303    3.330    0.700
        33 -10.9736     65.7131    249.2291   9.9116454177e+01   1.7558248091e+01    0.3873666    0.1238904  40.45  0.002048549    2.060    0.514
        34 -10.4095     50.4763    250.1033   1.0225374493e+02   1.8967923790e+01    0.3349747   0.08836592  34.07  0.001686067    2.252    0.556
        35 -10.7604     36.3507    248.6811   1.0503534841e+02   2.0534674271e+01    0.3905141    0.1388816  47.17  0.002255836    1.965    0.491
        36 -10.7023     20.1877    249.1478   1.0825328478e+02   2.1896934234e+01    0.2902836     0.123546  47.16  0.001877699    1.596    0.374
        37 -10.3293     11.9352    249.2738   1.0986311383e+02   2.2564319648e+01    0.3026415     0.103513  39.45  0.001841475    1.748    0.428
        38  -9.8291      3.7607    250.5808   1.1145207161e+02   2.3010627069e+01    0.1864309   0.07863723  23.23  0.001137558    2.075    0.518
        39 -10.2612     11.0891    226.3478   1.0955648958e+02   2.6409319433e+01    0.2819383    0.1144242  46.42  0.001391367    1.676    0.404
        40 -10.3585     13.9572    232.3839   1.0909772727e+02   2.5144481990e+01    0.2911353    0.1223751  42.98  0.001797649    1.579    0.367
        41 -10.5749     18.6549    222.3347   1.0784293009e+02   2.6489363780e+01    0.2593893    0.1119989  51.20  0.001493198    1.732    0.423
        42 -10.7217      1.9508    221.2458   1.1138115922e+02   2.8008512599e+01    0.2617842    0.1324368  79.50  0.001683985    1.938    0.484
        43 -11.1278    238.1584    219.0543   6.2624621018e+01   9.4725888714e-01    0.3019629    0.1353417 -29.40  0.001880514    2.198    0.545
        44 -10.9082     12.0567    216.8195   1.0912591082e+02   2.8016920697e+01    0.3457638    0.1601462  45.55  0.002119784    1.525    0.344
        45 -10.6910      2.4528    212.7964   1.1113520733e+02   2.9487087250e+01    0.2599769    0.1498826  63.01  0.001752699    1.437    0.304
        46 -10.4207     20.8799    211.9728   1.0702755428e+02   2.8173513531e+01    0.2438855    0.1130336  68.01  0.001375816    2.071    0.517
        47  -9.9111     28.3047    211.8790   1.0534070992e+02   2.7540716251e+01    0.1892939    0.1101491  58.74  0.001189086    1.482    0.325
        48 -10.6747      4.3743    228.4276   1.1099299266e+02   2.6577666508e+01    0.3283103    0.1328434  54.53   0.00199982    1.811    0.448
        49  -9.7828    246.7058    206.0031   5.9320337889e+01   1.2962989330e+00    0.1539941    0.1039743  -5.99 0.0008293033    1.135    0.119
        50 -10.0670    250.1589    200.9866   5.8012429014e+01   1.4118051568e+00     0.241421    0.1229621 -23.94  0.001576508    1.725    0.420
        51 -11.5344     12.2845    204.6306   1.0875765082e+02   3.0257140237e+01    0.4239236    0.1420887  40.58   0.00221649    1.985    0.496
        52 -11.5076      3.4413    197.3426   1.1062415108e+02   3.2327845715e+01    0.3905559    0.1543926  62.71  0.002091933    2.119    0.528
        53  -9.8137     16.9975    190.0002   1.0717767843e+02   3.2748845152e+01    0.2090764   0.09642984  52.45  0.001135848    1.737    0.424
        54 -11.3844      4.1343    189.0295   1.1028210025e+02   3.3921294397e+01    0.3451664    0.1445071  54.15  0.001879658    1.852    0.460
        55 -10.8470     11.6654    183.7877   1.0828928922e+02   3.4435508990e+01    0.2882448   0.08079031  81.11  0.001095054    4.140    0.758
        56  -9.2967    249.3230    184.3315   5.5416877027e+01   3.2305934745e+00    0.1167566   0.06520355   2.44  0.000705007    1.701    0.412
        57 -11.1876      2.0660    179.0649   1.1056767293e+02   3.6101329745e+01    0.3215087     0.133375  80.70  0.001638942    2.298    0.565
        58 -11.1268      6.4369    172.7206   1.0928825959e+02   3.7139759428e+01    0.2778816    0.1036679 -82.00  0.001312983    2.661    0.624
        59  -9.4523     11.3072    172.6613   1.0801011934e+02   3.6804467728e+01    0.1336585   0.06542454  53.70 0.0007042334    1.681    0.405
        60 -10.6084      1.5686    165.2849   1.1037467153e+02   3.9067086915e+01    0.2234578   0.09994494  83.66  0.001136679    2.109    0.526
        61 -11.5729      9.3108    157.4503   1.0800553490e+02   4.0294538453e+01    0.3372258    0.1342048 -78.22  0.001580725    2.447    0.591
        62 -10.5482      3.4193    154.2406   1.0956492913e+02   4.1401868453e+01    0.2296988    0.1040761 -80.06  0.001147054    2.135    0.532
        63 -10.1789      4.3837    136.7796   1.0869063932e+02   4.5391000934e+01    0.1783597    0.1028586 -73.05  0.000956499    1.696    0.410
        64 -10.4207    248.0406    130.0214   4.5645601196e+01   9.5610082378e+00    0.1731796    0.1342884 -45.59  0.001138806    1.704    0.413
        65 -11.5653    248.8303    119.5179   4.3436129400e+01   1.0693896407e+01    0.2878299    0.1299854 -33.90  0.001314912    1.906    0.475
        66 -12.8521    245.6244    100.3610   3.9860083373e+01   1.3499539289e+01     0.558212    0.2284293 -43.02  0.002552079    2.658    0.624
        67 -12.9471    248.5067     87.2135   3.6704314313e+01   1.4591105721e+01    0.7081758    0.3840369 -57.85    0.0033401    3.110    0.678
        68 -12.7203    248.7054     81.5152   3.5448585207e+01   1.5225975569e+01    0.6710073    0.3826036 -63.06  0.003238184    3.081    0.675
        69 -11.7626    248.7238     75.4850   3.4131197651e+01   1.5923277103e+01    0.4305564    0.2062199 -35.93  0.002291622    1.720    0.419
        70 -11.9578    211.8031    247.3128   7.0831164396e+01   1.0483241937e+00    0.4468194    0.2071858  10.97  0.002618416    2.164    0.538
        71 -10.8862     98.4592    245.0787   9.2100471495e+01   1.4570094011e+01    0.3039275    0.1181987  43.15  0.001602909    2.110    0.526
        72 -11.0679      2.1242     40.7870   1.0263502718e+02   6.9615642047e+01    0.3844274    0.1371784 -69.41  0.001626971    2.283    0.562
        73 -10.5206     45.1568    245.1711   1.0311252016e+02   2.0252695479e+01     0.298451    0.1143872  41.11   0.00173331    1.727    0.421
        74 -11.3745     84.7738    244.3394   9.4874809497e+01   1.6234773717e+01    0.2390547    0.1550286  36.77  0.001651397    1.115    0.103
        75 -10.9249      3.1600    243.4579   1.1146751527e+02   2.4180965768e+01    0.3396508    0.1373584  49.88  0.002201628    1.658    0.397
        76 -11.1531     57.2208    242.4483   1.0049110740e+02   1.9482845664e+01    0.4566782    0.1378175  45.49  0.002285618    2.411    0.585
        77  -9.8985    156.4077     17.2137   2.9260796340e+01   4.3300783500e+01    0.2067761    0.1211941 -39.29 0.0006683531    1.669    0.401
        78 -10.8536     26.1074     16.5869   7.6934134493e+01   7.3779386345e+01    0.2993931    0.1464333 -37.89  0.001337249    2.046    0.511
        79 -11.1390      1.5219     25.7121   1.0046628649e+02   7.3333981835e+01    0.4435795    0.1187696 -77.85  0.001559296    3.619    0.724
        80 -12.1297    226.0184    241.2398   6.7697530885e+01   1.0961932393e-01    0.3332675    0.1803222  -0.28  0.002270199    1.663    0.399
        81 -12.3894    231.0648    234.1786   6.5921801333e+01   2.4524545085e-01    0.4374966    0.2102776  10.86  0.002705114    1.917    0.478
        82 -10.8836    107.9142    241.2119   8.9817300266e+01   1.4023571275e+01    0.2402389    0.1259609  45.70  0.001422538    1.772    0.436
        83 -11.1270     72.7751    240.8778   9.7142886533e+01   1.8088229970e+01    0.2700959    0.1213208  55.52  0.001459602    2.404    0.584
        84 -11.1051     15.8555    240.7343   1.0890767032e+02   2.3603970984e+01      0.49835    0.1101815  38.72  0.002577037    2.319    0.569
        85  -9.7909     38.2572    241.1225   1.0435956828e+02   2.1556310510e+01    0.2291386   0.07426252  44.85  0.001232368    2.066    0.516
        86 -11.8122    235.8609    228.2128   6.4320078150e+01   3.0363439519e-01     0.372139     0.169293 -18.48  0.002299327    2.155    0.536
        87 -10.3493     44.6732    237.4526   1.0286705690e+02   2.1539230458e+01    0.2734684    0.1019201  47.69  0.001500542    2.012    0.503
        88 -10.3180     81.9960    236.9870   9.4920439231e+01   1.7673295658e+01    0.1932514    0.1006832  48.92  0.001035948    1.736    0.424
        89 -10.4080      6.4417    236.3074   1.1070678170e+02   2.5090809267e+01    0.2448446    0.1285241  55.98  0.001590184    1.458    0.314
        90 -10.3204     94.9939    235.9970   9.2076607866e+01   1.6327404098e+01     0.194815    0.1053575  48.82   0.00114696    1.770    0.435
        91 -11.2352     60.7229    232.1069   9.9160378917e+01   2.0790255374e+01    0.2790132    0.1297737  64.71  0.001471675    2.649    0.623
        92 -10.4612     39.8118    231.4335   1.0362726806e+02   2.3008918766e+01    0.2342316    0.1270242  51.90  0.001500667    1.494    0.331
        93 -11.4297     25.9452    228.8560   1.0648594241e+02   2.4724020944e+01    0.4112829    0.1876279  79.65  0.002392978    2.443    0.591
