#   1 NUMBER                 Running object number                                     
#   2 MAG_AUTO               Kron-like elliptical aperture magnitude                    [mag]
#   3 X_IMAGE                Object position along x                                    [pixel]
#   4 Y_IMAGE                Object position along y                                    [pixel]
#   5 X_WORLD                Barycenter position along world x axis                     [deg]
#   6 Y_WORLD                Barycenter position along world y axis                     [deg]
#   7 A_WORLD                Profile RMS along major axis (world units)                 [deg]
#   8 B_WORLD                Profile RMS along minor axis (world units)                 [deg]
#   9 THETA_WORLD            Position angle (CCW/world-x)                               [deg]
#  10 FWHM_WORLD             FWHM assuming a gaussian core                              [deg]
#  11 ELONGATION             A_IMAGE/B_IMAGE                                           
#  12 ELLIPTICITY            1 - B_IMAGE/A_IMAGE                                       
         1 -19.2738    241.9679    151.1154   1.1155833514e+01   8.9445773096e+00     6.151518      3.79124 -34.19   0.04054299    1.223    0.182
         2  -8.9823    133.2565     14.8015   3.5309411714e+02   4.9666764315e+01    0.2190546    0.1957081 -55.14 0.0005025749    1.151    0.131
         3  -8.8185      7.2889     12.0991   3.9599981784e+01   7.7213664144e+01    0.2103839     0.150684   7.34  0.000579329    1.326    0.246
         4  -8.3176     58.8636     10.8292   7.1228712045e+00   6.8038018211e+01    0.2012278     0.158615  41.84 0.0004653738    1.195    0.163
         5  -9.4204    125.2315      8.5982   3.5201208824e+02   5.2223650755e+01    0.3166691     0.191793  82.89  0.001681788    1.500    0.333
         6 -10.8219    193.3518      3.4085   3.4494192584e+02   3.7362848998e+01    0.4633813    0.3063246  55.83  0.002919508    1.979    0.495
         7  -8.0169     31.5497      6.1874   1.6801598229e+01   7.4326736817e+01    0.2128124    0.1335528  42.75 0.0007244232    1.407    0.290
         8  -8.4999     25.8927      5.5148   1.9878957654e+01   7.5463357826e+01    0.1849107    0.1783404 -72.03 0.0006476375    1.348    0.258
         9  -9.4036    181.4947      4.0242   3.4576932735e+02   3.9765666053e+01    0.2104305    0.1759482 -44.94  0.001483266    1.242    0.195
        10  -8.9458     45.9753      4.0374   8.0947296090e+00   7.1613495535e+01    0.1567845      0.13514  46.90  0.000577325    1.015    0.015
        11  -8.9447     51.2012      6.8297   7.6888204586e+00   7.0180537153e+01    0.1794679     0.133318  35.34 0.0002420201    1.318    0.241
        12  -9.8100    134.5257    185.1091   3.6670483380e+01   1.7659251812e+01    0.3433802    0.2382981 -67.96   0.00162899    1.937    0.484
        13 -10.1488    147.1262    194.3411   3.5346212606e+01   1.4074198575e+01    0.2943844    0.2378137 -28.22 0.0003678924    1.174    0.148
        14 -15.7172    244.2120    122.6939   5.7218603256e+00   1.2810440637e+01    0.8139548     0.384207  44.96  0.004642216    2.821    0.645
        15 -10.3595    142.6621    169.6840   3.2084487919e+01   1.9632079082e+01    0.4334743    0.2497354 -59.31  0.001468173    2.113    0.527
        16  -9.4532    137.2255    174.1103   3.4141404276e+01   1.9539678101e+01    0.2117819    0.1776975 -11.58 0.0009259785    1.202    0.168
        17  -8.8502    240.9728    241.5764   2.5645772293e+01  -3.1626335569e+00    0.2263664    0.1403262  34.68   0.00161883    2.401    0.584
        18 -10.3100    153.7488    161.1005   2.7998915255e+01   1.9658447893e+01     0.339739    0.2203707 -38.30 0.0003375218    1.460    0.315
        19  -9.2750    138.0089    164.7941   3.2252007095e+01   2.1377891937e+01    0.2606018    0.2043668 -54.90  0.000784389    1.343    0.255
        20  -9.1954    131.7938    163.4807   3.3484931671e+01   2.2643422654e+01    0.2688172    0.1727048 -17.48 0.0006738736    2.153    0.536
        21  -9.6501    147.0545    163.0149   2.9841051431e+01   2.0323372098e+01    0.2065217    0.1923166 -23.35 0.0003454927    1.026    0.026
        22  -9.1895      2.1748    233.4296   7.4736544826e+01   2.2213932210e+01    0.3658154   0.09710137  45.56   0.00159035    2.553    0.608
        23  -9.8574    143.6866    155.9216   2.9226002593e+01   2.2336676064e+01    0.2444274    0.1983201  41.60 0.0004612084    1.317    0.241
        24  -9.6439    134.5435    153.4522   3.0878982766e+01   2.4373899037e+01    0.3078012     0.190422 -32.08  0.001242664    1.817    0.450
        25  -9.4428    129.1409    150.6880   3.1642958649e+01   2.5887605949e+01    0.3058256    0.2352363 -61.16 0.0003357962    1.409    0.290
        26  -9.1427    126.9809    146.4925   3.1326264907e+01   2.7192141229e+01    0.2713818    0.2007997 -44.94 0.0005899337    1.310    0.236
        27 -10.4170    150.2850    147.1320   2.5968448980e+01   2.3067118903e+01    0.3938916    0.2480216 -51.58 0.0002694803    1.584    0.369
        28  -8.9716    148.4771    140.6962   2.5019256376e+01   2.4708040246e+01    0.2590805    0.2124778 -12.92 0.0005962335    1.360    0.265
        29  -9.8935    133.2733    146.9122   2.9858496464e+01   2.6016617569e+01    0.3892604    0.1940598 -47.12  0.001320255    1.920    0.479
        30  -8.8532    141.9997    143.9800   2.7180525660e+01   2.5143948177e+01    0.2109771    0.1992402 -38.03            0    1.028    0.027
        31  -8.9477    132.4379    139.1405   2.8422278372e+01   2.7870508962e+01    0.2959419    0.1346667 -45.17  0.001150471    2.115    0.527
        32  -8.4183      7.9074    139.2770   6.8556611812e+01   4.5106780690e+01    0.2177763    0.1726791  52.38 0.0007167178    1.219    0.180
        33  -9.9964    155.1507    135.6314   2.2483299318e+01   2.4575204954e+01    0.3791708    0.2453205 -54.81 0.0006183145    1.613    0.380
        34  -8.4858    152.3159    132.2964   2.2359620425e+01   2.5757050792e+01    0.1415533    0.1095684  -9.40 0.0001898759    1.606    0.377
        35  -8.6493    126.6765    137.1297   2.9419142407e+01   2.9347883013e+01    0.2297304    0.1818646 -67.31 0.0005531051    1.413    0.292
        36  -8.4283    142.9061    135.8602   2.5231890610e+01   2.6707026114e+01    0.2129141    0.1818548 -17.09 0.0003162486    1.262    0.208
        37  -8.0201     39.9363    132.5720   5.6018776882e+01   4.4120173933e+01    0.2009643    0.1237868 -18.05 0.0004058144    2.269    0.559
        38  -8.9540    137.9155    130.0313   2.5096741136e+01   2.8858662008e+01    0.2221737    0.2027834 -39.06 0.0003810703    1.047    0.045
        39  -9.1949    146.8687    129.0108   2.2817962620e+01   2.7423521804e+01    0.2155568    0.1990313 -35.58 0.0004266909    1.034    0.033
        40  -8.5010    228.8077    241.0545   2.7406587738e+01  -2.1057666323e+00    0.2002448    0.1057864 -20.17  0.001344623    1.559    0.359
        41  -8.2878    171.7355    229.2298   3.5589447147e+01   5.0342807490e+00    0.1584491    0.1105705  -7.70 0.0003506181    1.287    0.223
        42  -9.5403    194.6458    240.2260   3.2922144655e+01   1.0775967758e+00    0.3006912    0.2159241  27.43  0.001690187    1.550    0.355
        43 -10.1688    169.1701    116.1393   1.5343800268e+01   2.5847576532e+01      0.25259    0.2218104 -37.73 0.0002817269    1.061    0.057
        44  -8.1859    180.7171    239.7488   3.5362690968e+01   2.5149372061e+00    0.1333661    0.1154238   5.75 0.0003930684    1.279    0.218
        45 -10.2186    152.5377    113.5378   1.8007188101e+01   2.9499473541e+01    0.3718231    0.2787736  -9.69   0.00180522    1.851    0.460
        46  -8.5357     12.9260    227.3947   7.1986878539e+01   2.2632222168e+01    0.2049043    0.1630411 -41.72  0.001269077    1.615    0.381
        47  -9.0460    142.1266    109.7146   1.9322532873e+01   3.2318284015e+01    0.2576301    0.1973127 -43.56 0.0002855708    1.234    0.189
        48  -9.0445     54.0155    102.5117   4.4839031643e+01   5.0519376637e+01     0.497958    0.2059598 -61.84  0.001175616    2.409    0.585
        49  -9.5943    175.1250    100.3712   1.0628599358e+01   2.7609890403e+01    0.2520336    0.2282059 -32.73 0.0004150137    1.140    0.122
        50  -8.6618    172.9606     97.0617   1.0208045663e+01   2.8614430937e+01    0.2260831    0.1714858 -48.72 0.0003232534    1.168    0.144
        51  -9.0271    158.5029    100.8303   1.3729442250e+01   3.0783123600e+01    0.2451613    0.2295286  -7.05 0.0002654195    1.228    0.186
        52  -9.2837    162.0318     95.7081   1.1801090571e+01   3.1024446327e+01    0.3737548    0.1963206 -42.58 0.0008723499    1.721    0.419
        53  -7.6942    137.6459    101.3254   1.8210837130e+01   3.4936744878e+01    0.1542653      0.11385 -82.66 0.0003778285    1.766    0.434
        54  -9.0404    151.3222     98.2685   1.4501940268e+01   3.2722862397e+01    0.3514441    0.2159588 -22.56 0.0007580565    2.409    0.585
        55  -8.8948     61.1016     95.7395   4.0303052402e+01   5.1184269262e+01    0.2812701    0.2169363 -51.16 0.0004930354    1.277    0.217
        56  -8.3785     72.7500     93.8243   3.5278856830e+01   4.9669735028e+01    0.2238473    0.2034992 -27.18 0.0006345093    1.183    0.155
        57  -9.2625    155.2953     90.4467   1.1728135109e+01   3.3368056510e+01    0.2321541    0.2154627 -71.87 6.635876e-05    1.054    0.052
        58  -8.3812     41.4471    248.4825   6.6317774965e+01   1.5757322831e+01    0.1214655    0.0973283  38.60 0.0002035926    1.007    0.007
        59  -7.9420     13.5332     89.5601   6.0470556469e+01   5.8531670651e+01    0.1415455    0.1331907 -63.46 0.0001404554    1.008    0.008
        60 -10.1476      3.1731     86.6951   6.5202246425e+01   5.9950713924e+01    0.3642172    0.2863821  59.98  0.001178453    1.363    0.266
        61  -9.6256      7.0659     82.9913   6.2674355268e+01   6.0733640366e+01    0.3189203    0.2181439 -69.83 0.0008943714    1.346    0.257
        62  -9.5387    157.9974     81.1794   8.8268187300e+00   3.4459619677e+01     0.308708    0.2549516 -22.87  0.000947109    1.424    0.298
        63  -8.9860      3.0056    239.0978   7.4707780415e+01   2.0978951991e+01    0.1773386    0.1446256  45.57 0.0003938996    1.051    0.048
        64  -8.9705      1.4831     79.9429   6.5143507391e+01   6.1848377015e+01    0.2145183     0.127125 -74.61 0.0005072866    1.559    0.359
        65  -8.2388    142.9955     78.2956   1.0876187784e+01   3.8213882847e+01    0.1901314    0.1760756 -78.72 0.0004327889    1.040    0.038
        66  -7.8622     36.8269     87.9042   4.8869066679e+01   5.6694321767e+01    0.1996623    0.1690669  64.76 0.0002769724    1.293    0.227
        67  -8.2378     49.5284    237.4679   6.3741212242e+01   1.7147493321e+01    0.2001976    0.1016549 -55.92   0.00101948    2.287    0.563
        68  -9.0312    189.0899     75.8800   2.7246971808e+00   2.8990944055e+01    0.2217923    0.1572852 -45.50 0.0004228283    1.193    0.162
        69  -7.4031     64.2720     75.6713   3.3178678176e+01   5.5525410216e+01    0.1491371    0.1183226  83.42 0.0002241046    1.585    0.369
        70  -8.1821     40.9929    215.0005   6.4273259327e+01   2.2804022644e+01    0.2205458    0.1288243  55.86  0.001120838    1.656    0.396
        71  -8.3988    158.8075     73.2704   6.5982075476e+00   3.5639215605e+01    0.2211145    0.1811794 -42.24 0.0006730382    1.175    0.149
        72  -8.3071     55.5857     71.8560   3.5651690391e+01   5.7936210130e+01    0.1942313    0.1429538 -69.31 0.0001484075    1.570    0.363
        73  -8.4564     48.1323     72.1176   3.9146013891e+01   5.9089933716e+01    0.2202747    0.1952432 -24.99 0.0004647663    1.172    0.147
        74  -7.6090     72.0081     71.7902   2.8820104409e+01   5.4938595990e+01    0.1912657    0.1188796  42.22 0.0003724876    1.592    0.372
        75  -7.5967     60.3205     70.2988   3.3068278279e+01   5.7465691976e+01     0.149823     0.117073  -9.60 0.0002225807    1.621    0.383
        76  -9.0421    155.6882    208.4740   3.5744791425e+01   1.0356291423e+01    0.2554244    0.1620861 -20.87 0.0006747836    1.668    0.401
        77  -8.6891      3.0751     67.3561   6.2227073283e+01   6.5075386859e+01    0.2341968    0.1666641 -52.77 0.0006689681    1.262    0.207
        78  -7.8620     35.7356     66.9904   4.3690322448e+01   6.2115403579e+01    0.1925377    0.1827371 -42.35 0.0002815082    1.036    0.034
        79  -8.5622     23.5227     73.1457   5.1931672087e+01   6.2012739615e+01    0.2348514    0.1836813 -26.41 0.0004597089    1.324    0.245
        80  -9.8747    149.0870    201.2561   3.6024387381e+01   1.2508836415e+01    0.4086619    0.2183956 -44.24 0.0009120352    1.838    0.456
        81  -7.8754    132.9746     65.0000   9.0660487930e+00   4.2804614064e+01    0.2214123   0.08023526  57.55 0.0003082492    2.798    0.643
        82  -8.1718     10.2951     63.6245   5.7158094224e+01   6.5580316445e+01    0.1431484    0.1000401  62.07 0.0007024629    1.742    0.426
        83  -8.3548     67.8010     59.9135   2.6268283632e+01   5.8284558149e+01    0.2130315    0.1930893  -5.41 0.0003282713    1.222    0.182
        84  -8.2968    175.7940     55.2789   3.5938068268e+02   3.4804926823e+01    0.1916752    0.1484338 -64.01  0.000433616    1.151    0.131
        85  -7.6652    106.2722     58.9658   1.3334503863e+01   5.0037535550e+01    0.1694273    0.1262829 -44.84 0.0003114743    1.350    0.259
        86  -8.0269    149.6795     52.9866   2.4811325534e+00   4.0898990778e+01    0.1883686    0.1607485 -58.91 0.0009764115    1.064    0.060
        87  -8.0743    115.9292     53.4959   9.1131115125e+00   4.8704917146e+01    0.2084066    0.1360485  58.40 0.0005533375    1.492    0.330
        88  -9.6172     30.7641     51.0282   4.0988806127e+01   6.6484250117e+01    0.3404797     0.162338 -48.17  0.001457003    2.027    0.507
        89  -8.5008     11.5714     52.2932   5.3417220322e+01   6.8274516002e+01    0.1920718    0.1126452 -51.27 0.0006313897    1.546    0.353
        90  -8.9813    145.6843    208.2953   3.7840705391e+01   1.1644096571e+01    0.2293118    0.1911957  -2.22 0.0007386146    1.072    0.067
        91  -7.9437      7.6639     45.7189   5.4124625301e+01   7.0137741919e+01     0.142232   0.08780283 -29.57 0.0003603166    1.618    0.382
        92  -8.4339     52.6425     43.4988   2.6216467242e+01   6.4452969541e+01    0.3253191     0.210341  -5.76  0.001332843    2.712    0.631
        93  -8.7625    100.2291     41.0843   8.4855707095e+00   5.4387449885e+01    0.3628111     0.226138  59.37   0.00174224    1.514    0.340
        94 -10.0396    149.3132    206.2815   3.6754872424e+01   1.1552893434e+01    0.3162044    0.2652639   8.81  0.001028859    1.072    0.067
        95  -8.2939     73.0265     38.9616   1.5810064170e+01   6.1021913487e+01     0.224216    0.1641866  26.63 0.0006131348    1.644    0.392
        96  -9.4314    139.1418    206.4545   3.8997093899e+01   1.2822223346e+01    0.2890305    0.1708908 -42.32 0.0002296603    1.693    0.409
        97  -8.2724     56.0217     36.4721   2.1473991466e+01   6.5047638937e+01    0.2071454     0.129389  44.58 0.0005481653    1.509    0.337
        98  -9.6394     17.8429     33.2296   4.2085262630e+01   7.1927379949e+01    0.2832449    0.2076423  25.58 0.0006795537    1.324    0.245
        99  -7.7154    142.0192     32.9817   3.5768413734e+02   4.5466382010e+01    0.1618505    0.1377871 -87.15 0.0003244041    1.064    0.060
       100  -8.4100     43.3268     30.1260   2.4521670937e+01   6.8585749384e+01    0.2322667    0.1700069  31.44 0.0003358038    1.330    0.248
       101  -8.4120     68.0423     28.3320   1.2786833461e+01   6.3752821364e+01    0.2042498    0.1700817  53.95  0.001162215    1.110    0.099
       102  -7.6539    138.3126     27.3211   3.5644474864e+02   4.7048621366e+01    0.1283066    0.1001068  38.25 0.0004201423    1.652    0.395
       103  -8.6860     75.8626     26.5641   9.3317712106e+00   6.2213307932e+01     0.291929    0.2069547  28.20  0.001027165    1.718    0.418
       104  -7.9626    121.6976     25.0659   3.5821513046e+02   5.1326792523e+01    0.1793514    0.1648745 -67.10 0.0004286401    1.094    0.086
       105  -8.5408     23.0954     24.1619   3.3760406950e+01   7.2996427710e+01    0.2315065    0.1641176 -17.67 0.0006331168    1.564    0.360
       106  -7.9818     26.7958     22.2146   3.0100993277e+01   7.2779680864e+01    0.2228345    0.1467697  16.64 0.0003916371    1.694    0.410
       107  -8.7724     19.0907     22.6309   3.5852020466e+01   7.3836918858e+01    0.2235613     0.171898 -31.62 0.0003542544    1.284    0.221
       108  -8.5086    134.7740    237.2107   4.4160036604e+01   7.8320689603e+00    0.1672886    0.1231348  -6.84 0.0005233745    1.308    0.236
       109  -8.1079     56.7196     22.3729   1.4180674655e+01   6.7078786418e+01    0.1940198    0.1130686  45.27  0.000832731    1.584    0.369
       110  -7.6756     37.5044     22.4129   2.3557817087e+01   7.0919400877e+01    0.1320711     0.117787  25.37  6.99772e-05    1.017    0.017
       111  -9.3723    155.7890    196.2599   3.3797575728e+01   1.2555935058e+01    0.2870797    0.1982971  18.99  0.001620834    1.414    0.293
       112  -8.1719     45.4622     18.4890   1.7107713054e+01   6.9969089836e+01    0.1328527    0.1180729  31.06 3.635677e-05    1.037    0.035
       113  -8.3610    112.5099     15.4949   3.5628519892e+02   5.4647139285e+01    0.2592315    0.1302038 -28.28  0.001209871    2.162    0.537
       114  -7.7178    115.6393     13.1880   3.5494579376e+02   5.4116460390e+01    0.2096492    0.1420507  44.91 0.0002227751    1.693    0.409
       115  -7.8903     61.9336     15.9674   8.8024226158e+00   6.6754048213e+01    0.2087729    0.1442868  30.26 0.0005059501    1.627    0.385
       116 -15.4236    244.1496    204.4063   1.9721266829e+01   1.2435641540e+00     1.178531    0.7788254 -16.40  0.008758515    1.185    0.156
       117  -8.4865     78.0401     14.6976   3.1704477642e+00   6.3145641143e+01     0.266761    0.1618425  48.64  0.001307922    1.564    0.360
       118  -8.9019     82.3469     12.8493   1.2063497494e+00   6.2307823898e+01    0.3026334    0.1519437  70.55  0.001049711    1.912    0.477
       119  -9.3565    139.3009    183.9140   3.5367054241e+01   1.7218294255e+01    0.2398526    0.1614075 -38.17 0.0007378888    1.460    0.315
       120 -16.5280    223.1558    194.0910   2.1182912576e+01   4.7767270007e+00     2.538941     1.977227  73.42    0.0144653    3.517    0.716
       121 -15.3577    230.0830    110.5813   5.0567646703e+00   1.6587202438e+01    0.9208321    0.5498632  60.88  0.005473377    2.310    0.567
       122  -7.8782     19.7902     10.6067   2.7883171904e+01   7.5768827565e+01    0.1631365    0.1100621  42.40 0.0003476385    1.481    0.325
       123 -15.8956    245.5400    182.6394   1.6058667689e+01   4.0550118863e+00    0.7494726    0.6138661 -61.01  0.005443677    2.083    0.520
       124  -7.7599    160.5259    249.4591   4.0465167379e+01   3.1344234565e+00    0.1148821   0.08952972   3.71 9.764022e-05    1.012    0.012
       125 -10.0769    143.0536    180.1627   3.3869593046e+01   1.7433971012e+01    0.3368228     0.248707  18.94 0.0005160823    1.369    0.270
       126 -11.0864    148.0749    187.1843   3.3954031088e+01   1.5325596989e+01    0.6461103    0.3962675 -66.71  0.002932485    2.592    0.614
       127  -9.1896    143.7193    194.7014   3.6154854697e+01   1.4465993171e+01    0.2157468    0.2027603 -31.55 0.0002464753    1.166    0.142
       128  -8.9086    130.1408    190.8883   3.8641831092e+01   1.7094309281e+01    0.2040055    0.1847353  -7.64 0.0006056494    1.032    0.031
