#   1 NUMBER                 Running object number                                     
#   2 MAG_AUTO               Kron-like elliptical aperture magnitude                    [mag]
#   3 X_IMAGE                Object position along x                                    [pixel]
#   4 Y_IMAGE                Object position along y                                    [pixel]
#   5 X_WORLD                Barycenter position along world x axis                     [deg]
#   6 Y_WORLD                Barycenter position along world y axis                     [deg]
#   7 A_WORLD                Profile RMS along major axis (world units)                 [deg]
#   8 B_WORLD                Profile RMS along minor axis (world units)                 [deg]
#   9 THETA_WORLD            Position angle (CCW/world-x)                               [deg]
#  10 FWHM_WORLD             FWHM assuming a gaussian core                              [deg]
#  11 ELONGATION             A_IMAGE/B_IMAGE                                           
#  12 ELLIPTICITY            1 - B_IMAGE/A_IMAGE                                       
         1 -12.4522    208.7396     10.4318   5.3208307366e+01   3.1094145558e+01      1.72064    0.6212867 -35.18  0.006836534    2.490    0.598
         2 -13.2475    186.5191     32.9874   6.2622738600e+01   3.4265020944e+01     1.073502     1.059632  84.86  0.003198171    1.017    0.017
         3 -13.7219    193.7782     22.9595   5.8571445529e+01   3.3578770097e+01     1.843688    0.9906502 -13.33  0.001293401    2.313    0.568
         4 -12.9901    175.9022     42.5239   6.7305189651e+01   3.5769553183e+01    0.9043585     0.801932 -19.48 0.0009485815    1.163    0.140
         5 -19.4726     15.3626    137.3071   1.3170061205e+02   4.4660112640e+01     17.22762     2.593976 -74.21   0.05175191    5.987    0.833
         6  -9.6796    170.1600    239.8421   1.1238028950e+02   4.1224442523e+00    0.1532057    0.1165166  24.37 0.0003907564    1.324    0.245
         7 -11.2683    209.2529    182.3058   9.6303801207e+01   5.3713755513e+00    0.5835344    0.3822911   5.20   0.00296608    1.931    0.482
         8  -9.8792     99.3934    180.6320   1.1804362279e+02   2.5298978777e+01     0.219814    0.2011299  67.91 0.0006211635    1.106    0.096
         9 -11.0855    197.5370    174.3496   9.6967713990e+01   8.7530828705e+00      0.55462    0.3271344 -44.21  0.002742596    1.943    0.485
        10  -9.7038    145.5404    168.4725   1.0632726762e+02   1.9716547517e+01    0.1369164    0.1252051  54.61 9.389684e-05    1.022    0.022
        11  -9.7734     77.4739    173.4860   1.2176897356e+02   2.9979975014e+01    0.1264546    0.1046796  75.91 0.0001051499    1.035    0.034
        12 -10.8161    137.0279    171.0030   1.0857778199e+02   2.0809241123e+01    0.3652884    0.2201515  47.69  0.001433908    1.528    0.345
        13 -11.7597     96.9814    157.1717   1.1514501397e+02   3.0492527606e+01    0.5737992    0.4260969 -28.95   0.00303145    1.991    0.498
        14  -9.7853    141.3285    158.0692   1.0532285755e+02   2.2509595016e+01    0.2429501    0.1876676  54.67 0.0003642599    1.257    0.204
        15 -10.4176    183.6631    215.5133   1.0661440417e+02   5.1690309849e+00    0.2397581    0.1548264  62.51  0.001220589    2.166    0.538
        16 -10.6733    133.7823    144.2525   1.0431633481e+02   2.6725919364e+01     1.015415     0.248913 -53.97  0.002587778    5.846    0.829
        17  -9.1644    174.8047    148.8067   9.6292853556e+01   1.7584620611e+01    0.1940003    0.1717906  78.22 0.0006074859    1.332    0.249
        18  -9.4221    146.3076    147.3544   1.0211575416e+02   2.3652165051e+01    0.1448299    0.1142286  -1.36 0.0007042484    1.720    0.419
        19 -11.1417    108.0871    141.2694   1.0978050026e+02   3.2062151642e+01    0.5011464    0.3259065 -31.36  0.002293006    2.223    0.550
        20 -11.5945     96.2314    141.9186   1.1276378843e+02   3.3902972719e+01    0.2659283     0.257698   3.57 0.0004130603    1.250    0.200
        21 -11.1345     77.9767    132.8889   1.1570610533e+02   3.8697702931e+01    0.4503342    0.2221414 -67.82  0.002000834    2.101    0.524
        22 -11.3602    116.2322    131.1135   1.0577797409e+02   3.2803624463e+01    0.6012545    0.3647849  26.63  0.001935357    2.264    0.558
        23 -10.6367    120.0044    125.0132   1.0353162421e+02   3.3413351754e+01    0.3454779     0.233123 -28.78  0.001561325    1.961    0.490
        24 -10.1540    106.2351    131.0090   1.0823077186e+02   3.4616630263e+01    0.3135573    0.2542558 -63.47  0.001396116    1.204    0.170
        25 -10.4776    102.9917    127.9082   1.0841527389e+02   3.5859572778e+01    0.2985755    0.2829948 -58.01 0.0007144985    1.091    0.083
        26  -9.5798    161.3001    128.2936   9.4590300310e+01   2.4295739435e+01    0.3024967    0.2215037 -87.05  0.001331222    2.068    0.516
        27 -10.5902    136.2958    124.1576   9.9369484388e+01   3.0386530072e+01    0.6796711    0.3458375 -46.93  0.002791343    1.978    0.494
        28  -9.9581    125.3093    127.4299   1.0276330006e+02   3.1880504123e+01    0.2523982    0.1782641 -72.59  0.001173932    1.749    0.428
        29  -9.5641    110.4764    119.9778   1.0481254917e+02   3.6278026137e+01    0.2057052    0.1913061  53.81 0.0003293479    1.096    0.088
        30 -11.7590     66.3578    114.6271   1.1547742285e+02   4.4440102549e+01    0.4663849    0.2813505 -64.09  0.002389053    1.504    0.335
        31  -9.4680    167.7797    112.7350   8.9356692503e+01   2.5858128276e+01    0.3066637    0.2221397 -79.51  0.001310396    2.088    0.521
        32  -9.4207    205.4833    110.2335   8.1151386239e+01   1.7686489643e+01    0.2708865    0.2059412  47.09 0.0007018578    1.330    0.248
        33 -16.4451     53.0747    232.7841   1.3182553361e+02   2.2040191942e+01     4.792146     2.694009  46.21    0.0138827    1.488    0.328
        34  -8.8124    134.4279    102.7825   9.4523944361e+01   3.5206359256e+01    0.2157895     0.142902 -32.54 0.0007573295    1.655    0.396
        35 -10.0547    116.0671    211.8819   1.1868207772e+02   1.6929633146e+01    0.2867156    0.1947083  83.96  0.001009373    1.775    0.437
        36 -10.8251    183.1018    234.0260   1.0937912606e+02   2.8084725246e+00    0.3252579     0.172473  52.96  0.001758711    2.029    0.507
        37 -11.6188     94.4482    237.9899   1.2526032446e+02   1.5834975250e+01    0.4222506    0.1809236  51.26  0.001592026    1.843    0.457
        38  -9.5634    105.3584    201.6244   1.1950849818e+02   2.0395725993e+01    0.3513789    0.1348201  37.80  0.001542777    2.590    0.614
        39 -11.8420    194.5840    194.0080   1.0112012079e+02   6.3284139432e+00    0.6899942    0.5910178  78.44  0.004084494    1.641    0.391
        40 -10.5746    178.6351    218.2612   1.0793146359e+02   5.6349147810e+00    0.2348468    0.1292042  49.29  0.001263813    1.685    0.407
        41 -11.1326    170.0639     69.6405   7.6812835360e+01   3.3115948232e+01    0.4987028    0.3439163 -82.78  0.001415777    2.191    0.544
        42 -10.9148     38.4396     57.6752   1.1131275485e+02   6.0304201225e+01    0.2847696    0.2038527  51.70   0.00120506    1.870    0.465
        43  -8.9102    168.0583    247.9746   1.1374484957e+02   3.4199468961e+00    0.1322661    0.1034083  40.33            0    1.034    0.033
        44  -9.1616    173.4159    246.7294   1.1268930241e+02   2.7469301110e+00    0.1317525    0.1055818 -15.97  0.000950758    1.627    0.385
        45 -11.6256    229.2603     31.9342   5.6801573548e+01   2.3588137966e+01    0.7313419    0.4799615  85.46  0.003641434    1.677    0.404
        46 -10.9916    199.8745    241.5582   1.0755762933e+02  -7.4037941182e-01    0.4249275    0.2362546  22.38  0.001983126    1.987    0.497
        47  -9.5329    113.5428    196.0360   1.1719546980e+02   2.0130316477e+01    0.2509639    0.1788486 -21.84  0.001298726    2.614    0.617
