#   1 NUMBER                 Running object number                                     
#   2 MAG_AUTO               Kron-like elliptical aperture magnitude                    [mag]
#   3 X_IMAGE                Object position along x                                    [pixel]
#   4 Y_IMAGE                Object position along y                                    [pixel]
#   5 X_WORLD                Barycenter position along world x axis                     [deg]
#   6 Y_WORLD                Barycenter position along world y axis                     [deg]
#   7 A_WORLD                Profile RMS along major axis (world units)                 [deg]
#   8 B_WORLD                Profile RMS along minor axis (world units)                 [deg]
#   9 THETA_WORLD            Position angle (CCW/world-x)                               [deg]
#  10 FWHM_WORLD             FWHM assuming a gaussian core                              [deg]
#  11 ELONGATION             A_IMAGE/B_IMAGE                                           
#  12 ELLIPTICITY            1 - B_IMAGE/A_IMAGE                                       
         1 -13.8552    244.9498    110.4057   3.5530628012e+01   8.2980008374e+00      2.24725     1.180047 -41.87  0.009867324    1.810    0.448
         2 -12.3557    214.7112     51.9091   2.5324643175e+01   2.4728688658e+01    0.6148034    0.4203791   4.03  0.002672304    2.259    0.557
         3 -11.2983     81.4150     39.6868   5.2127784769e+01   5.8380291863e+01    0.7276923    0.3074957 -43.91  0.002993393    2.507    0.601
         4 -10.9873     39.5279      8.1642   5.5152339933e+01   6.9303035356e+01     0.495451    0.1756997 -39.05  0.002318501    2.634    0.620
         5 -13.0071     44.7965     23.3972   5.9755483818e+01   6.6401371767e+01    0.9086151    0.6973472 -51.90  0.005719001    1.720    0.419
         6 -12.5682    156.2918     11.7447   2.2443821805e+01   4.5053720001e+01    0.7914322    0.5992656  43.33  0.004251741    1.280    0.219
         7 -13.2940    164.9539     12.1740   2.1184724195e+01   4.2758888211e+01     1.289373    0.4833619  57.17  0.005031292    2.223    0.550
         8 -12.4649    158.7127      3.4905   1.9342552475e+01   4.5209435515e+01     1.016008    0.3688741  60.48  0.004027248    2.220    0.550
         9 -13.3648    168.9731      2.5978   1.7579607086e+01   4.2627890857e+01     2.363719    0.8563563  80.14  0.007674998    3.661    0.727
        10 -10.1018     20.4580     15.0923   6.7588893283e+01   7.0218493547e+01    0.2661449    0.1307123 -19.06  0.001409273    2.287    0.563
        11 -10.9662     78.1714     14.1475   4.2501097008e+01   6.2616445551e+01     0.425462    0.2238368  -3.97  0.001852646    2.643    0.622
        12 -11.7072    145.9980      4.8234   2.1841812498e+01   4.8348233915e+01    0.6161243    0.2739784  59.04  0.002660625    1.873    0.466
        13 -11.0882    141.8141      1.6166   2.1443141563e+01   4.9683955082e+01    0.4087906    0.1793044  70.75  0.001668728    2.269    0.559
        14 -10.2398     71.0158      5.6575   4.1040647909e+01   6.4877372675e+01    0.3538009    0.1355847  47.84  0.001581398    2.531    0.605
        15 -10.6959    208.2174      4.5984   1.3499844215e+01   3.2275814915e+01    0.2609816    0.2273847  61.90 0.0009987856    1.195    0.163
        16 -10.9492    204.2332      4.6109   1.3916534191e+01   3.3290272047e+01    0.3783815    0.2448154  88.88  0.001793541    1.476    0.323
        17 -11.1513    131.3842      3.7268   2.4121577112e+01   5.2092122564e+01    0.6897636    0.2026556  51.28  0.002549445    2.657    0.624
        18 -10.7790    121.3399      4.5063   2.6476361259e+01   5.4445282560e+01    0.3815334    0.3374787  37.91  0.002338331    1.025    0.024
        19 -11.5887     84.1666      3.5301   3.5685842827e+01   6.2643316841e+01    0.6683365    0.2812099  53.34  0.003031866    2.310    0.567
        20  -9.6615    217.7558      1.9931   1.1905675184e+01   3.0139066176e+01    0.1877272    0.1618647 -76.45  0.001151428    1.037    0.036
        21 -10.8370      6.0511     35.3659   8.1537254348e+01   6.7523195181e+01    0.2249739    0.1856749  39.87  0.001487858    1.690    0.408
        22 -10.4777    101.0331    175.9523   8.0156304518e+01   2.5532942359e+01    0.1920607    0.1679982  73.90            0    1.006    0.006
        23 -11.0745    173.8766    162.7891   6.1332505903e+01   1.4330700922e+01    0.5219678    0.3305625  28.09  0.002265041    1.845    0.458
        24 -10.3688     14.4958    160.0259   9.7650680279e+01   3.9859965827e+01    0.1821223   0.08999471 -78.98  0.001037981    1.606    0.377
        25 -11.3411    215.6970    157.0684   5.1499817574e+01   6.6145719244e+00    0.4307933    0.2720221 -28.23  0.002024727    1.656    0.396
        26 -11.1030    220.3622    156.4769   5.0476806170e+01   5.7613575546e+00    0.3382052    0.3223321  56.09  0.001831652    1.229    0.186
        27 -10.1344     20.4981    155.5943   9.5972783946e+01   4.0312468083e+01    0.2230965    0.1424772 -80.66  0.001062226    1.242    0.195
        28 -11.2282    163.1573    152.1367   6.1463878794e+01   1.8719921493e+01    0.3779291    0.3618214 -32.96  0.002080458    1.103    0.093
        29  -9.8708    173.5768    144.7698   5.7500109493e+01   1.7948843338e+01    0.2105179    0.1466544 -54.68 0.0006028093    1.623    0.384
        30  -9.9069     53.8410    143.3658   8.6716567526e+01   3.9679602269e+01    0.2341024    0.1565474 -81.75  0.001304189    1.368    0.269
        31  -9.7413    165.4015    142.7713   5.8887386819e+01   2.0152701720e+01    0.2123726    0.1470487 -31.68 0.0007366152    1.642    0.391
        32 -12.6123     10.9689    140.0659   9.6747314108e+01   4.4528624609e+01    0.4407168    0.2567955  76.08  0.002669154    1.604    0.376
        33  -9.6676     40.1835    140.9975   8.9808050564e+01   4.1735654169e+01    0.2127783    0.1168425 -49.57  0.001098657    1.993    0.498
        34 -10.1980    165.2287    135.0785   5.7150926851e+01   2.1777596428e+01    0.3992388    0.2170674 -54.01  0.001535046    2.157    0.536
        35 -13.5384    241.0676    125.1850   3.9643769241e+01   6.7006791202e+00     1.423039     1.096037  61.17  0.007460721    1.542    0.351
        36 -11.0389    159.3416    231.8866   7.6035331171e+01   4.9796010339e+00    0.2330813    0.1458235  49.95  0.001135915    1.373    0.272
        37  -9.5776    208.5371    123.4713   4.5115697029e+01   1.4130699853e+01    0.1513219      0.14527  -1.15 0.0001822588    1.011    0.011
        38 -11.4955    189.2202    116.1011   4.7173496209e+01   2.0022024737e+01    0.8195778    0.4874555 -10.39  0.002743247    3.205    0.688
        39  -9.8963    154.4834    120.5250   5.6142266392e+01   2.7254952456e+01    0.2896145    0.1454508  36.86  0.001035417    2.288    0.563
        40 -11.1103    212.7957    112.8378   4.1668588017e+01   1.5070603634e+01    0.4891734    0.3427729 -39.34  0.002289669    1.394    0.283
        41  -9.7288    224.5145    112.0194   3.9336679732e+01   1.2523038415e+01    0.3064692    0.1358714 -39.72  0.001162818    2.148    0.534
        42 -11.4989    222.8964    107.1320   3.8410249365e+01   1.3737505311e+01    0.5549554    0.3387287  45.87  0.002161722    1.700    0.412
        43  -9.9300    148.5426    111.2728   5.5219845366e+01   3.0570448847e+01    0.3032893    0.1525025 -48.33   0.00112696    2.060    0.515
        44 -10.8644     17.4773    104.4124   9.1058419440e+01   5.2108373092e+01    0.2859229    0.2477866  39.79  0.002060623    1.414    0.293
        45  -9.9484    156.0009    108.7568   5.2733076742e+01   2.9379003585e+01    0.2183117    0.1334912  48.24 0.0008897975    1.621    0.383
        46 -10.1859     30.4572    102.0286   8.6892835151e+01   5.1660676938e+01    0.2255625    0.1657378 -26.46  0.001377268    1.686    0.407
        47 -10.7675     18.0529    127.6995   9.3787496606e+01   4.6770394393e+01    0.1648729     0.138653 -86.28  0.001169574    1.091    0.084
        48  -9.7375    178.4882     92.9348   4.3272744581e+01   2.7075864319e+01    0.2465596    0.1560543 -38.42 0.0008681185    1.583    0.368
        49 -10.5711     12.8486     89.8471   9.0318619473e+01   5.5690821540e+01     0.186583    0.1322981 -55.09  0.001120352    1.193    0.162
        50 -13.2100     14.9689     73.2656   8.6791879792e+01   5.9222345519e+01    0.7437881    0.6257237  46.23  0.005342728    1.499    0.333
        51 -11.5287      2.5166     86.6120   9.3040637229e+01   5.6974160980e+01    0.7428201    0.1690637 -70.26  0.002971724    3.189    0.686
        52 -12.5066      4.6183     75.9853   9.0778105968e+01   5.9194892859e+01    0.6379727    0.3890914  81.65  0.003731283    1.989    0.497
        53 -13.0117     42.5340     80.9618   7.8943905003e+01   5.5354069443e+01      1.00252    0.6906237 -31.92   0.00530879    1.538    0.350
        54 -10.5808    192.1930     87.0265   3.8825987753e+01   2.4729563775e+01    0.6463802     0.233721  55.09  0.002093107    2.782    0.641
        55  -9.3907    100.6686     83.6763   6.0696410051e+01   4.6532783720e+01    0.1521692    0.1145988  -9.05 0.0005551187    1.703    0.413
        56 -10.0569    214.9566     79.6212   3.2695020181e+01   2.0323288160e+01    0.3253704    0.1832676 -50.90  0.001325822    1.927    0.481
        57  -9.9713    220.9577     77.9927   3.1285915021e+01   1.9120712468e+01     0.248667    0.1754463 -68.37  0.001129679    1.716    0.417
        58 -10.3157    169.6518     76.4788   4.0448302680e+01   3.2341393475e+01    0.3104336    0.3050925  79.21  0.001326477    1.020    0.020
        59  -9.7686    226.6698     71.6708   2.8760994473e+01   1.8747664516e+01    0.3189574    0.1937706  71.10  0.001399382    1.882    0.469
        60 -10.5865     75.3956     69.1871   6.4486513862e+01   5.3835120392e+01    0.4195874     0.288371   9.34  0.002080208    1.876    0.467
        61 -12.0699    214.8804     67.2848   2.9423263829e+01   2.2343622873e+01    0.4693985    0.2704807 -33.14  0.002026786    1.718    0.418
        62  -9.9053     83.8276     68.9128   6.1565301599e+01   5.2560969108e+01    0.2288793    0.1851394 -21.18  0.001248319    1.251    0.201
        63 -11.1845     25.5466     65.0263   8.1262435855e+01   6.0289360324e+01    0.3791088    0.1911409 -61.13  0.002030873    1.646    0.392
        64  -9.6586    179.0293     66.4955   3.5544377334e+01   3.1666574115e+01    0.2462591    0.1515251  57.88   0.00103542    1.597    0.374
        65 -11.9610    232.9899     63.9031   2.5865267479e+01   1.8426515543e+01    0.3644212    0.3346991 -55.20  0.002085902    1.014    0.013
        66  -9.7392    200.0080     63.6935   3.0879762376e+01   2.6692509035e+01    0.2173931    0.2002377  71.39 0.0009791281    1.071    0.066
        67 -11.6141     11.8721    125.1363   9.5073753608e+01   4.7804839861e+01    0.2392955    0.1360088  86.61  0.001384336    1.633    0.388
        68 -11.1765    218.6476     61.8842   2.7405949280e+01   2.2243338111e+01    0.2982163    0.2338699 -40.18  0.001227192    1.233    0.189
        69 -10.9304    220.3380     53.5684   2.4962060829e+01   2.3069076797e+01    0.2824473     0.210489  79.68  0.001298737    1.398    0.285
        70  -9.3969     76.2532     58.9811   6.0921521045e+01   5.5754139695e+01    0.1844036    0.1086317 -43.85 0.0008858224    1.565    0.361
        71 -11.0646      4.6213    124.4806   9.6824153211e+01   4.8436470392e+01      0.25347    0.1370882  66.03  0.001468742    1.954    0.488
        72 -11.6222    241.7149    229.7941   6.0625997008e+01  -8.4646636772e+00    0.4433643    0.2168663  36.69  0.002434977    1.694    0.410
        73  -9.9227    164.5090     53.9951   3.4659497501e+01   3.7458993570e+01    0.2342218    0.1536078 -31.14  0.001032362    1.590    0.371
        74  -9.8805     34.9935     52.5160   7.4337721217e+01   6.2115363077e+01    0.1991864    0.1411558 -46.60  0.001011509    1.150    0.130
        75 -10.9612     85.1688     48.0050   5.3981217079e+01   5.6311723081e+01    0.4405741    0.3054685  45.88  0.002298457    1.599    0.375
        76 -10.8857      4.0261    230.2292   1.0360424596e+02   2.6888787097e+01    0.2215397   0.09532582  48.45  0.001477002    1.815    0.449
        77 -10.4409    197.0277     43.9496   2.5774939285e+01   3.0431498599e+01    0.2416455    0.1752584  32.97  0.001019071    1.672    0.402
        78 -11.6181      3.2383     41.1170   8.4280737350e+01   6.6533402033e+01     0.404554    0.3203378 -72.49  0.002728821    1.371    0.270
        79 -11.9544    191.1597     38.3898   2.5086674589e+01   3.2737249723e+01    0.6531258    0.2153016 -33.73  0.002245962    2.903    0.655
        80 -11.2362    181.4656     40.2927   2.7231183213e+01   3.5032244236e+01     0.462386    0.3788832  44.06  0.002385999    1.255    0.203
        81 -11.1515    198.1636     53.1320   2.8207690874e+01   2.8801465124e+01    0.6289734    0.3928576   3.84  0.002382035    2.823    0.646
        82  -9.7074    111.3311    229.3102   8.4820760124e+01   1.3392423711e+01    0.1103252   0.09429995  17.70 0.0005990505    1.670    0.401
        83 -11.4648     49.2260     36.1328   6.3010018333e+01   6.3729236095e+01    0.6998304    0.4812674 -79.78  0.002995889    4.147    0.759
        84 -11.8357     40.0653     29.3845   6.4281776939e+01   6.5952405172e+01    0.4890788    0.2486614 -42.73   0.00217511    1.681    0.405
        85 -11.4435    248.6894    224.7142   5.8565356545e+01  -8.9454149466e+00    0.4647452    0.2973121 -23.21  0.002912601    1.606    0.377
        86 -10.6881    197.8851     34.1182   2.2848090532e+01   3.1539743937e+01    0.2377426    0.1927031 -71.82  0.001244507    1.255    0.203
        87  -9.6653    138.1980     56.3749   4.1414260436e+01   4.3681793352e+01    0.2169451     0.144564  63.46  0.000741832    1.679    0.405
        88  -9.7487     90.3097     27.8598   4.4381922994e+01   5.8549661082e+01    0.2092073    0.1654131 -40.39   0.00117506    1.442    0.307
        89  -9.5133     67.3067     28.3416   5.2673457164e+01   6.2507921129e+01    0.1359533   0.08965143  -2.72 0.0005164429    1.686    0.407
        90 -10.0746    144.6410     27.3119   2.9938800915e+01   4.6306190167e+01    0.2340114    0.1719588 -66.58  0.001123399    1.741    0.426
        91 -10.7990     75.8887     25.3376   4.8229439968e+01   6.1542260359e+01    0.2690043     0.180998 -20.19  0.001483336    1.412    0.292
        92 -11.9808    178.6596     24.0119   2.2748559343e+01   3.7856545800e+01    0.4760906      0.41185  48.92  0.002637347    1.159    0.137
        93 -11.8076    173.6338     20.6593   2.2499789268e+01   3.9569158371e+01    0.5383056    0.2843042  58.40  0.002374695    1.684    0.406
        94  -9.7156    224.1358     22.8652   1.6523909820e+01   2.6231283446e+01    0.2260749    0.1700897 -67.50  0.001230904    1.264    0.209
        95 -10.2867    187.4532     19.4706   2.0106625947e+01   3.6065462371e+01    0.2719899    0.2358532  74.76  0.001531681    1.052    0.049
        96 -10.3295    128.5561     18.5441   3.0248723082e+01   5.1311003034e+01    0.2714327     0.239907  64.00  0.001105577    1.166    0.142
        97  -9.6803    116.5426     17.4972   3.2684503167e+01   5.4263441990e+01     0.138519    0.1245185  31.38 0.0001296447    1.018    0.018
        98  -9.8563     94.2643     17.1295   3.8636852170e+01   5.9151508641e+01    0.2351122    0.1797959  83.38   0.00112703    2.125    0.530
        99  -9.5492    247.6752     16.3413   1.2657137556e+01   2.1347766841e+01    0.1450744   0.08122717 -62.00 0.0007051069    1.730    0.422
       100  -9.8554    228.5989     15.7577   1.4285595834e+01   2.5966992079e+01    0.1946287     0.109596 -43.84 0.0009496817    1.655    0.396
       101  -9.9045     31.7699    227.3871   9.8969347074e+01   2.4548300745e+01    0.1312013   0.09264714  40.71 0.0007590076    1.634    0.388
       102 -11.5022    158.5028    225.5982   7.5328224068e+01   6.1065439187e+00    0.2385378    0.1915811 -76.74  0.001479984    1.624    0.384
       103 -13.9010    209.3990    215.4999   6.4035135647e+01  -1.3423051016e+00     1.625977    0.4796608  38.80  0.006141561    2.975    0.664
       104 -13.8532    183.4623    217.4836   6.9294203699e+01   2.9549254391e+00    0.8787253    0.6328729  14.95  0.004967681    1.609    0.378
       105 -10.2680     77.4904    220.2065   9.0273924008e+01   2.0131007043e+01    0.2611664     0.168927  23.90  0.001407509    2.543    0.607
       106  -9.7684    129.8494     12.6871   2.7774092012e+01   5.1620580390e+01    0.2386001    0.1509309  42.31 0.0008619986    1.453    0.312
       107 -10.0473    225.3230     15.3153   1.4502214632e+01   2.6824222386e+01    0.1333562   0.09983331  40.66 0.0005427311    1.663    0.399
       108 -11.1817     50.7284    217.9976   9.5030215674e+01   2.4084308796e+01    0.2523318    0.1817428  59.43  0.001774551    1.148    0.129
       109 -10.2061    141.2731    206.4666   7.6002678181e+01   1.2413521169e+01    0.2979504    0.1833629 -42.46  0.001522428    2.042    0.510
       110  -9.8293    123.9535    205.9846   7.9481376656e+01   1.5545046763e+01    0.1823563    0.1554358  58.67            0    1.016    0.016
       111 -11.6678    243.6789    201.8270   5.5348814141e+01  -5.3331987337e+00    0.5350499    0.3970203 -33.38  0.003286267    1.522    0.343
       112 -10.9284    202.8342    197.1286   6.2053889588e+01   2.5586567127e+00    0.2521484    0.2442357  12.89  0.001264587    1.187    0.158
       113 -11.6133    203.9861    192.6458   6.1001514361e+01   3.0471719191e+00    0.4965304    0.2420313  30.35  0.002091002    2.264    0.558
       114 -10.3106     23.8046    198.6085   9.8587128455e+01   3.0915292568e+01    0.1569411   0.07818156  51.48 0.0009518056    1.701    0.412
       115 -12.4969    195.8890    185.3583   6.1225782025e+01   5.7861049031e+00    0.5206339    0.4262516 -36.01   0.00295706    1.339    0.253
       116 -10.1752     37.2250    185.5985   9.5031544601e+01   3.2169934225e+01    0.1415457    0.1119424  30.05 0.0009470885    1.694    0.410
       117 -10.1658     26.3266    180.6653   9.6821932887e+01   3.4348471596e+01    0.1256838   0.06602734  69.32 0.0007051586    1.718    0.418
