#   1 NUMBER                 Running object number                                     
#   2 MAG_AUTO               Kron-like elliptical aperture magnitude                    [mag]
#   3 X_IMAGE                Object position along x                                    [pixel]
#   4 Y_IMAGE                Object position along y                                    [pixel]
#   5 X_WORLD                Barycenter position along world x axis                     [deg]
#   6 Y_WORLD                Barycenter position along world y axis                     [deg]
#   7 A_WORLD                Profile RMS along major axis (world units)                 [deg]
#   8 B_WORLD                Profile RMS along minor axis (world units)                 [deg]
#   9 THETA_WORLD            Position angle (CCW/world-x)                               [deg]
#  10 FWHM_WORLD             FWHM assuming a gaussian core                              [deg]
#  11 ELONGATION             A_IMAGE/B_IMAGE                                           
#  12 ELLIPTICITY            1 - B_IMAGE/A_IMAGE                                       
         1 -13.0870    213.3209     47.7952   3.5970596907e+02   2.8275916096e+01    0.6544996    0.5116749 -51.71  0.001073827    1.177    0.150
         2 -13.0566    239.7195     26.1835   3.5377670480e+02   2.6348589879e+01    0.7400362    0.5462242 -60.06  0.004495286    1.079    0.073
         3 -11.0692     10.1843      9.4279   4.2784333859e+01   7.6241067464e+01    0.4171735    0.1598582  35.49  0.001936715    2.304    0.566
         4 -11.5184      3.1312      7.9530   4.8391445949e+01   7.7271468756e+01    0.6498891    0.3105828 -44.59  0.003460508    2.133    0.531
         5  -9.9076    227.2601      9.5562   3.5142019942e+02   3.0302196619e+01    0.1987403    0.1406472 -62.08 0.0006793549    1.037    0.036
         6 -12.2954    126.3786    229.8208   4.8635641884e+01   9.9242097033e+00    0.6399746    0.4164486  13.47  0.003556536    1.454    0.312
         7  -9.9572    100.7349    249.5180   5.6783171027e+01   9.2722683394e+00    0.4219531    0.2093589 -52.46  0.002177322    2.301    0.565
         8  -9.2177     99.7669    243.7049   5.6410928317e+01   1.0458081980e+01    0.2408015    0.1907581 -78.30  0.001044365    1.673    0.402
         9  -9.4561     75.0341    249.9446   6.2876346618e+01   1.2038289776e+01     0.180757    0.1604186  10.35 0.0005829345    1.151    0.131
        10  -9.9108     75.9614    245.1483   6.2238348286e+01   1.2867091812e+01    0.2824515    0.1974867 -63.49 0.0005319905    1.720    0.419
        11 -15.6203     68.5531    146.1677   5.2308887381e+01   3.7032747581e+01      12.3205     5.644435 -77.18   0.04072513    3.232    0.691
        12 -15.0764     44.6911    177.3210   6.4295516928e+01   3.2006976306e+01     4.201347     2.336032 -43.77   0.01796761    2.149    0.535
        13 -10.9950    159.9645    224.5081   4.0669612153e+01   6.8819095834e+00    0.3545701     0.170686 -48.10  0.001816027    2.166    0.538
        14  -9.6858    194.6171    224.4292   3.4058937519e+01   3.0772226853e+00    0.3627795    0.1348737 -47.61  0.001749937    2.816    0.645
        15 -10.3732    174.7007    223.0242   3.7537501996e+01   5.4474974998e+00    0.1680267    0.1363599 -20.22 0.0005532317    1.110    0.099
        16 -10.0521     61.7803    175.9087   5.8818897671e+01   3.0293039528e+01    0.3183438    0.2163583  36.86 0.0008252927    1.334    0.250
        17 -11.1988    179.6312    166.2939   2.7559625596e+01   1.4686813183e+01    0.7126212    0.4945086 -43.01  0.003549861    1.325    0.245
        18 -11.1005    171.5179    174.5833   3.0552513470e+01   1.4334875451e+01    0.3413599    0.3305717  14.22  0.001135246    1.141    0.123
        19 -10.9804    173.2005    170.7805   2.9566154639e+01   1.4796446870e+01    0.4182405    0.2837421  68.23  0.001730909    2.657    0.624
        20 -10.9714    104.2972    170.9620   4.5653724493e+01   2.5383314129e+01    0.4056649    0.3577116  74.65 0.0008954786    1.266    0.210
        21 -11.3179     87.9073    168.3140   4.9865379742e+01   2.8527210559e+01    0.9120156    0.5843662  89.83  0.002814035    2.221    0.550
        22 -11.1760     96.6185    168.1964   4.7336937226e+01   2.7226793705e+01    0.7499532    0.3142085  43.03  0.002786654    2.341    0.573
        23 -10.2300    110.9586    167.4060   4.3255787296e+01   2.5160421338e+01     0.356125    0.2424257 -66.68 0.0009766362    1.693    0.409
        24 -15.5977      5.7087    142.5946   7.4355588988e+01   4.4868895280e+01     7.810169     1.965577 -79.65   0.02399657    3.900    0.744
        25  -9.2671    229.3438    165.6695   1.9420362857e+01   8.2375913152e+00    0.1047232   0.08256866 -66.00 0.0007050761    1.752    0.429
        26 -10.3121     71.9164    224.7039   6.1359083427e+01   1.7530558301e+01     0.391834    0.1902087 -62.59  0.001815152    2.310    0.567
        27 -10.0154     60.9850    158.5185   5.6728661451e+01   3.4882428816e+01    0.2779672    0.2223259 -78.11 0.0004944322    1.323    0.244
        28 -10.4279    134.3072    148.7624   3.3887305695e+01   2.5433652260e+01    0.5594372    0.2525004 -59.25  0.002085498    2.735    0.634
        29 -10.7069    133.2729    142.6385   3.2928683874e+01   2.6938233759e+01     0.759885    0.2308359 -56.02  0.002220915    4.265    0.766
        30 -11.8442     86.7552    144.3538   4.6119592542e+01   3.4645303193e+01    0.6605865    0.4965712 -14.88  0.003035477    1.756    0.431
        31 -10.8557    108.8563    145.3014   3.9792915418e+01   3.0657448428e+01    0.2960427    0.2849254  64.60 0.0006590002    1.036    0.035
        32 -10.4515     29.6838    143.3120   6.5603659705e+01   4.2678810155e+01    0.4220772    0.3408284   1.47  0.001676848    1.367    0.268
        33 -10.4353     36.7140    142.5473   6.2934919503e+01   4.2145334577e+01    0.3275405    0.2464913 -81.39 0.0008041247    1.367    0.269
        34  -9.2448    129.2721    140.8031   3.3536910364e+01   2.8053176706e+01    0.2354506    0.1848909 -78.95  0.001180545    1.529    0.346
        35 -10.3529    106.0381    214.4201   5.1509009622e+01   1.5494016836e+01    0.3270523    0.2270431 -54.13  0.001318112    1.594    0.372
        36 -15.6025      3.6264    247.0361   7.9892952402e+01   1.9571529204e+01     1.029639    0.5817747  42.45  0.005401116    1.341    0.255
        37 -11.6789    103.9496    131.6303   3.8424681424e+01   3.4750757191e+01    0.7312008    0.5015228   4.11  0.002044375    2.331    0.571
        38 -11.6251     88.5527    131.7031   4.3100126459e+01   3.7481110063e+01    0.2912853    0.2726457 -56.03 0.0005141825    1.111    0.100
        39 -17.9806      6.3309    217.6497   7.8212256012e+01   2.5748356550e+01     3.812327     2.726948  70.20   0.01528032    1.318    0.241
        40  -9.2783    223.4704    131.9646   1.4493223024e+01   1.4213816103e+01    0.1872081    0.1143258 -58.66   0.00108677    1.826    0.452
        41 -10.2511    220.5690    125.4544   1.3713730356e+01   1.5648702789e+01    0.6340393    0.2043545 -52.93  0.002296823    4.270    0.766
        42  -8.3840    155.2885    132.6424   2.5957979704e+01   2.5067414843e+01    0.1396815    0.1064134 -81.93 0.0006245804    1.682    0.405
        43 -10.5802     43.9698    130.9669   5.8577336493e+01   4.4424680090e+01    0.4213525    0.3312056 -86.54  0.001426128    1.345    0.257
        44  -9.0824     81.0487    214.7830   5.7946808975e+01   1.8589848519e+01    0.2103601    0.1623067  47.71 0.0005669709    1.265    0.209
        45  -9.4549    235.7832    131.4413   1.2847754432e+01   1.2621081025e+01    0.1307619    0.1059048  24.15 0.0009474888    1.631    0.387
        46  -9.5848    135.8441    129.6326   2.9633916149e+01   2.9256363583e+01    0.2818581    0.0990895 -47.29 0.0009791877    2.805    0.643
        47 -10.2021    111.1185    125.6226   3.5104714467e+01   3.4814283172e+01    0.3932734    0.3031128 -13.21  0.001324752    1.803    0.445
        48 -10.6773    116.0290    121.3674   3.2822680662e+01   3.4837336020e+01     0.366986    0.2477152  59.93  0.001596433    1.659    0.397
        49 -10.2162     97.8383    121.1942   3.7984008019e+01   3.8344849774e+01    0.3076616    0.2474428  21.15 0.0009982481    1.421    0.296
        50  -8.7273    165.0000    211.0592   3.7707343664e+01   8.6034902978e+00    0.1892412   0.06655701 -48.71 0.0007379233    2.870    0.652
        51  -9.4556     27.5631    118.2649   6.3159937037e+01   4.9685420099e+01    0.2578489    0.2203934  85.22  0.001372345    1.200    0.167
        52  -9.7106     37.5822    117.7067   5.8944412642e+01   4.8748590760e+01    0.2719795    0.1605853  46.10 0.0009304144    1.706    0.414
        53  -9.6217    107.0326    115.9998   3.4098461902e+01   3.7793523750e+01    0.2231206    0.2105822  72.19 0.0003307287    1.024    0.023
        54 -10.4266    244.0865    114.8139   9.0535489264e+00   1.3965196211e+01    0.1760742    0.1240873 -57.17  0.001248656    1.326    0.246
        55  -9.7830     71.7566    232.6619   6.2152726486e+01   1.5863854908e+01    0.2745197    0.1912361  36.49 0.0008441251    1.215    0.177
        56  -9.8816    127.5040    110.9651   2.7493553650e+01   3.4826047810e+01    0.2270511    0.1417601 -48.02  0.001035526    1.606    0.377
        57 -11.6868    114.5598    108.5005   3.0243737612e+01   3.7966895638e+01    0.4287791    0.3939365  79.94  0.002245701    1.067    0.063
        58 -10.6743    112.1354    103.8681   2.9780755302e+01   3.9463522520e+01    0.3190235     0.206987  60.53  0.001211566    1.685    0.407
        59 -11.6702     28.9724    107.4791   6.0872546695e+01   5.2424687375e+01    0.6767415    0.3110601  38.86  0.002174601    2.087    0.521
        60 -11.3275     24.0536    105.0688   6.2654358025e+01   5.3554210597e+01    0.4551944    0.3505035 -86.19 0.0009390726    1.375    0.273
        61  -9.8275     72.8033    104.9416   4.2558754491e+01   4.6823682497e+01    0.7026399    0.2902452  57.48  0.001804226    5.146    0.806
        62  -9.4963    134.4438    104.7208   2.4379350788e+01   3.4701756820e+01    0.2842791     0.135667 -51.41  0.001147793    2.120    0.528
        63  -9.8718    210.6732    198.7263   2.7506225014e+01   5.2978491279e+00    0.2033281    0.1645071 -16.94 0.0004559197    1.029    0.028
        64 -10.0533     45.8229    110.0627   5.4181494258e+01   4.9734659812e+01    0.2508255    0.2106982  19.87 0.0002759504    1.206    0.171
        65  -9.9967    190.7855    191.3630   2.9736657503e+01   8.8055413304e+00    0.3915491    0.2068134 -63.51  0.001538605    4.426    0.774
        66 -10.3941     32.9630     96.8862   5.7157262289e+01   5.4755859438e+01    0.6312009     0.206964  45.48  0.001965711    3.572    0.720
        67  -9.0399    234.4798    190.9965   2.2693374673e+01   3.9153102017e+00    0.1580782   0.08559436 -39.74 0.0004099441    1.508    0.337
        68  -8.5085    102.3258     91.6357   2.9441643326e+01   4.4114644831e+01    0.1594494    0.1148282  85.85 0.0001466669    1.796    0.443
        69  -8.7306    160.5388     87.5110   1.5050689968e+01   3.2566402453e+01    0.1359143    0.1205114 -73.27 0.0001537943    1.009    0.009
        70  -9.9391     55.1228     86.0293   4.4788416528e+01   5.4368963005e+01     0.276961    0.2068607  49.61 0.0008024868    1.344    0.256
        71 -10.5374    124.1357    185.8478   4.2923215530e+01   1.9040646987e+01    0.1997658    0.1617243 -11.21 0.0007600517    1.343    0.255
        72  -9.4339    108.8834     83.8635   2.5493487948e+01   4.4317685934e+01    0.2202774     0.196517  83.70 0.0004878088    1.088    0.081
        73  -9.9538    184.1597     77.1054   9.0395297118e+00   2.9566522600e+01    0.1813412     0.172913 -44.70 0.0006806726    1.278    0.218
        74  -8.9281     31.6478     72.5731   5.2280330101e+01   6.0929479018e+01    0.2770815    0.1373612  19.95  0.001137371    2.117    0.528
        75  -9.0349    132.2627     68.2449   1.5626471394e+01   4.2017568291e+01     0.196632    0.1487711 -75.26  0.001034443    1.362    0.266
        76 -12.7268    190.8061     63.8188   5.3149439374e+00   3.0291575830e+01     1.230386    0.6805767  48.80  0.001513682    2.399    0.583
        77 -13.2570    206.0884     53.1287   1.4385913016e+00   2.8892897644e+01    0.7680879    0.6773422 -83.80  0.004039058    1.219    0.180
        78 -10.4091     68.7202    244.2075   6.3919291502e+01   1.3849881299e+01     0.370362    0.2843374   6.39  0.002235201    1.338    0.253
        79  -8.7668     85.9905     62.2172   2.5913855807e+01   5.3498510863e+01    0.1980331    0.1751827  60.90 0.0002260556    1.029    0.029
        80 -11.1213      7.6838     54.1791   6.1453653987e+01   6.7579008227e+01    0.3617207     0.222727  67.02  0.001417083    2.299    0.565
        81 -10.3838      2.2493     51.0221   6.4278306813e+01   6.8656397104e+01      0.26554    0.1504173 -67.68 0.0008754969    1.803    0.445
        82  -9.1180     32.9695     51.4858   4.5267261845e+01   6.5452615300e+01    0.2091721    0.1247132  31.86 0.0009690445    1.540    0.351
        83 -10.9776    149.4061    228.4178   4.3399773973e+01   7.4394374100e+00    0.3142647    0.1875084 -39.86  0.001770135    1.701    0.412
        84  -9.7038     37.5667     39.5857   3.8271948816e+01   6.7101554933e+01    0.4004402    0.1042831  42.30   0.00128467    3.610    0.723
        85 -11.1564     30.5051     36.4423   4.1077385419e+01   6.8781662019e+01    0.5708482    0.1896144  42.98  0.002099417    3.087    0.676
        86 -10.5026      2.1848     34.0131   5.9859820479e+01   7.2381197525e+01     0.227748     0.197552 -41.87 0.0006569767    1.155    0.134
        87 -10.1605    125.0377    243.5346   5.0606798017e+01   7.6019672816e+00    0.2577851    0.1686313 -50.69  0.000847294    1.752    0.429
        88 -10.9209      2.3472     22.7292   5.5847670880e+01   7.4645806332e+01    0.3189553    0.2020032 -62.33  0.001329214    1.790    0.441
        89  -9.4272     60.5752     21.2028   1.9365732542e+01   6.5616287463e+01    0.2398842    0.1609563  55.78 0.0005594349    1.290    0.225
        90  -9.9640    102.7980    237.9563   5.5081030811e+01   1.1196286024e+01    0.2405421    0.1960872 -47.67 0.0007223243    1.410    0.291
        91 -14.8480     54.3863    225.4515   6.5990494721e+01   1.9354863732e+01     3.098414     1.113367 -72.06   0.01230322    3.262    0.693
        92  -8.6507    189.3845     14.8097   3.5476469775e+02   3.6889064852e+01    0.1416254     0.104691 -33.37 0.0006992706    1.622    0.383
