#   1 NUMBER                 Running object number                                     
#   2 MAG_AUTO               Kron-like elliptical aperture magnitude                    [mag]
#   3 X_IMAGE                Object position along x                                    [pixel]
#   4 Y_IMAGE                Object position along y                                    [pixel]
#   5 X_WORLD                Barycenter position along world x axis                     [deg]
#   6 Y_WORLD                Barycenter position along world y axis                     [deg]
#   7 A_WORLD                Profile RMS along major axis (world units)                 [deg]
#   8 B_WORLD                Profile RMS along minor axis (world units)                 [deg]
#   9 THETA_WORLD            Position angle (CCW/world-x)                               [deg]
#  10 FWHM_WORLD             FWHM assuming a gaussian core                              [deg]
#  11 ELONGATION             A_IMAGE/B_IMAGE                                           
#  12 ELLIPTICITY            1 - B_IMAGE/A_IMAGE                                       
         1 -13.9326    206.8140     44.6536   3.2582586299e+01   2.7779757049e+01     1.204031    0.9586145  14.79  0.006234896    1.555    0.357
         2 -14.1796    219.5161     34.0960   2.8586405193e+01   2.6223043753e+01    0.9897581    0.7382389  28.81  0.005258169    1.741    0.426
         3 -13.6529    245.9246      9.4163   2.0837642749e+01   2.3314124520e+01    0.8556581    0.5822958 -35.25   0.00475236    1.189    0.159
         4 -11.4148     49.4824      3.0137   5.0744122540e+01   7.2523142578e+01    0.2966751    0.2020277  69.12 0.0008823351    1.955    0.488
         5 -13.9704     54.6520    232.3644   1.0081493128e+02   2.1533297463e+01    0.5153432    0.3889182  51.24  0.000768357    1.124    0.111
         6 -14.5894      6.1064    185.4588   1.0980833741e+02   3.4899763010e+01      1.61119    0.8273215  65.79  0.006878867    1.637    0.389
         7 -16.4064     34.4050    191.4008   1.0312174963e+02   3.1194713733e+01     9.274177     2.798049  74.21   0.01177563    6.185    0.838
         8 -10.4367     87.0424    204.6962   9.1543278424e+01   2.2556247821e+01    0.2104335    0.1833687 -56.54 0.0009576092    1.423    0.297
         9 -10.6532     72.7142    204.5835   9.4861487074e+01   2.4369301399e+01    0.2400024    0.1733018  57.73 0.0008831559    1.306    0.234
        10 -11.4243    106.6061    203.3036   8.6918311362e+01   2.0205941759e+01    0.2976703     0.141735  49.74  0.001425395    2.192    0.544
        11 -11.9667    191.8735    192.9888   6.7798998650e+01   9.5744851211e+00    0.4340189    0.2746528 -60.83  0.001976327    4.304    0.768
        12  -9.4068     64.2584    190.4197   9.5669940770e+01   2.8117799646e+01    0.1740057   0.09238318  41.63 0.0003252801    1.502    0.334
        13 -10.2651     99.3969    180.9206   8.5913471910e+01   2.5331409243e+01    0.2408392    0.1709583  27.63 0.0005384306    1.299    0.230
        14  -9.5837    179.5477    174.4949   6.7026735746e+01   1.3984697050e+01    0.1263386     0.106552  13.45 0.0001365095    1.025    0.024
        15 -12.1206     62.5045    170.4182   9.4238609222e+01   3.2495787085e+01     0.370936    0.2791713 -24.25   0.00133293    1.865    0.464
        16 -12.3133     67.3511    165.7065   9.2418017987e+01   3.2909483126e+01    0.4621872    0.3302086 -13.25 0.0007331594    2.091    0.522
        17 -13.4848     58.6783    131.9363   9.0760111916e+01   4.1883989585e+01     2.946015    0.9956596 -81.97  0.006447542    8.782    0.886
        18 -13.3404     76.7488    157.2419   8.8778724191e+01   3.3514014837e+01     1.453946     0.494829  54.29 0.0004225844    4.772    0.790
        19 -13.4506     64.3404    152.8630   9.1768350876e+01   3.6182732735e+01    0.4894174    0.3852823 -11.33  0.001254751    1.706    0.414
        20 -14.8917     69.6269    144.5849   8.9126778565e+01   3.7391691314e+01     4.237373     1.467407  58.60  0.003214689    8.707    0.885
        21 -11.4866     47.6490    169.0866   9.8145513528e+01   3.4534208289e+01    0.3494474     0.252105 -84.13  0.001066234    1.442    0.307
        22 -10.8681     85.1349    170.3473   8.8195510046e+01   2.9505646707e+01    0.3497202    0.2273531   0.60   0.00161253    2.443    0.591
        23 -12.1951    243.5341    168.6338   5.5141436014e+01   5.4630594406e+00    0.3879312    0.1831392  16.94  0.001915877    2.792    0.642
        24 -11.1403    230.4766    166.9854   5.6804671124e+01   7.4197364681e+00     0.175447   0.09867508 -27.35   0.00103902    1.611    0.379
        25  -9.8919    110.6526    167.1428   8.1172865610e+01   2.6339634270e+01    0.1952782    0.1659164  82.58 0.0007066819    1.408    0.290
        26  -9.8408    192.0164    166.5003   6.3231025581e+01   1.3195644805e+01    0.1870815    0.1110756  34.96 0.0007377411    1.553    0.356
        27  -9.7286     43.2149    164.6740   9.8998027809e+01   3.6000614562e+01    0.2068259    0.1291564  44.57  0.001129241    1.350    0.259
        28 -12.3142     84.4242    151.1144   8.5754270812e+01   3.3769043872e+01    0.5559111    0.4338368 -11.78  0.002915924    1.719    0.418
        29 -11.3142    133.7176    145.0702   7.1580839701e+01   2.6796375242e+01     1.015025     0.265534 -53.73  0.002644668    6.234    0.840
        30 -10.1402    174.5305    149.0383   6.3274139549e+01   1.8764826011e+01    0.1943159    0.1278051 -37.27 0.0006768455    1.571    0.363
        31 -11.5580     54.3631    147.0999   9.4042556179e+01   3.8779766642e+01    0.3317799    0.2567634  13.75  0.001796088    1.497    0.332
        32 -11.1596     29.8990    143.8027   1.0119729630e+02   4.2196888138e+01    0.3830173    0.2967053  10.11  0.001512302    1.527    0.345
        33 -10.9021     99.6683    137.7056   7.9189432703e+01   3.4336065052e+01    0.5257295    0.3425324 -13.98  0.002138312    2.715    0.632
        34 -12.4159     86.5568    136.9133   8.2867899429e+01   3.6663952298e+01    0.2695028     0.263458 -79.03  0.000456008    1.099    0.090
        35 -11.2880    107.1248    130.3154   7.5648230064e+01   3.4672263009e+01     0.556743    0.3650987  18.99  0.002462622    1.936    0.484
        36  -9.5450     82.4937    129.0811   8.2728887765e+01   3.9134122155e+01    0.2038887    0.1441924 -65.01 0.0004141132    1.495    0.331
        37 -11.2452     67.1140    126.7204   8.7224799736e+01   4.2013768854e+01    0.3586212    0.2061892 -73.50   0.00159551    1.913    0.477
        38 -10.6760     96.9698    124.6338   7.7455055163e+01   3.7750794765e+01    0.2879026    0.2378676   0.17 0.0008853662    1.497    0.332
        39 -14.1725     45.9969    184.4689   9.9782554149e+01   3.1420510524e+01     1.071654    0.8097097  45.85  0.004573233    1.075    0.070
        40 -10.6431    135.6195    130.7454   6.8171029610e+01   2.9258023390e+01    0.2768532    0.1378832 -42.17  0.001139691    2.141    0.533
        41  -9.7492    162.3519    119.9031   5.9529577381e+01   2.6018202900e+01    0.2227841    0.1757787 -57.26   0.00115186    1.523    0.344
        42  -9.8750    106.5549    118.0458   7.3208764014e+01   3.7499576132e+01    0.2166844     0.188983  40.89 0.0001939722    1.093    0.085
        43 -10.0290    158.8728    115.1015   5.9147074680e+01   2.7585143175e+01    0.2138154    0.1927659 -75.39 0.0005881333    1.342    0.255
        44 -10.3906    231.2310    113.8566   4.6182355003e+01   1.4004454905e+01    0.2135101    0.1837765   3.92 0.0008170991    1.115    0.103
        45  -9.8368    205.3941    110.1863   4.9217426947e+01   1.9123702148e+01    0.2169387    0.1703826  30.78 0.0006687467    1.316    0.240
        46 -17.5790     11.0942    240.4049   1.1002206756e+02   2.4351990537e+01     7.459427     2.779228  21.09   0.01689713    2.835    0.647
        47 -11.2386     13.5125     60.1145   9.8297675865e+01   6.4830353524e+01    0.2525785     0.222268 -82.71 0.0004144925    1.070    0.065
        48 -12.9854    197.0210     51.5404   3.5590822620e+01   2.9128288008e+01    0.6075836    0.4555563  40.26  0.000809914    1.539    0.350
        49 -12.7307    119.5093    245.7433   8.8565063163e+01   1.2003852510e+01     0.302711    0.1976746  34.61  0.001306554    1.128    0.114
        50 -10.5288    168.2312    232.9885   7.7851408930e+01   7.6236735320e+00    0.1608991    0.1264273  31.40 0.0009004285    1.277    0.217
        51  -9.3187    198.3932     23.4889   2.7633026047e+01   3.2138596183e+01    0.1319627    0.1187962 -46.69 0.0001348007    1.045    0.043
        52 -15.5117      9.3270    207.2411   1.0962733194e+02   3.0345240375e+01     1.103956    0.8484716   9.45  0.004090154    1.641    0.391
        53  -9.3876    189.5162     15.0079   2.5997422660e+01   3.5152188141e+01     0.200833    0.1257091 -26.97 0.0005928854    1.542    0.351
