#   1 NUMBER                 Running object number                                     
#   2 MAG_AUTO               Kron-like elliptical aperture magnitude                    [mag]
#   3 X_IMAGE                Object position along x                                    [pixel]
#   4 Y_IMAGE                Object position along y                                    [pixel]
#   5 X_WORLD                Barycenter position along world x axis                     [deg]
#   6 Y_WORLD                Barycenter position along world y axis                     [deg]
#   7 A_WORLD                Profile RMS along major axis (world units)                 [deg]
#   8 B_WORLD                Profile RMS along minor axis (world units)                 [deg]
#   9 THETA_WORLD            Position angle (CCW/world-x)                               [deg]
#  10 FWHM_WORLD             FWHM assuming a gaussian core                              [deg]
#  11 ELONGATION             A_IMAGE/B_IMAGE                                           
#  12 ELLIPTICITY            1 - B_IMAGE/A_IMAGE                                       
         1 -13.3288      4.6682     11.5702   1.2405232037e+02   7.2024620251e+01     2.217665    0.6105475 -52.13   0.01050939    2.273    0.560
         2 -13.7670    203.8707      9.8245   6.4079546756e+01   3.2251175173e+01     1.949152     1.183157  38.00  0.008845236    1.764    0.433
         3 -13.3167    190.1598     28.1212   7.1806527405e+01   3.3994066827e+01     1.409506     1.208214  37.70  0.005643756    1.155    0.134
         4  -9.3545    182.9970    238.5173   1.2010750651e+02   6.3960920440e+00     0.149921   0.06859415  28.51 0.0007797581    2.420    0.587
         5 -11.6920    139.9918    248.8395   1.2786871945e+02   1.1315475708e+01    0.3457768    0.2305946  56.98   0.00270584    1.388    0.280
         6 -10.7609    122.4973    249.7415   1.3062757036e+02   1.3534548538e+01    0.2569175    0.1106301  47.26  0.001668809    1.665    0.399
         7 -10.8119    102.2353    247.4288   1.3353717674e+02   1.6406045700e+01    0.2082928    0.1278911  57.37 0.0008695018    1.297    0.229
         8  -9.2753     67.0671    250.3667   1.3899294066e+02   2.0180191707e+01    0.1359155   0.08113047  53.01   0.00112339    1.153    0.133
         9 -11.4863     28.4532    248.9814   1.4447248238e+02   2.4352323589e+01     0.476032    0.3690844  19.48  0.003617446    2.396    0.583
        10 -12.4361      5.8978    243.5840   1.4743241176e+02   2.7135515836e+01    0.7978548    0.5230042 -83.48   0.00565508    1.606    0.377
        11 -12.4463     23.8273    201.9196   1.4319350324e+02   3.1815193352e+01     0.676795    0.1216906  50.43   0.00205831    3.430    0.708
        12 -13.8624      7.4394    208.5723   1.4611120376e+02   3.2194829148e+01     1.563812    0.5836517 -75.04   0.00779773    2.484    0.597
        13 -13.1255      4.1071    177.0543   1.4543150604e+02   3.7752483608e+01      1.63735    0.4796911 -80.60  0.006681689    2.857    0.650
        14 -14.9362     17.6924    167.4669   1.4245881300e+02   3.8370197709e+01     5.856148     1.549764 -89.77   0.02162869    5.612    0.822
        15 -10.0334    232.9765    235.9252   1.1213467916e+02  -5.4928445250e-01    0.1867934    0.1467544 -55.85   0.00132049    2.823    0.646
        16  -9.7411    229.3874    230.1044   1.1187045791e+02   4.5296130600e-01    0.1627291    0.1297749 -37.52  0.001261867    1.949    0.487
        17 -10.8448    147.6893    229.5874   1.2473141403e+02   1.2509942126e+01    0.2638201    0.1010084  42.61  0.001201673    1.954    0.488
        18 -14.2627     54.5491    211.0591   1.3860058982e+02   2.7231024918e+01     6.691754          nan  46.01   0.02253936    6.629    0.849
        19  -8.9828     32.9850    228.6586   1.4298467785e+02   2.6782748620e+01     0.136261   0.09227642  70.98 0.0005510886    1.117    0.105
        20  -9.8288     35.0937    225.0810   1.4249809235e+02   2.7105595179e+01    0.1443456   0.09702162  63.92 0.0004450664    1.035    0.034
        21 -10.9454    173.6426    222.2610   1.1963273565e+02   9.5469289569e+00    0.3344239    0.2532189  62.16  0.002403159    1.621    0.383
        22  -9.9461     81.3772    242.5149   1.3637545623e+02   1.9579399300e+01    0.1977824    0.1135842  56.80  0.001029878    1.308    0.236
        23 -12.5166     41.5712    233.2924   1.4190095092e+02   2.5250728677e+01     0.270518    0.2016797 -68.18 0.0007689014    1.762    0.433
        24  -8.8379    152.4793    212.9418   1.2202231579e+02   1.3901673639e+01    0.1281236    0.1123261 -50.29 0.0004338192    1.461    0.315
        25 -11.3075     66.5089    198.6247   1.3565508140e+02   2.7878678322e+01    0.2673528    0.1934564 -51.18  0.001416729    1.937    0.484
        26  -9.8677    192.0051    193.1799   1.1244518731e+02   1.0095943185e+01    0.3685838    0.2140758 -62.85  0.001502585    5.164    0.806
        27  -8.8554     51.7588    197.2567   1.3815500559e+02   2.9775345518e+01    0.1472581    0.1008589  65.74  0.001122573    1.137    0.121
        28 -11.5723     71.9235    190.7988   1.3402568694e+02   2.8540659142e+01    0.2103628    0.1866811 -72.72 0.0006323377    1.362    0.266
        29 -13.8527     47.9361    226.0586   1.4055448109e+02   2.5648969230e+01    0.8588856    0.5747958  85.08  0.004972261    1.365    0.267
        30  -8.7041    103.9095    179.9178   1.2684491516e+02   2.6155144760e+01    0.1506306    0.1134625  65.48  0.001002255    1.231    0.188
        31 -10.7321     81.2019    178.1333   1.3105652873e+02   2.9573002275e+01    0.1941942    0.1692544  84.63  0.000355009    1.131    0.116
        32 -13.0987     68.5309    175.8837   1.3329707581e+02   3.1564722928e+01    0.3961452    0.2424061 -46.51  0.001804558    2.342    0.573
        33  -8.7176    171.2899    173.0686   1.1289594569e+02   1.6334411487e+01     0.161767    0.1492713  26.62 0.0003592423    1.092    0.084
        34  -8.8812    250.5393    171.9734   9.9072448231e+01   2.6483342333e+00    0.1688986   0.08675186   3.36 0.0004589123    2.405    0.584
        35 -11.7513     88.5218    168.3707   1.2851302269e+02   3.0355925820e+01    0.5795432    0.4647372  48.64  0.004023984    1.179    0.152
        36  -9.7166    235.5050    159.0279   9.8958180642e+01   6.6164779140e+00     0.164692    0.1022829 -47.51 0.0008102129    2.640    0.621
        37 -11.1976     32.4194    155.8965   1.3876714766e+02   3.9233064551e+01    0.3063046    0.1249708 -67.71  0.001680883    2.172    0.540
        38 -10.6807    190.2760    153.7328   1.0581386563e+02   1.5664405669e+01    0.4104775    0.3028849 -81.68  0.001409114    2.700    0.630
        39  -9.6000    184.2447    147.5387   1.0571840331e+02   1.7727891774e+01    0.2566664      0.21326 -87.75 0.0009893901    1.804    0.446
        40 -12.7460     66.3467    143.3533   1.3019522272e+02   3.8057574441e+01     1.183709      0.58889  78.14  0.003358896    3.057    0.673
        41 -11.9541     88.8777    151.8519   1.2632917189e+02   3.3412234092e+01    0.2270551    0.2197499 -52.15 0.0005332425    1.267    0.211
        42  -8.9019     72.7772    241.9143   1.3764657277e+02   2.0661114443e+01    0.1026439   0.07065336 -79.69 0.0005284542    1.637    0.389
        43  -8.9863    102.9227    148.0717   1.2271397201e+02   3.2083501185e+01      0.18209    0.1523152 -17.79 0.0007067071    1.679    0.405
        44  -8.4121    191.9873    143.9884   1.0352105500e+02   1.6750407296e+01    0.1587437    0.1423084   3.07 0.0003535087    1.086    0.079
        45  -9.1719    180.3460    143.0948   1.0556335342e+02   1.9162282024e+01    0.2198782    0.1834077  69.27 0.0006896708    1.524    0.344
        46 -12.1541     26.3506    138.5380   1.3863879297e+02   4.3229104101e+01    0.4623993     0.181055  45.95  0.002539705    2.345    0.574
        47 -10.4375     98.3861    134.6168   1.2157444045e+02   3.5418455680e+01    0.2283121    0.2046342 -30.87 0.0002876993    1.361    0.265
        48  -9.5697    110.7470    137.2296   1.1918610553e+02   3.2949567685e+01    0.2926038    0.1985828 -20.93  0.001072004    2.545    0.607
        49 -10.4343    163.2451    127.6199   1.0570936829e+02   2.5080577151e+01    0.6600572    0.4216967  86.69  0.002296924    4.252    0.765
        50  -8.8538    155.7966    121.2184   1.0585727848e+02   2.7699001622e+01    0.2722112     0.176028  81.98  0.001024569    3.326    0.699
        51  -9.9863    161.7260    249.1578   1.2456523765e+02   8.3033678100e+00    0.1430173      0.11322  62.93 0.0008233403    1.486    0.327
        52  -9.8067    100.1640    152.3762   1.2395967048e+02   3.1677635942e+01    0.2413749    0.2177631  54.34 0.0007297224    1.101    0.092
        53  -9.4261    107.6112    124.0303   1.1749172181e+02   3.6086394636e+01    0.1777109    0.1676416  66.31 0.0002061915    1.039    0.037
        54  -8.8555     69.7374    124.0768   1.2673087819e+02   4.1622498045e+01    0.1654345    0.1431441 -75.61 0.0002410203    1.068    0.064
        55 -10.1655    152.1552    248.1488   1.2593316672e+02   9.7338189390e+00    0.1539681    0.1081545  35.18 0.0005463095    1.217    0.179
        56 -10.4378    167.9743    113.1697   1.0135833140e+02   2.6579700135e+01    0.3260607    0.2861767 -82.97 0.0008299517    1.454    0.312
        57  -8.9922    203.4666    111.4962   9.3964432821e+01   1.9184815298e+01    0.1461042    0.1293765  10.77 4.326754e-05    1.020    0.020
        58 -10.0866     33.4890     92.4719   1.3154141264e+02   5.2451168366e+01    0.3530522    0.1730369  48.61  0.001858142    2.304    0.566
        59 -10.7838    198.0030    244.8278   1.1854441325e+02   3.6307696628e+00    0.1852664    0.1438053 -63.91  0.001390489    2.466    0.594
        60  -9.5060    155.8325     76.1559   9.3935651665e+01   3.5708663167e+01      0.21624    0.1776382   6.69 0.0006765699    1.321    0.243
        61  -9.4367     17.2868     66.5328   1.3239226865e+02   5.9487457535e+01    0.1826574    0.1455191  66.43 0.0006247312    1.422    0.297
        62 -10.7867      2.4283     61.7294   1.3669410000e+02   6.1412821285e+01    0.2467762    0.1951124  77.86  0.001526968    1.326    0.246
        63  -8.6481     32.1727     61.8309   1.2631426661e+02   5.9393850377e+01    0.1664602    0.1213612 -44.96 0.0004169042    1.296    0.228
        64  -8.9734     23.2736     58.5784   1.2878218149e+02   6.0829988980e+01    0.1922805    0.1089713  34.15  0.001110292    2.138    0.532
        65 -11.2113     10.2036     54.2612   1.3269165887e+02   6.2645413833e+01    0.3637866    0.1884537  37.61  0.001432596    2.378    0.579
        66 -12.4914      2.7479     47.2026   1.3419920748e+02   6.4585910721e+01     1.112077    0.1648592 -68.88  0.003810827    4.348    0.770
        67 -10.4090    249.6215    248.9925   1.1146879049e+02  -3.8205322485e+00    0.2447781    0.1217467  27.12  0.001539982    1.467    0.318
        68  -9.9981     81.3403    248.4670   1.3676571302e+02   1.8800520086e+01    0.1988421    0.1163263  65.90  0.001168216    1.507    0.336
