#   1 NUMBER                 Running object number                                     
#   2 MAG_AUTO               Kron-like elliptical aperture magnitude                    [mag]
#   3 X_IMAGE                Object position along x                                    [pixel]
#   4 Y_IMAGE                Object position along y                                    [pixel]
#   5 X_WORLD                Barycenter position along world x axis                     [deg]
#   6 Y_WORLD                Barycenter position along world y axis                     [deg]
#   7 A_WORLD                Profile RMS along major axis (world units)                 [deg]
#   8 B_WORLD                Profile RMS along minor axis (world units)                 [deg]
#   9 THETA_WORLD            Position angle (CCW/world-x)                               [deg]
#  10 FWHM_WORLD             FWHM assuming a gaussian core                              [deg]
#  11 ELONGATION             A_IMAGE/B_IMAGE                                           
#  12 ELLIPTICITY            1 - B_IMAGE/A_IMAGE                                       
         1  -9.8715    227.5993     18.4664   3.9872403775e+01   2.5984427348e+01    0.5481114    0.2326426 -42.14  0.002493273    2.074    0.518
         2  -8.8408    215.0301      8.0042   3.8498457467e+01   3.0106454254e+01    0.7036036    0.2452054 -62.99  0.002209728    4.706    0.787
         3  -9.4538    222.1303     13.2746   3.9131917333e+01   2.7853144585e+01    0.3696564    0.2786748  84.75  0.001983162    1.225    0.184
         4  -9.3457    133.2084     17.0063   5.2422362495e+01   4.9720844644e+01    0.3596435    0.2144267 -35.89  0.001729581    1.817    0.450
         5 -10.8291    244.8242      2.1503   3.4775606837e+01   2.3892503223e+01    0.7771679    0.5139811 -38.81  0.003447776    1.432    0.302
         6 -11.3059    238.7702      1.9841   3.5166073954e+01   2.5244998761e+01     1.102335    0.7756951 -22.51  0.001608382    1.707    0.414
         7  -9.7512    119.0540      9.6998   5.2629614185e+01   5.3867619793e+01    0.5705895    0.3548861  37.42  0.002899476    1.524    0.344
         8 -10.8228     30.5899    209.9467   1.2405412628e+02   2.6828893317e+01    0.8729874    0.4380362  54.80  0.005138397    1.670    0.401
         9 -10.0315    111.2909    248.8288   1.1218828078e+02   8.8991900850e+00    0.2052038    0.1854275  62.03 0.0003884521    1.172    0.147
        10  -8.9023    222.5273    208.4237   8.4765086141e+01  -2.8830816657e+00    0.2354851    0.2235797 -69.39 0.0005930225    1.641    0.391
        11  -8.7813    210.5779    202.9392   8.6018246506e+01  -8.4898313996e-02    0.2492134    0.1689809  35.37 0.0009353505    1.348    0.258
        12 -10.2763    242.0320    201.1612   7.9865060406e+01  -4.9622633012e+00    0.2245462    0.1927021   8.13            0    1.154    0.133
        13  -7.1350    134.5587    201.5652   1.0148312968e+02   1.3630076248e+01    0.1358163    0.1213568  46.29 0.0003191532    1.011    0.011
        14  -8.9387    211.7732    198.2268   8.4907094222e+01   4.3708850508e-01    0.2255168    0.1929553  20.25 0.0004771784    1.078    0.072
        15  -9.5309     15.2682    194.5399   1.2597118490e+02   3.1558863501e+01    0.2619401    0.1957999  69.55  0.001107431    1.104    0.094
        16  -8.2383     54.3100    195.3308   1.1808419558e+02   2.7153629589e+01     0.114109   0.09316839 -44.46 0.0007041856    1.669    0.401
        17  -9.7976     51.6964    191.5635   1.1827111691e+02   2.8290936851e+01      0.44815    0.1644002 -58.69   0.00199421    2.694    0.629
        18  -6.8672    221.7291    193.7107   8.2145651456e+01  -5.7314447164e-01     0.132433   0.09174073   3.68 0.0003029618    1.508    0.337
        19  -7.7065    212.0466    193.3382   8.3921390867e+01   1.1565034158e+00    0.1801798    0.1494599  24.90  0.000298054    1.108    0.098
        20 -10.1991    179.9134    189.1605   8.9603397401e+01   7.6974038212e+00    0.2500939    0.2385748  15.96 0.0003315521    1.090    0.082
        21  -7.1840    238.7035    189.3041   7.8165349250e+01  -2.7474303935e+00    0.1119705    0.1063823 -57.86 0.0002755441    1.582    0.368
        22  -8.4147    132.0809    188.9149   1.0000194290e+02   1.6595011797e+01    0.1995147    0.1870952  43.24 0.0003057377    1.050    0.048
        23  -9.0647     64.8657    183.6778   1.1453677671e+02   2.8364322495e+01    0.2176933     0.175607 -80.69 0.0003056797    1.143    0.125
        24  -6.7653     78.6802    177.6579   1.1060723261e+02   2.7811004522e+01    0.1303077     0.103893 -32.36 0.0007049788    1.720    0.419
        25  -8.6367    200.9110    173.2624   8.2103270311e+01   6.5571235317e+00    0.2160846    0.1982584  15.36 0.0002894133    1.058    0.055
        26  -7.4219    186.2289    171.3943   8.4748944522e+01   9.7433147457e+00    0.1963123    0.1337138  50.26 0.0003893871    1.581    0.367
        27  -7.1158    110.4378    168.4702   1.0158894746e+02   2.4847115378e+01    0.1416252    0.1347171  75.71 9.480623e-05    1.025    0.025
        28  -8.7574     65.5876    168.0250   1.1242537065e+02   3.1849399742e+01    0.2139893    0.1819542  49.48 0.0001643578    1.216    0.177
        29  -7.5748    128.6708    165.9089   9.6712232399e+01   2.2128860491e+01    0.1995767    0.1800477 -56.64 0.0005499836    1.142    0.124
        30  -7.4784    134.1100    161.8293   9.4610890407e+01   2.1997564182e+01    0.1970214    0.1758006  -6.98  0.000518501    1.297    0.229
        31  -7.1452    158.5931    145.4943   8.5260432105e+01   2.0594540151e+01    0.1527362    0.1475727  -5.98 0.0002043839    1.033    0.032
        32  -8.7045    147.0449    121.5176   8.2256551337e+01   2.8282804694e+01    0.2809866    0.2240004 -41.02 2.216991e-05    1.244    0.196
        33  -9.5279    203.5822    119.2405   6.9146194375e+01   1.5961930908e+01      0.25868    0.2557353 -47.46  0.000294246    1.089    0.082
        34  -7.6771    109.9940    116.4984   9.0848184827e+01   3.7093038803e+01    0.2097775    0.1534207  39.07 0.0009750048    1.425    0.298
        35  -7.4056    206.2874    109.0053   6.6047176912e+01   1.7241522827e+01    0.2745601    0.1558049  21.05 0.0009074688    3.375    0.704
        36  -7.6071    208.6644    115.8538   6.7331554579e+01   1.5455702389e+01    0.2478735    0.1994714  33.32 0.0004434624    1.325    0.245
        37  -6.7860    231.3597    104.2659   6.0522499155e+01   1.2533174159e+01    0.1439096     0.109749  14.89  0.000398863    1.638    0.390
        38  -8.3906     92.8564     96.5727   9.0718326511e+01   4.4854144766e+01    0.2467641    0.1956144 -45.98 0.0004198298    1.180    0.153
        39  -7.6406    149.8738     95.2241   7.4389014527e+01   3.3214444601e+01    0.2293437    0.2125688 -71.97 0.0007891979    1.175    0.149
        40  -9.5598     27.6618     82.7792   1.0926891528e+02   5.6386884379e+01    0.8341951    0.3477402 -79.79  0.002655446    5.000    0.800
        41  -8.8656     24.2799     74.2701   1.0863448762e+02   5.8589118916e+01    0.3579262    0.2260701 -89.33  0.001654505    2.230    0.552
        42  -7.4470      2.6121     84.1713   1.1821129537e+02   5.7653691007e+01    0.1732505   0.08042217 -60.36 0.0004571616    1.556    0.358
        43  -7.7980    125.6193     81.7315   7.6643894231e+01   4.1512659768e+01     0.341763    0.2234828  18.61  0.001355044    2.174    0.540
        44  -8.1731    146.9958     76.6363   6.9525410621e+01   3.7531775361e+01    0.2876904    0.2241548 -63.84  0.001320335    1.544    0.352
        45 -10.0219    108.7554     76.1304   7.9717135899e+01   4.6249190021e+01    0.2576304     0.243606 -23.90 0.0002239168    1.030    0.029
        46  -9.8819    167.0164     74.5032   6.4337622421e+01   3.2993442509e+01    0.5332414    0.4258083 -83.49  0.002012571    1.542    0.352
        47  -9.6090    169.8430     70.9781   6.2694719124e+01   3.2901306472e+01     0.346977    0.2720075  12.01  0.001611679    1.587    0.370
        48  -7.1627    120.3886     74.5238   7.5813110247e+01   4.4095707371e+01    0.1533179    0.1436574 -14.12 5.857923e-05    1.034    0.033
        49  -8.9571    204.9728     71.4803   5.6397100569e+01   2.4079931810e+01    0.3946207    0.2179968 -30.99 0.0008952717    1.822    0.451
        50 -10.1305    163.1386     63.1713   6.1709702927e+01   3.5906530129e+01    0.6073121    0.4299343 -67.67   0.00266458    1.828    0.453
        51  -9.0003    181.8737     55.6400   5.5851333669e+01   3.2345483739e+01    0.3847689    0.2788947 -19.57  0.001292326    1.564    0.361
        52  -9.1441    179.8634     61.8800   5.8045063725e+01   3.1881621554e+01    0.3351988    0.2320661  47.61 0.0009922519    1.472    0.321
        53  -9.0241    184.1685     59.4367   5.6555708489e+01   3.1177113470e+01    0.3427813    0.2812283 -49.74  0.001748474    1.221    0.181
        54  -8.3722    215.0937     51.3846   4.9548489686e+01   2.4700123334e+01    0.2567007    0.1932711 -44.89 0.0004445985    1.246    0.197
        55  -9.8136    195.1399     48.9896   5.1767359131e+01   2.9970038026e+01    0.5060219    0.3971558 -25.25  0.002151195    1.364    0.267
        56  -8.3500    153.9911     49.8073   5.9388749339e+01   4.0329011902e+01    0.2332987    0.1925761  25.81 0.0005287029    1.315    0.240
        57  -9.1424    224.2241     44.4277   4.6603571723e+01   2.3497572192e+01    0.4267232    0.2544716 -73.51   0.00154897    2.044    0.511
        58 -10.0269    185.0218     41.0046   5.1051504019e+01   3.3651722096e+01    0.7668357    0.4307258 -75.90   0.00290925    2.754    0.637
        59  -9.9153    187.0445     37.3226   4.9677616325e+01   3.3627446720e+01    0.4917016    0.3750193 -72.65  0.001540042    1.407    0.289
        60  -9.6046    182.4994     33.4838   4.9244460321e+01   3.5283996716e+01    0.4059851    0.3529445  -0.50  0.001484728    1.351    0.260
        61  -9.0049    204.5062     39.4831   4.7814873153e+01   2.8944940315e+01    0.5353034     0.279927 -64.84  0.002110054    2.547    0.607
        62  -8.4312    200.1842     35.4023   4.7284632597e+01   3.0558026358e+01    0.2879938    0.2161902  81.52 0.0007712237    1.324    0.245
        63  -7.5025    141.5100     41.5376   5.9308593670e+01   4.4662478349e+01    0.1460622    0.1408972  53.97 1.048895e-05    1.046    0.044
        64  -7.7051    215.2208     27.5676   4.3382683142e+01   2.7842025950e+01    0.2242353    0.1432438  41.64 0.0004479355    1.980    0.495
        65  -9.5687    213.6343     32.1805   4.4746567887e+01   2.7652259656e+01    0.4522028    0.2839553 -68.48  0.001477892    1.732    0.422
        66  -9.0193    208.6148     27.4901   4.4116543645e+01   2.9461301666e+01    0.4094212    0.2669671 -63.56  0.001729479    1.581    0.367
        67  -7.9745    239.7014     32.8116   4.2101540255e+01   2.1465662735e+01    0.2560625    0.1206167 -23.41  0.001080369    2.625    0.619
        68  -7.3681    134.8574     28.8059   5.6310298814e+01   4.7983130506e+01    0.1806929    0.1634707 -78.12 0.0002615338    1.265    0.209
        69  -7.5156    137.3107     22.3233   5.3498712876e+01   4.8133114375e+01    0.1503569   0.09878586  31.21 0.0003959902    1.653    0.395
        70  -8.0334    244.5096    247.4779   8.7521263810e+01  -1.1036444924e+01     0.236713   0.08537526 -18.25 0.0008105821    5.878    0.830
        71  -7.6827    248.6804    244.6644   8.6356118176e+01  -1.1287212581e+01    0.1211932   0.06900359   7.49 0.0007049456    1.703    0.413
        72  -9.0582    223.6848     16.3401   3.9728103521e+01   2.7144149464e+01    0.2762069     0.172387 -58.59 0.0007799637    1.511    0.338
        73  -8.4022    228.6865    242.0143   8.9401370393e+01  -8.2171435883e+00    0.1589486    0.1251152   6.79 0.0003772241    1.096    0.088
        74  -7.6996    173.5057     20.4855   4.6714900794e+01   3.9133601217e+01    0.1402938    0.1284747  67.81 0.0008101953    1.038    0.037
        75  -8.1992    165.9362     19.7832   4.7626175620e+01   4.1151228990e+01    0.2104161    0.1998001 -49.03  0.000395849    1.121    0.108
        76  -8.1997    113.9318    234.5367   1.1013990670e+02   1.0917026331e+01    0.1705808    0.1500608  69.38 0.0003036013    1.134    0.118
        77  -8.4131    224.0110    225.9937   8.7593816038e+01  -5.5254271259e+00    0.1826221    0.1452772  13.42 0.0003338579    1.017    0.017
        78  -9.7542     35.4439    215.7126   1.2353904279e+02   2.5137466990e+01    0.3005324    0.2439696 -17.00   0.00197654    2.309    0.567
