#   1 NUMBER                 Running object number                                     
#   2 MAG_AUTO               Kron-like elliptical aperture magnitude                    [mag]
#   3 X_IMAGE                Object position along x                                    [pixel]
#   4 Y_IMAGE                Object position along y                                    [pixel]
#   5 X_WORLD                Barycenter position along world x axis                     [deg]
#   6 Y_WORLD                Barycenter position along world y axis                     [deg]
#   7 A_WORLD                Profile RMS along major axis (world units)                 [deg]
#   8 B_WORLD                Profile RMS along minor axis (world units)                 [deg]
#   9 THETA_WORLD            Position angle (CCW/world-x)                               [deg]
#  10 FWHM_WORLD             FWHM assuming a gaussian core                              [deg]
#  11 ELONGATION             A_IMAGE/B_IMAGE                                           
#  12 ELLIPTICITY            1 - B_IMAGE/A_IMAGE                                       
         1 -12.6394    113.1624     24.9364   4.3922503095e+00   5.3080064101e+01    0.7804261    0.3488645  64.10  0.003206156    2.014    0.503
         2 -11.7990     58.2032     29.3995   2.2862715016e+01   6.5692898326e+01    0.4016501    0.2785205  26.46  0.002003343    1.588    0.370
         3 -11.2942     20.8596     20.6001   3.9743915098e+01   7.3792068139e+01    0.4769689    0.2820141 -19.98  0.001616244    2.078    0.519
         4 -11.7287     36.1040     18.4786   2.8153946738e+01   7.1729151117e+01     0.625083    0.4577967 -36.38  0.003534088    1.445    0.308
         5 -12.1235     15.7347     12.4120   3.8797945944e+01   7.5932631222e+01    0.6699007    0.4127595 -46.10  0.003071863    1.719    0.418
         6 -11.9185     22.9299     10.5641   3.1844424327e+01   7.5187544979e+01    0.4571951    0.3526034  -2.29  0.001936673    1.282    0.220
         7 -12.0262    164.6337     17.9998   3.5488601699e+02   4.1003782235e+01     0.431875    0.2874566  41.91  0.002284722    1.980    0.495
         8 -13.0013    129.0436     15.7463   3.5836922176e+02   5.0037857864e+01    0.7385584    0.5131384  71.07  0.002525281    1.305    0.233
         9 -10.9748    137.0945     14.4679   3.5685717483e+02   4.8129800484e+01     0.268732    0.2134186  71.27 0.0009138369    1.181    0.153
        10 -11.1475     88.5380      7.7545   2.2772731959e+00   6.1160849486e+01    0.3936698    0.2963921  75.27  0.001405871    1.228    0.186
        11 -11.6266     86.0449     13.8284   5.6868931288e+00   6.1191824146e+01    0.4809266    0.2984563  -9.47  0.001965842    2.072    0.517
        12 -10.1727     84.8286     10.1434   4.2521048550e+00   6.1867741262e+01    0.1994004    0.1757886 -77.09 0.0004032738    1.204    0.170
        13 -10.4653    225.5743     13.4983   3.4936545503e+02   2.8375138473e+01    0.1993474    0.1372354 -46.24 0.0004732862    1.151    0.131
        14 -11.1436    243.1967     14.4221   3.4868434549e+02   2.5048703587e+01    0.1990496    0.1754437  19.85  0.001393021    1.777    0.437
        15 -12.2083    104.5434     11.9190   8.7473882104e-01   5.6692347684e+01    0.4731871    0.3426317 -27.64  0.001650874    1.528    0.346
        16 -12.4841     48.5470     12.7674   1.8021307323e+01   7.0085152380e+01    0.7330998    0.2707358  51.70  0.002947819    2.428    0.588
        17 -10.8551    190.8337     11.4441   3.5097343069e+02   3.5697259513e+01    0.1976594    0.1402229 -30.75  0.001211346    1.455    0.312
        18 -11.3097    212.0948     10.2465   3.4937620994e+02   3.1350526793e+01    0.2527541    0.2143328 -36.18   0.00103699    1.296    0.228
        19 -11.2765    120.6701     11.3254   3.5798826893e+02   5.2614224358e+01    0.3044604    0.1722805  77.93  0.001048431    1.638    0.390
        20 -11.4890     63.4701      9.3283   9.9927508009e+00   6.7142057150e+01    0.4203082     0.362912 -55.83  0.001371322    1.357    0.263
        21  -9.9528      5.6754      8.9076   4.5684024057e+01   7.7740782938e+01    0.1736685    0.1437884 -24.34 0.0008508395    1.099    0.090
        22 -10.5468    185.7171      6.9555   3.5018379861e+02   3.7269662912e+01    0.1753454    0.1388041 -56.17   0.00057518    1.080    0.074
        23  -9.7937     78.1493      7.2071   4.4855790596e+00   6.3809037124e+01    0.1854261    0.1510971 -85.71 0.0007101644    1.326    0.246
        24  -9.5208      1.0000      7.0869   4.9322265066e+01   7.8520585182e+01    0.1843926   0.06486676 -54.93 0.0006388846    2.828    0.646
        25 -10.4406    154.1934      6.6064   3.5252970500e+02   4.4652274702e+01    0.1806539    0.1054841  67.05 0.0004690215    1.622    0.383
        26 -11.3039    142.5035      3.9281   3.5280069973e+02   4.7768839419e+01    0.3577335    0.1849505 -44.55   0.00177499    1.819    0.450
        27 -10.4253    128.9642      4.7520   3.5453340417e+02   5.1099026249e+01     0.196997    0.1726272 -86.47  0.001218962    1.020    0.019
        28 -12.1333    133.4364      2.2669   3.5317835571e+02   5.0180718271e+01     0.655598    0.2624688  84.03  0.002688471    2.464    0.594
        29 -11.4771    169.0457      9.3941   3.5205969084e+02   4.0839470100e+01    0.4276705    0.2142867  62.04  0.001639407    2.019    0.505
        30 -10.8938     41.1234      4.1395   1.6038023175e+01   7.2665211203e+01     0.344871    0.2038472  27.12  0.001430431    1.863    0.463
        31  -9.6551     30.5962      4.7728   2.2415328702e+01   7.4676889734e+01    0.1645586    0.1181539 -39.06 0.0005814236    1.614    0.381
        32 -10.8540    218.5213      3.3945   3.4752234114e+02   3.0748718799e+01    0.2135321    0.1627994 -78.94  0.000764122    1.205    0.170
        33 -10.1007    223.4034      2.7268   3.4715779105e+02   2.9864996038e+01    0.1730621     0.128412 -68.83 0.0008998764    1.126    0.112
        34 -11.8658    113.7859      2.2826   3.5555332745e+02   5.5179365098e+01    0.4854561     0.248481  85.88  0.001946198    1.919    0.479
        35 -11.0895    105.6209      2.2119   3.5670962290e+02   5.7278307015e+01    0.3022352    0.1871481 -63.55   0.00140677    1.751    0.429
        36 -11.1211    206.2331      1.8736   3.4777037700e+02   3.3364016151e+01    0.3056266    0.1105003 -75.97  0.001339073    3.014    0.668
        37  -9.8691     74.6359      2.6386   3.0465378529e+00   6.5081781520e+01    0.3512608    0.1249753  72.46  0.001266266    3.034    0.670
        38  -9.8294      2.0512      1.9108   4.4609202075e+01   7.9353580082e+01     0.204216    0.1224631 -16.94  0.001116952    1.748    0.428
        39 -10.1261    152.7282      1.4187   3.5109407205e+02   4.5473068967e+01    0.2308682    0.1114372  85.01 0.0007306788    1.912    0.477
        40  -9.7081     28.9004      1.4636   2.1006938872e+01   7.5401693115e+01    0.1814245     0.112388  45.96 0.0003793567    1.470    0.320
        41 -11.4285      3.4820    104.7712   7.2648902008e+01   5.4669892676e+01    0.5086532    0.3403073  41.44  0.001718674    1.549    0.354
        42  -9.7388    202.3235    250.3145   3.8641432816e+01  -1.3400546026e+00    0.1135807   0.06388965  -3.51 0.0007041618    1.662    0.398
        43 -12.2664      7.9366    114.7718   7.1806920940e+01   5.1698080982e+01    0.3009649    0.2753424 -61.63 0.0003458099    1.088    0.081
        44 -12.3136      2.8166    111.6335   7.3572296096e+01   5.2845175422e+01    0.4929042    0.3694344 -80.31  0.001685658    1.210    0.173
        45  -9.1542     58.6441    115.2633   5.1796989477e+01   4.6269460239e+01    0.1602695    0.1116343  58.92 0.0003904079    1.625    0.385
        46 -11.9477     26.4227    105.3525   6.2916641268e+01   5.2839503300e+01    0.7246417    0.5621018 -51.25  0.003304302    1.255    0.203
        47 -11.1419     27.6813    112.4722   6.3511812005e+01   5.0778641643e+01    0.3924365    0.2668065  39.59  0.001111501    1.485    0.327
        48  -9.8199     48.9693    111.5437   5.4768152678e+01   4.8606873830e+01    0.2239611    0.1476699  29.17 0.0005179258    1.534    0.348
        49 -11.0206     79.6237    107.9432   4.2438033226e+01   4.4734603188e+01    0.3983797     0.333798   1.84 0.0009068086    1.405    0.288
        50 -11.6512     15.7491    108.1782   6.7852364509e+01   5.2964723957e+01      0.37362    0.2772038  45.76  0.001949545    1.386    0.279
        51 -11.2797     49.6031    101.3670   5.2350289041e+01   5.1228747410e+01    0.6467571    0.3952895 -20.15  0.002536014    2.413    0.586
        52 -11.1965     35.4128    102.8558   5.8634981703e+01   5.2596349021e+01    0.3146198    0.2280723 -11.31 6.359962e-05    1.659    0.397
        53 -11.1854     17.2040    100.4793   6.6164301230e+01   5.4952195766e+01     0.261252    0.1883257 -71.76 0.0007635963    1.290    0.225
        54 -11.2940      8.2892     95.9646   6.9538647812e+01   5.6785146489e+01    0.3289864    0.2655084 -42.89  0.001831811    1.234    0.190
        55 -11.7644    210.4067     98.1448   9.6920509015e+00   2.0222999703e+01     0.210658    0.1922194 -43.22   0.00026072    1.081    0.075
        56 -11.8657    247.6028     95.3855   4.7222585528e+00   1.4453475527e+01    0.4263926    0.2588891  -7.21  0.002183699    2.832    0.647
        57 -11.6089     22.2627    114.0452   6.5943198762e+01   5.0839117442e+01    0.5304735    0.3074699  -0.60  0.002025669    2.180    0.541
        58 -10.8535     79.0387     93.0548   3.8666294252e+01   4.8489190399e+01     0.627863    0.2359635 -53.01  0.002077244    2.719    0.632
        59 -11.6373     67.7951     94.8183   4.3392921283e+01   5.0090952696e+01    0.3869376    0.3007371  42.03  0.001228186    1.288    0.224
        60 -11.5325     22.6388     94.5826   6.2766957070e+01   5.6101276490e+01    0.4905308    0.2669143 -29.30  0.002030044    2.255    0.556
        61 -10.0899     42.9737     94.5002   5.3606629842e+01   5.3921077792e+01    0.2239422    0.1480081  26.24 0.0006633003    1.556    0.357
        62 -10.0619     35.7106     92.6251   5.6419016826e+01   5.5300301218e+01    0.2492307    0.1753027  85.17 0.0006032081    1.707    0.414
        63 -10.2344    240.6489     91.3181   4.6269121436e+00   1.6090673253e+01    0.1221118   0.07610843 -57.60 0.0007047537    1.739    0.425
        64 -10.4252     98.2599     90.7810   3.1452974734e+01   4.5152243579e+01    0.2448513    0.2046547  57.14 0.0004028878    1.232    0.188
        65 -10.0407     43.9022     90.4914   5.2248801879e+01   5.4849234170e+01    0.2147899    0.1884085 -58.61 0.0002850954    1.110    0.099
        66 -11.9206     18.4961     87.8861   6.3522573342e+01   5.8246680189e+01    0.5914537    0.3727426 -75.79  0.002820685    1.559    0.359
        67  -9.7601     38.9084     90.2994   5.4447369651e+01   5.5534656619e+01    0.2008601     0.188657  -5.62 0.0003911395    1.102    0.093
        68 -11.6675      5.9264     88.4236   6.9652532886e+01   5.8949166894e+01    0.6452733    0.3723708  10.95   0.00297557    1.897    0.473
        69 -11.5936     27.7871     84.9164   5.8446166839e+01   5.8192874442e+01    0.4801927    0.3893693 -23.33  0.001464051    1.305    0.234
        70  -9.1570     52.2946     86.7002   4.7571617731e+01   5.4635290653e+01    0.1510546    0.1165003  68.57 0.0002243175    1.570    0.363
        71 -10.9948     45.2342     84.3426   5.0085972430e+01   5.6252868614e+01     0.346772    0.2886852 -55.24  0.001543305    1.170    0.145
        72 -12.4725     60.8221     83.4003   4.2984319724e+01   5.4093969422e+01    0.3177097     0.281931  39.45 0.0003692453    1.131    0.116
        73 -11.0894      2.5064     80.6695   7.0285477047e+01   6.1186816684e+01    0.6261905    0.2548985  81.84  0.002215361    3.330    0.700
        74 -11.4713      2.1107     71.1044   6.9085290961e+01   6.3712869461e+01      0.82491    0.1997639 -71.53   0.00274189    3.402    0.706
        75 -11.9925     15.0153     56.5804   5.8463305676e+01   6.6578679860e+01     1.255404    0.6273291  -1.97   0.00381685    2.528    0.604
        76 -11.9076      7.5878     63.2907   6.4546230919e+01   6.5430941883e+01    0.3188828    0.2070114 -48.63 0.0005491218    1.379    0.275
        77 -12.6153      4.2273     61.0437   6.6078590817e+01   6.6188626211e+01     0.336772    0.2891653 -38.52  0.000363484    1.078    0.072
        78  -9.8690    113.1659     82.1760   2.4410175217e+01   4.3712671492e+01    0.2157549    0.1828268 -81.33 0.0007181384    1.332    0.249
        79  -9.5968    197.0172     81.0022   7.5602479214e+00   2.5392338148e+01    0.1544294    0.1401727 -55.21 0.0004371628    1.058    0.055
        80  -9.9942    162.3152     81.1284   1.3030173614e+01   3.2694529108e+01    0.1944267    0.1649399 -49.87 0.0003356436    1.102    0.092
        81 -10.9860     76.1819     79.5903   3.5664751527e+01   5.2191125519e+01    0.7389461    0.4711521  62.19  0.003013455    2.086    0.521
        82 -10.0996     77.5275     76.0093   3.3994165033e+01   5.2731424632e+01    0.3223909    0.2559656  89.09 0.0005940921    1.634    0.388
        83 -10.0592     67.8154     80.8283   3.9326939267e+01   5.3484959946e+01    0.2399183     0.210489 -13.16 0.0008669532    1.258    0.205
        84 -12.4222    247.5023     76.2766   9.0930159301e-01   1.7015131138e+01    0.3537309    0.2621983 -64.26  0.002452259    1.411    0.291
        85  -9.3475    119.0000     78.0087   2.1551440126e+01   4.3202799388e+01    0.2379686   0.08633725 -41.06 0.0003880476    2.767    0.639
        86 -10.2718     89.0239     77.1765   3.0259061846e+01   5.0096598925e+01    0.3673242    0.1950362  50.70  0.001440105    1.951    0.487
        87  -9.4070    158.7579     75.9455   1.2261419711e+01   3.4371223312e+01    0.1760044    0.1165092 -37.28 0.0002810715    1.460    0.315
        88 -10.4689     94.8737     75.5846   2.7793813744e+01   4.9166585071e+01    0.3183573    0.2545332  60.08 0.0008836637    1.306    0.234
        89 -10.3190     53.4675     75.8409   4.3898406186e+01   5.7134972163e+01    0.2799806    0.2188231  31.13   0.00139514    1.285    0.222
        90 -11.6450     27.2761     73.4924   5.6017631142e+01   6.1206336150e+01    0.4145444     0.274618  -2.74  0.001120468    1.775    0.437
        91 -11.1250     14.1956     74.4236   6.3141604881e+01   6.2128668731e+01    0.3069753    0.2466592 -68.17  0.001698856    1.180    0.153
        92 -10.7442     35.4370     71.5360   5.1275781583e+01   6.0764719057e+01     0.448485    0.2121169  37.31  0.001542269    2.143    0.533
        93 -10.5851     40.6642     72.7860   4.9017527426e+01   5.9775760228e+01     0.364107     0.268993   9.37  0.001092707    1.504    0.335
        94 -10.7379     40.3277     68.8363   4.7988266076e+01   6.0786684455e+01    0.3033581    0.2256239  31.59 0.0008432559    1.355    0.262
        95  -9.7714     80.4254     71.7204   3.1475142004e+01   5.3077916138e+01    0.2288371     0.144551 -35.31 0.0009696073    1.768    0.434
        96 -11.1002    122.7610     68.3276   1.7548550882e+01   4.4132210313e+01    0.3817606    0.2376667  48.48  0.001005249    1.617    0.382
        97 -10.0843     12.8515     67.6434   6.2454016770e+01   6.3974825070e+01     0.438641    0.1938717  -5.91  0.001625163    3.137    0.681
        98 -10.2222    102.0979     66.8564   2.2614772740e+01   4.9280221068e+01    0.2187424    0.2007302 -89.91  0.000268517    1.138    0.121
        99 -10.3509    202.2145     63.4388   2.7108043174e+00   2.6930540115e+01    0.2436612    0.1593596 -37.75 0.0008212131    1.339    0.253
       100 -10.0423    105.7411     63.4275   2.0378476907e+01   4.9072026774e+01    0.2105338    0.1395484  43.57 0.0009070166    1.542    0.352
       101 -10.6785     92.6419     62.5772   2.4034314798e+01   5.2273273017e+01    0.3458887    0.2556728  69.17  0.001013822    1.565    0.361
       102 -11.5299     43.1457     60.4128   4.3757951408e+01   6.2368223637e+01      0.44202    0.2859932 -54.90 0.0007741754    1.568    0.362
       103 -11.4479     46.4693     59.4761   4.1734774129e+01   6.2067461121e+01    0.7353403    0.2677312  45.70  0.002422486    3.343    0.701
       104 -11.6247     39.4460     56.6331   4.4342052749e+01   6.3776340941e+01    0.3039848    0.2409894  28.87 0.0004942294    1.255    0.203
       105  -9.9375    159.4069     62.5449   8.3968260101e+00   3.6395123377e+01    0.2413391    0.1203324  49.72 0.0008216146    2.193    0.544
       106  -9.6898    113.4811     60.5029   1.7282141292e+01   4.7749914071e+01    0.1489524    0.1436119  74.92 1.094834e-05    1.017    0.016
       107 -10.5900     26.1840     59.3710   5.2651060729e+01   6.4827358905e+01    0.3135322    0.1977499  23.53  0.001523391    1.609    0.379
       108 -11.2021     25.2990     55.7623   5.2020647026e+01   6.5787220103e+01    0.3689385    0.2149182 -36.79  0.001071805    1.758    0.431
       109 -11.5128     75.3247     54.5671   2.7079155983e+01   5.7647173006e+01    0.6798199    0.3260684 -47.46  0.002666403    2.241    0.554
       110  -9.6383    106.5078     58.4623   1.8427876264e+01   4.9784697305e+01     0.150524    0.1421497  83.05 9.145994e-05    1.045    0.043
       111 -10.6470    124.6595     56.4675   1.3229255394e+01   4.5713803748e+01    0.2359641    0.1855368  -4.40  0.001019976    1.702    0.413
       112 -11.4750     72.5933     46.2164   2.4712885925e+01   5.9785160264e+01    0.6342233    0.3371733 -53.00  0.002546971    2.370    0.578
       113 -10.8870     31.3855     53.0438   4.7528032977e+01   6.5695509330e+01    0.4220638    0.2584605   1.98  0.001867304    2.111    0.526
       114  -9.2163      3.3120     54.3174   6.5229483403e+01   6.7918801244e+01    0.1466709   0.08284663 -38.83 0.0004523301    1.643    0.391
       115 -10.1015    156.7710     53.6194   6.2578402958e+00   3.8366997969e+01    0.1951904    0.1293111  80.51 0.0007836699    1.643    0.391
       116 -10.5993     60.0321     50.8815   3.1907856268e+01   6.1494684966e+01    0.5081517    0.2551801 -60.26  0.001786481    3.244    0.692
       117 -10.1001     61.7173     46.2833   2.9218143187e+01   6.2051567274e+01    0.3770819    0.2058094 -19.82  0.001304353    3.430    0.708
       118 -10.9634    243.7047     51.1313   3.5611390460e+02   2.0822695868e+01    0.1768323    0.1303298 -65.17 0.0003048386    1.280    0.219
       119 -12.1307    119.8544     37.5752   7.7303582716e+00   4.9760868904e+01    0.5540838    0.3179284 -47.27  0.001733556    1.805    0.446
       120 -10.2993    112.5729     50.2149   1.3911526661e+01   4.9698043418e+01    0.2925083    0.2623768  39.94    0.0008067    1.187    0.157
       121 -11.5002    116.8279     47.7770   1.2029945291e+01   4.9029401000e+01    0.4215307    0.3501554  41.89  0.001296454    1.290    0.225
       122 -11.1009    116.5848     43.2430   1.0467802011e+01   4.9774783826e+01    0.3017991     0.261352  25.52 0.0009925982    1.359    0.264
       123  -9.9829    155.3315     48.7785   5.0628357164e+00   3.9411447069e+01     0.190078    0.1299089 -24.68 0.0004676146    1.670    0.401
       124 -10.0863     82.7958     47.4500   2.1516174717e+01   5.7288335566e+01    0.3427657    0.2110386 -16.31  0.001375353    2.483    0.597
       125  -9.8258      2.1671     48.6280   6.4671005279e+01   6.9372414457e+01    0.1804569     0.115258 -11.03  0.000771662    1.617    0.382
       126 -12.2585     41.4509     44.1461   3.8274678088e+01   6.6166397320e+01    0.8302517    0.3340893  34.35  0.002164167    2.467    0.595
       127 -10.6340     20.6411     45.7649   5.1470935588e+01   6.8612662749e+01    0.2546204    0.2204392 -15.63 0.0005893643    1.087    0.080
       128 -11.5019     25.9313     42.4484   4.6783882212e+01   6.8746294521e+01    0.3909155    0.2955097  45.19  0.001371556    1.523    0.343
       129 -10.4262     23.4772     37.1277   4.6153160934e+01   7.0189011255e+01    0.3971723    0.1916333  43.24  0.001633651    2.486    0.598
       130 -10.3350     13.7927     45.9938   5.6073784390e+01   6.9213357947e+01    0.3594837    0.1535498 -27.52  0.001321247    3.154    0.683
       131 -10.6987     18.1840     40.5907   5.1171693883e+01   7.0032845640e+01    0.2833072    0.1784939 -39.65  0.001049868    1.496    0.332
       132  -9.8207    138.9915     43.8098   6.2208654912e+00   4.4099627138e+01    0.2376451    0.1522673  37.61   0.00107663    2.022    0.506
       133  -9.7435    155.8673     42.2178   3.0379521528e+00   4.0192191400e+01    0.1817703    0.1650425  30.09  0.000973823    1.355    0.262
       134 -10.8378    110.4621     39.7505   1.0587279054e+01   5.1816865061e+01    0.4831025    0.2738236 -24.97  0.002082101    2.108    0.526
       135 -10.2353     57.0199     41.8761   2.9384139686e+01   6.3806121259e+01    0.2155448    0.1937026  66.97  0.000791083    1.281    0.219
       136 -11.1766      4.0581     37.2646   6.0172678753e+01   7.1956397794e+01      0.52059     0.359208 -78.80  0.002272982    1.675    0.403
       137 -10.2959    249.9804     38.9829   3.5322902808e+02   2.1199083425e+01    0.1704134    0.1233886 -50.50 0.0003521944    1.034    0.033
       138 -10.8278     78.7106     37.3467   1.8638787801e+01   5.9897506763e+01    0.4605762    0.2905607 -81.70  0.001734485    3.142    0.682
       139 -11.2114     79.2968     33.1762   1.6582791754e+01   6.0395818878e+01    0.5791035     0.352984  24.59  0.002428797    2.364    0.577
       140 -10.0696     60.5358     36.5185   2.5322457836e+01   6.4042874306e+01    0.2554877    0.1388319 -43.49  0.001031909    1.976    0.494
       141 -10.2627     62.0908     33.4548   2.3188974089e+01   6.4223387624e+01    0.2775105    0.2168788  29.57 0.0004734219    1.290    0.225
       142 -10.5831    153.3046     35.8462   1.4909657506e+00   4.1649269483e+01    0.2463744    0.1881751  71.58 0.0006838917    1.267    0.211
       143 -10.5816    175.3330     34.3143   3.5832485489e+02   3.6623422135e+01    0.2867378    0.1736225 -62.77 0.0007184185    1.617    0.382
       144 -11.8488    107.3368     31.0743   7.9879560684e+00   5.3796219734e+01    0.6662365    0.3706707  37.79  0.002807816    2.254    0.556
       145 -10.3999    219.4652    248.4825   3.5501501961e+01  -2.7872183880e+00    0.1075405   0.07392321  -1.87 0.0001350952    1.029    0.028
       146 -12.6611    105.6806     20.0237   3.9550828668e+00   5.5555205859e+01     0.359797    0.2875836 -79.04 0.0004193437    1.292    0.226
       147 -10.8081    240.2494     32.4909   3.5251998587e+02   2.3615644534e+01    0.2377876    0.1610573  11.11  0.001305078    3.077    0.675
       148  -9.6305    217.2155     31.9749   3.5396718530e+02   2.7968534839e+01    0.1553115   0.08158941 -35.62 0.0003105842    1.616    0.381
       149 -10.3620    150.0000    247.9592   4.8140274988e+01   4.6255143845e+00    0.1629761   0.06532621 -47.88 0.0008042892    2.955    0.662
       150 -10.6694     10.4618     30.2391   5.2636087714e+01   7.3037430920e+01     0.303813    0.2461899 -25.61  0.001850373    1.104    0.095
       151 -10.1655    177.4343     29.6941   3.5685174579e+02   3.6699381380e+01    0.2532995    0.1070473 -35.97   0.00114101    2.086    0.521
       152 -10.6622    169.3493     23.0806   3.5585506040e+02   3.9334604698e+01    0.2676513    0.1779279  72.38 0.0008652412    1.461    0.316
       153 -11.4361    157.2428     28.9710   3.5890945472e+02   4.1541744372e+01    0.2920837    0.2082553 -71.38 0.0006853847    1.350    0.259
       154 -12.7497    164.7548     27.2820   3.5753371997e+02   3.9939297833e+01    0.3930087    0.3147585  88.27 0.0004817531    1.163    0.140
       155 -12.3408    127.3256     28.4897   3.1025072194e+00   4.9045299907e+01    0.6534392    0.3661751  77.33  0.001614974    1.820    0.450
       156 -11.8480     26.7323     27.4457   3.9297391235e+01   7.1699892602e+01    0.4572513    0.3854954 -44.05  0.001601696    1.268    0.212
       157 -10.6965    189.1600     27.0370   3.5504441423e+02   3.4379520329e+01    0.3178234    0.2227264  39.59  0.001773184    2.024    0.506
       158 -11.0004    183.5140     26.5174   3.5541923481e+02   3.5692875413e+01    0.3712691    0.1503771 -44.74  0.001429767    2.072    0.517
       159 -11.2841    230.2702     26.6098   3.5190574325e+02   2.6084714483e+01     0.203085    0.1891439  79.09 0.0009172052    1.370    0.270
       160 -10.8332    150.1400     27.3581   3.5932049219e+02   4.3466047490e+01    0.3123527     0.135631  59.03  0.001335478    2.207    0.547
       161 -11.3987    142.9536     25.2895   3.5962948086e+02   4.5487640825e+01    0.3755601    0.1699035  77.28  0.001554323    2.280    0.561
       162 -11.9059    148.7174     22.3884   3.5795779288e+02   4.4386469126e+01    0.5167736     0.183475  69.24  0.002034703    2.580    0.612
       163 -10.8159     46.4317     24.0402   2.5633095190e+01   6.8922988244e+01    0.3518734    0.2270002  25.87 0.0008094842    1.701    0.412
       164 -10.4986     46.7820     19.7460   2.3025279703e+01   6.9501771082e+01    0.2524807    0.2338738 -30.21 0.0007107774    1.195    0.163
       165 -10.5939    131.7737    240.5978   5.1010105378e+01   7.8990889934e+00    0.1728061   0.09225217  33.91 0.0005687957    1.584    0.369
       166  -9.7894     86.0641     23.6626   1.0205154275e+01   6.0060495157e+01     0.196529    0.1608056  56.98 0.0002577039    1.112    0.101
       167 -11.5206     48.8627     30.0035   2.7582885773e+01   6.7485291219e+01    0.6759663    0.2390314  40.39  0.002154066    2.768    0.639
       168 -11.0651    134.3210     22.2214   3.5983831239e+02   4.8004619143e+01    0.3073811    0.2356128  82.83  0.001249988    1.202    0.168
       169  -9.9497     13.7639     22.7987   4.6503778529e+01   7.4245227623e+01    0.1676662     0.144018  35.49 0.0005718562    1.334    0.250
       170 -11.4134    179.2147     20.5935   3.5424388159e+02   3.7328707371e+01    0.5386161    0.2258939  47.09   0.00214437    3.613    0.723
       171 -10.8931     68.6391     20.3795   1.4104252503e+01   6.4651451954e+01    0.3684618    0.2716191 -43.65    0.0019416    1.522    0.343
       172  -9.7749     53.4205     21.7890   2.0990436481e+01   6.7841523743e+01     0.185198    0.1299982 -15.01 0.0009439368    1.662    0.398
       173  -9.7062    218.6772    231.6689   3.3226282424e+01  -6.9170444585e-01    0.1159623   0.06479178  -6.15 0.0007049883    1.700    0.412
       174 -11.5569      8.7738     19.7762   4.9120069963e+01   7.5359699436e+01    0.3891312    0.2282966 -13.78 0.0003473744    1.913    0.477
       175 -11.0062    247.9153    222.8010   2.7337190345e+01  -2.4728262486e+00     0.256118    0.2054238 -15.06  0.002120864    1.379    0.275
       176 -10.1110      8.6837    211.3247   7.7565670356e+01   2.7347861551e+01    0.1373009   0.06782871  53.12 0.0007043707    1.669    0.401
       177 -10.8710    248.7074     21.4186   3.4981167483e+02   2.3358495850e+01    0.1873148   0.09634742  88.80  0.001151736    2.147    0.534
       178  -9.3521    171.4932    208.4954   3.8253299273e+01   8.0593968905e+00    0.1263084    0.1028001   1.55 -2.332044e-05    1.015    0.015
       179  -9.7875     74.9659     19.0487   1.1318755605e+01   6.3322095108e+01    0.2289963     0.152384  30.68 0.0007483641    1.703    0.413
       180  -9.8756    232.5886    190.2528   2.4432700655e+01   3.2020895073e+00    0.1613847   0.08491816 -25.79 0.0009411678    1.610    0.379
       181 -11.5254      6.1317    185.8660   7.7160786926e+01   3.3365634461e+01    0.3836142    0.2159988  33.07  0.002031314    1.570    0.363
       182  -9.8062     89.4795     16.4753   6.0535283070e+00   6.0050059408e+01    0.2507674    0.1235148  62.65  0.001098162    1.798    0.444
       183 -11.5046      2.9941    182.2006   7.7858805649e+01   3.4479099540e+01    0.4547037    0.1749587 -58.36  0.001919325    2.872    0.652
       184 -10.4429     15.8582    173.8397   7.3770079769e+01   3.5518800970e+01    0.2025234    0.1357198  57.27 0.0009358908    1.345    0.256
       185 -11.6683      8.8300    166.8191   7.5422261527e+01   3.7840679534e+01    0.2837689    0.1954721  22.78  0.001161304    1.487    0.327
       186 -10.9655    228.5371     15.4923   3.4963539599e+02   2.7607254325e+01     0.217823    0.1430939 -56.47 0.0005209346    1.175    0.149
       187 -10.3004     18.3119    165.3221   7.2458892333e+01   3.7460427938e+01     0.136531   0.09831793 -41.32 0.0004729564    1.653    0.395
       188 -10.1455    205.1718    163.1773   2.4001428847e+01   1.0710385960e+01    0.1636031    0.1425496 -41.87  0.001045557    1.335    0.251
       189 -10.4492    186.6595     14.9942   3.5217227071e+02   3.6252241418e+01     0.178016    0.1369369 -48.88 0.0005296001    1.148    0.129
       190 -12.4208     13.2630    160.0905   7.3647024237e+01   3.9216962948e+01    0.4981188    0.3399281 -43.44  0.002546652    1.718    0.418
       191 -11.9529     21.3036    150.3395   7.0301929004e+01   4.1099993562e+01    0.5291273    0.3180802 -29.41 0.0005527703    2.209    0.547
       192 -11.2501     24.0090    148.0129   6.9186432219e+01   4.1477699026e+01    0.3180253    0.2607203 -56.32  0.000674704    1.276    0.216
       193  -9.7639    240.5166    152.5019   1.6592598117e+01   7.4676916231e+00    0.1170369   0.09079003 -25.48 0.0008101984    1.036    0.034
       194  -9.7767     55.6860    152.6699   5.9275244771e+01   3.6776862442e+01    0.1517502     0.110447 -30.73 0.0004574058    1.676    0.403
       195  -9.6152     93.6652     15.7162   4.7253310775e+00   5.9077789390e+01    0.1445776   0.09484831  40.44 0.0002703266    1.620    0.383
       196 -10.4424     45.1643    149.7492   6.2321521113e+01   3.8830362244e+01    0.2731879    0.2510045 -50.35  0.001530262    1.165    0.142
       197  -9.3707    104.4392    147.4934   4.3393597678e+01   3.0626784929e+01    0.1499992    0.1440944  54.69  0.000177565    1.065    0.061
       198 -10.1027     16.5153    147.4755   7.1644632036e+01   4.2258923184e+01    0.1387162    0.1268293  76.40 8.631516e-05    1.015    0.015
       199 -10.6911     47.8805    145.3843   6.0828092066e+01   3.9663090075e+01    0.3894414    0.1682019  30.11  0.001508292    2.172    0.540
       200 -10.6680     32.9358    143.9280   6.5726627029e+01   4.1713669689e+01    0.2668838    0.2236992 -82.68 0.0007601525    1.153    0.132
       201 -11.9501      3.3854    142.0363   7.5653054168e+01   4.4640813213e+01    0.5034384    0.3188596  28.87  0.002004236    1.578    0.366
       202  -9.2310    105.4576    142.5226   4.2097362815e+01   3.1624247880e+01    0.1501182    0.1467342  35.43 0.0001483339    1.015    0.015
       203  -9.5135     40.3196    141.3198   6.2858162667e+01   4.1625868962e+01    0.2090105    0.1370393 -85.73 0.0008418198    1.603    0.376
       204 -10.9060     40.5587    137.8767   6.2309965409e+01   4.2523874352e+01    0.3217782    0.2491604  52.51 0.0004880887    1.272    0.214
       205 -11.6889     22.8451    137.9400   6.8576229548e+01   4.4279620382e+01    0.5513858    0.3244538 -43.08  0.002505035    1.922    0.480
       206 -10.6606     20.3081    134.0031   6.9070459862e+01   4.5561452522e+01    0.2620006    0.2433711 -48.73  0.001099775    1.153    0.133
       207 -12.1365     12.3964    135.3917   7.2035199382e+01   4.5805761646e+01     0.556469    0.2634675 -49.64  0.002349787    2.234    0.552
       208  -9.2609     26.6797    127.2846   6.5955070906e+01   4.6825495664e+01    0.1526813   0.09936313  57.18 0.0002086879    1.592    0.372
       209 -11.0110     11.2038    125.3344   7.1561178709e+01   4.8611027664e+01    0.4646379    0.2277641 -53.42  0.001601373    2.002    0.500
       210 -10.6241     30.2906    132.6487   6.5296638016e+01   4.5020577924e+01    0.2961635    0.2174431 -36.13 0.0008327815    1.547    0.354
       211  -9.9471      1.8020    124.8017   7.5034638948e+01   4.9339943311e+01    0.2021503    0.1444663  63.55  0.001072434    1.350    0.259
       212 -12.4051    245.9778    120.1916   9.7725797930e+00   1.1271823909e+01    0.5716652    0.2296398 -43.98  0.002837623    2.190    0.543
       213 -10.6341    104.5412    122.5333   3.7941095502e+01   3.6534184088e+01    0.2976083    0.2785969  36.78  0.001099112    1.062    0.058
       214  -9.5845    218.3330    116.3126   1.2529335140e+01   1.6064219499e+01    0.1244067   0.09141441  -4.20 0.0003942176    1.680    0.405
       215  -9.8017     43.3758    116.1384   5.7839928798e+01   4.8078318135e+01    0.2218904    0.1398337 -83.51 0.0009504628    1.790    0.441
