#   1 NUMBER                 Running object number                                     
#   2 MAG_AUTO               Kron-like elliptical aperture magnitude                    [mag]
#   3 X_IMAGE                Object position along x                                    [pixel]
#   4 Y_IMAGE                Object position along y                                    [pixel]
#   5 X_WORLD                Barycenter position along world x axis                     [deg]
#   6 Y_WORLD                Barycenter position along world y axis                     [deg]
#   7 A_WORLD                Profile RMS along major axis (world units)                 [deg]
#   8 B_WORLD                Profile RMS along minor axis (world units)                 [deg]
#   9 THETA_WORLD            Position angle (CCW/world-x)                               [deg]
#  10 FWHM_WORLD             FWHM assuming a gaussian core                              [deg]
#  11 ELONGATION             A_IMAGE/B_IMAGE                                           
#  12 ELLIPTICITY            1 - B_IMAGE/A_IMAGE                                       
         1 -12.7343     10.7319     49.5286   9.5221294487e+01   6.5928541733e+01      1.61769    0.4777117 -44.85  0.007009044    2.511    0.602
         2 -13.4277     37.5678     49.9703   8.2517386568e+01   6.3287114518e+01     1.020645    0.7492679 -45.88  0.006030872    1.446    0.309
         3 -10.7473     16.0365      6.3793   7.4555463023e+01   7.2501119693e+01    0.4598878    0.2341375 -35.05  0.002726544    1.948    0.487
         4 -10.8263     12.1011      2.2263   7.4631880467e+01   7.3458274591e+01    0.2623154    0.1487262   3.34  0.001039407    1.679    0.404
         5 -10.1150     32.6190      1.4588   6.3271592018e+01   7.0842417717e+01    0.2324917   0.09695742  42.36  0.001203745    2.173    0.540
         6 -10.9747     14.7075     22.6619   8.3140610112e+01   7.0354638719e+01    0.4446563    0.1712254 -30.27   0.00205893    2.626    0.619
         7 -11.5882     21.8718      5.5524   7.0881052915e+01   7.1894147367e+01    0.8602967    0.4248726 -41.68  0.004636985    2.711    0.631
         8 -11.0161     26.6630      2.6174   6.6810271000e+01   7.1585162340e+01    0.2900327     0.181726  39.02  0.001278097    1.645    0.392
         9 -11.8404     22.7559     25.6543   8.0094250837e+01   6.9062314413e+01    0.4668546    0.2540976 -24.47  0.002599007    1.728    0.421
        10 -11.2226     20.0130     17.2252   7.7731593537e+01   7.0606789869e+01    0.4102916    0.3382459  33.75  0.002860806    1.661    0.398
        11 -12.3182    128.8732     18.9532   4.2124399573e+01   4.9858461212e+01     0.270568    0.2365834  14.74 0.0004292213    1.319    0.242
        12 -11.2065     99.1220     22.4867   4.9658954830e+01   5.6249790105e+01    0.5139285    0.2725563  41.70  0.002302988    1.725    0.420
        13 -11.7976      7.8938      9.0878   8.0753911432e+01   7.3000133508e+01     0.439483    0.2761813  13.40  0.001947679    1.383    0.277
        14 -12.1458      4.6327     18.1241   8.6969168046e+01   7.1947483359e+01    0.4106795    0.3738024  43.55   0.00212445    1.861    0.463
        15 -10.7177      9.5610     16.0577   8.3110299863e+01   7.1842354923e+01    0.2860641    0.1574583 -12.97  0.001367607    1.746    0.427
        16 -10.7154     33.5368     16.3320   7.0330851807e+01   6.9025379811e+01    0.4237892    0.2083354  17.00  0.001636027    2.408    0.585
        17 -11.4533     48.3559     15.4699   6.3246755230e+01   6.6876976245e+01    0.6969796    0.4194932  26.48  0.003509594    1.476    0.322
        18 -10.8641     39.8392     11.1144   6.4852258862e+01   6.8724276223e+01    0.2990145     0.211182  40.44 0.0006521982    1.479    0.324
        19 -11.2319     40.1087     15.4749   6.6835798611e+01   6.8177894887e+01    0.2701377    0.2118603  15.72  0.000688026    1.055    0.052
        20 -10.4373     43.2664      8.1410   6.1889350767e+01   6.8502843506e+01    0.2597841    0.2359818  78.10  0.001775284    1.916    0.478
        21 -10.6308     70.6369     13.7009   5.4267238995e+01   6.3043030467e+01    0.3425997    0.2278452  11.65  0.001772503    1.598    0.374
        22 -11.4102     77.8965     11.1111   5.0958968907e+01   6.1841199797e+01    0.4476993     0.196099  52.17  0.001014474    1.903    0.474
        23 -11.4130    157.2538     12.2291   3.5841194670e+01   4.3886657441e+01    0.3922161    0.1642704 -46.80  0.001795413    2.579    0.612
        24 -12.4115    128.5675     11.3477   3.9795527344e+01   5.0637374405e+01    0.3757903    0.2664144  87.15 0.0007427002    1.489    0.328
        25 -10.6410    118.1458     11.6978   4.1753899080e+01   5.3007681058e+01      0.44924    0.2429617 -22.67  0.002094765    2.171    0.539
        26  -9.9147     99.1676     13.0675   4.6192260642e+01   5.7153831975e+01    0.3712883      0.20134  39.55   0.00190924    1.735    0.423
        27  -9.9885    138.0722     11.0686   3.8193343048e+01   4.8454722572e+01    0.1960921    0.1362484 -73.66 0.0004548393    1.633    0.388
        28 -10.6187    241.0074      9.8491   2.7668948882e+01   2.6156246318e+01    0.1692358    0.1263266 -71.44 0.0004407838    1.020    0.020
        29 -10.7065    178.1782      9.8965   3.2824648527e+01   3.9316829419e+01    0.2640138    0.1457912  64.79  0.000953317    1.602    0.376
        30 -10.8324    164.1070      9.1064   3.4177810934e+01   4.2596139142e+01     0.228091    0.2093934 -66.18 0.0003283045    1.168    0.144
        31 -10.3218    164.5627      5.5218   3.3202666161e+01   4.2816303823e+01     0.201189    0.1577597 -59.49 0.0005689319    1.284    0.221
        32 -12.6578    213.7982      5.7792   2.8760467986e+01   3.1995725531e+01    0.7569515    0.3963235 -79.54  0.004276174    1.822    0.451
        33 -11.2658    146.1892      6.9773   3.5847726395e+01   4.6926440017e+01     0.397233    0.2219831  46.52  0.001668153    1.845    0.458
        34 -11.5086    148.4142      2.4170   3.4285012090e+01   4.6793436209e+01    0.4419005    0.2891138  83.65   0.00200055    1.393    0.282
        35 -10.2232    246.4398      8.4930   2.7080444411e+01   2.5277047340e+01    0.1098358   0.08246188 -68.70 0.0001209112    1.018    0.017
        36 -11.1854    190.2611      6.7812   3.0917179122e+01   3.6925882539e+01     0.385088    0.2749592  83.63  0.002495473    1.189    0.159
        37 -11.0129     89.8185      6.9643   4.6118622871e+01   5.9705667081e+01    0.6095304    0.1388558  52.22  0.002326547    3.000    0.667
        38 -10.4120    156.2251      6.3262   3.4384933596e+01   4.4660873265e+01    0.2126611    0.1650687  48.45 0.0004105423    1.373    0.272
        39 -10.4910     72.3762      5.4365   5.0192496384e+01   6.3447000469e+01    0.2815925    0.2210056 -86.74 0.0009291237    1.979    0.495
        40 -10.1585     74.1598      2.2113   4.8300821457e+01   6.3346688283e+01    0.2261401    0.1784652  75.41 0.0009021548    1.587    0.370
        41  -9.8705     35.7606      6.8755   6.4604859172e+01   6.9810266343e+01    0.3197412    0.1049885  30.89  0.001286239    3.384    0.705
        42  -9.6391     81.5697      5.7574   4.7743615860e+01   6.1545501754e+01    0.1479449    0.1141757 -31.52 0.0004655487    1.553    0.356
        43 -10.8390     98.0890      3.6696   4.2977532937e+01   5.8169336154e+01    0.3097543    0.2231231  18.19  0.001901538    1.533    0.348
        44 -11.1014    223.4950      3.7415   2.7661499159e+01   3.0222327136e+01    0.2763803    0.1595765  57.53 0.0009662472    2.031    0.508
        45 -10.8136     67.8055      3.8172   5.0872950151e+01   6.4484349587e+01    0.2304308    0.1497132  46.09 0.0009192611    1.263    0.208
        46 -10.8948    243.0394      2.9984   2.6288689399e+01   2.6492838448e+01    0.1709068     0.125402 -68.83 0.0005787222    1.017    0.017
        47 -11.1653    194.4638      2.0208   2.9484370210e+01   3.6459674011e+01    0.3519646    0.1550246 -86.16  0.001673059    2.455    0.593
        48 -10.3010    126.4008      2.7801   3.7473339811e+01   5.1845086777e+01    0.2237351    0.1488806  38.27 0.0005034918    1.588    0.370
        49 -10.4775    237.2311      2.3775   2.6521018009e+01   2.7661356121e+01    0.1573175   0.08285803 -86.34 0.0009553559    1.698    0.411
        50 -10.3003    230.9374      1.4570   2.6736383322e+01   2.8975363122e+01     0.154947   0.09104752  81.57 0.0003478484    1.507    0.337
        51  -9.4924    108.1861      1.3878   4.0135168484e+01   5.6094556268e+01    0.1627516    0.1040249  73.18 0.0002769329    1.492    0.330
        52 -11.7461    178.9958      4.1627   3.1364779223e+01   3.9670675406e+01    0.2168195    0.1840746 -78.42 0.0002992241    1.078    0.072
        53  -9.9515      4.7122    168.9943   1.1714743635e+02   3.7943396527e+01    0.1819379    0.1409657 -82.73 0.0004894575    1.069    0.064
        54  -9.5325    239.6746    250.6749   7.4606523473e+01  -1.0442174818e+01    0.1230349   0.07022581  -5.62  0.000704894    1.691    0.409
        55 -12.4732    226.6660    245.2131   7.6058969159e+01  -8.1887243282e+00    0.6857213    0.3466459  -5.27  0.003223545    2.690    0.628
        56 -12.1872    232.5102    245.0247   7.4964556839e+01  -8.8538169955e+00     0.575595     0.194799 -32.69  0.002593271    2.834    0.647
        57 -11.5460     89.0255    249.5235   1.0516046440e+02   1.0078759758e+01    0.3033958      0.22893  36.20 0.0007763741    1.175    0.149
        58 -10.1969     72.6107    250.1374   1.0870631627e+02   1.2133631751e+01    0.2055181    0.1667185  -1.53   0.00126612    1.691    0.409
        59 -11.7471      4.8833    236.0714   1.2147543387e+02   2.2567926403e+01    0.4177908     0.323915  48.03  0.002576825    1.244    0.196
        60 -13.6501      5.8604    245.1503   1.2174003847e+02   2.0623367949e+01     1.334872     0.889521  11.01  0.007534225    2.339    0.572
        61 -12.8928     22.0377    248.9447   1.1886012265e+02   1.8271075944e+01    0.8898457    0.3783023  28.18  0.004228418    2.533    0.605
        62 -11.2119     17.2621    247.4067   1.1969183849e+02   1.9064978386e+01    0.2707866    0.1631755  47.35 0.0005894375    1.378    0.275
        63  -9.4756     99.1810    164.8304   9.0539705241e+01   2.7761479426e+01    0.2032442    0.1763306 -20.13 0.0003607239    1.277    0.217
        64  -9.3226    111.5393    164.4989   8.7086050859e+01   2.5743455716e+01    0.1515344    0.1491773 -32.92 0.0001688607    1.005    0.005
        65 -12.8067     21.2083    157.3888   1.1160040458e+02   3.9560943780e+01    0.6279467     0.479443   0.70 0.0008521706    1.670    0.401
        66 -10.2159     11.1779    153.4533   1.1397731304e+02   4.1348314762e+01    0.2759425    0.1244625  23.99  0.001281136    2.499    0.600
        67  -9.9795    177.3758    150.8747   6.7875168262e+01   1.6415972903e+01    0.2752834    0.2078954  71.80  0.001267736    1.906    0.475
        68 -10.1294    207.0401    146.6739   6.0985328258e+01   1.1672340682e+01    0.1902523    0.1806185   1.90 0.0005150116    1.113    0.102
        69  -9.5010    216.3840    155.2088   6.1095787140e+01   8.4105489503e+00    0.1884825    0.1184849 -47.11 0.0003327526    1.539    0.350
        70 -10.6456     18.1480    146.7792   1.1124037308e+02   4.2511217535e+01    0.3450187    0.2000401 -15.88 0.0009997203    2.502    0.600
        71  -9.2364     41.0186    146.2155   1.0432951039e+02   4.0557412388e+01    0.1643242    0.1167149  24.39 0.0008384329    1.577    0.366
        72  -9.7733    220.3670    143.8230   5.7991310747e+01   9.8263531092e+00    0.1968416     0.115751 -32.94 0.0005019875    1.592    0.372
        73 -10.0647      9.7438    144.6241   1.1344261244e+02   4.3677809280e+01    0.3393253    0.1326889   4.63  0.001258297    4.255    0.765
        74 -10.5683     14.1912    140.0219   1.1159788808e+02   4.4528537806e+01    0.2627065    0.1805154  -8.95   0.00071669    1.872    0.466
        75  -9.3477    230.3372    139.6866   5.5460582994e+01   8.8519470822e+00    0.1326182    0.1012157 -67.52 0.0007046466    1.692    0.409
        76  -9.1383     82.3214    139.6586   9.0425539617e+01   3.6838392724e+01    0.1580184    0.1186943  74.81  0.000705032    1.722    0.419
        77 -10.1557     54.3892    138.7439   9.8945332541e+01   4.0971764406e+01    0.2894709    0.1360546 -66.88  0.001135364    2.132    0.531
        78 -10.8006      9.1659    136.7588   1.1272001880e+02   4.5702180683e+01    0.2648846    0.1508119 -68.05 0.0007602698    1.436    0.303
        79  -9.2318    143.6914    137.3215   7.2606610413e+01   2.6085625308e+01    0.1563946    0.1264188 -89.78 0.0007034868    1.644    0.392
        80 -10.3121      2.5211    136.4370   1.1467224947e+02   4.6197049913e+01    0.2865314    0.1069982 -73.48  0.001219566    2.198    0.545
        81  -9.2892    122.7138    135.3204   7.7643557260e+01   3.0734102874e+01     0.155521    0.1264657  87.71 0.0002330967    1.595    0.373
        82  -9.6462     20.8668    135.1503   1.0892625719e+02   4.5262402921e+01    0.1956788    0.1309601 -54.20  0.001044669    1.319    0.242
        83  -9.8601    249.2048    134.2010   5.1476703747e+01   6.6900070319e+00    0.1724555    0.1346422 -54.30 0.0004734368    1.309    0.236
        84  -9.7398     79.9530    132.9766   8.9730218335e+01   3.8897537553e+01    0.1814336    0.1743029 -40.58 0.0004633658    1.016    0.015
        85 -11.0285     54.3775    132.7084   9.7832125760e+01   4.2526368583e+01      0.36459    0.2544656  49.48  0.001167001    1.627    0.385
        86 -11.2747     36.4085    130.5542   1.0327339707e+02   4.5062281088e+01    0.4739361    0.2736033 -43.56   0.00223322    1.696    0.410
        87 -11.1085     73.9289    129.2683   9.0829405271e+01   4.0749451533e+01    0.3338849    0.3128204 -54.11 0.0009027928    1.032    0.031
        88  -9.2004      9.2804    129.3343   1.1178203131e+02   4.7565483822e+01    0.1390827   0.07989839 -47.41  0.000285716    1.613    0.380
        89  -9.8977     48.4294    125.7134   9.8443296204e+01   4.5020012820e+01    0.2697414    0.1353125 -66.83  0.001109582    1.994    0.498
        90 -10.9629     24.2127    126.0007   1.0651998565e+02   4.7322312231e+01    0.2514729    0.1962654  27.03 0.0004731171    1.460    0.315
        91 -10.8578     21.4084    121.4612   1.0673948451e+02   4.8694253987e+01    0.3183069    0.1980003 -31.15  0.001205909    1.770    0.435
        92 -10.3961     17.7762    125.4260   1.0853702108e+02   4.7967567704e+01    0.2953025    0.2028727 -40.94  0.001141854    1.432    0.302
        93 -10.5637     13.4735    125.9810   1.1000858285e+02   4.8132448401e+01    0.2490052    0.2099428 -71.98 0.0003583399    1.055    0.052
        94 -11.0354     10.8326    122.8407   1.1043313132e+02   4.9096747561e+01    0.2828416    0.2367263 -70.07  0.001156801    1.047    0.045
        95  -9.7258    220.1612    124.1959   5.3804707104e+01   1.3445807066e+01    0.1886731    0.1499389 -58.16 0.0005418952    1.301    0.231
        96 -10.3476      2.7010    122.9501   1.1306892477e+02   4.9553327161e+01    0.2426014    0.1349991 -59.47 0.0003011714    1.440    0.305
        97  -9.8302      1.4237    119.0375   1.1299547586e+02   5.0592064970e+01    0.1961319    0.1059932 -72.20 0.0003147545    1.533    0.348
        98  -9.0844     32.6035    121.7122   1.0301706532e+02   4.7678431412e+01      0.14958   0.09190427 -32.85 0.0006999874    1.778    0.438
        99 -11.1749     15.0528    117.1796   1.0821395880e+02   5.0233276685e+01    0.4327404    0.2360715 -51.11  0.001858626    1.551    0.355
       100 -10.1456     72.4720    117.7356   8.8689449328e+01   4.3841176621e+01    0.2901133    0.1456176 -59.00 0.0009840712    2.030    0.507
       101  -9.4526     32.9086    117.9086   1.0223259392e+02   4.8610248487e+01    0.2909561     0.143016  64.30 0.0006309314    4.204    0.762
       102  -9.4703    179.2099    116.3999   5.9436697283e+01   2.3091581521e+01    0.1973144    0.1442869  62.01 0.0005728155    1.574    0.365
       103  -9.7682    214.0202    115.4963   5.2888734835e+01   1.6179830796e+01    0.1871358    0.1395304  50.09 0.0004865047    1.509    0.337
       104 -10.8506    249.3843    112.3653   4.7058002289e+01   1.0302714409e+01    0.2398437    0.1842173 -51.58  0.000635247    1.153    0.133
       105 -10.1155     94.9180    112.3474   8.0067389921e+01   4.1415947047e+01    0.2642874    0.2144649 -58.26   0.00101519    1.296    0.228
       106 -11.0721     38.3576    111.2777   9.9048531718e+01   4.9739023186e+01    0.2779329    0.2466754 -48.94 0.0005569903    1.011    0.011
       107 -11.2166     35.7875    109.0414   9.9512383210e+01   5.0547648949e+01    0.2993399    0.1784267 -60.51 0.0008007999    1.493    0.330
       108 -11.8994     55.1414    109.5818   9.2722462325e+01   4.8244738438e+01    0.4579256    0.2602212 -48.80  0.001222745    1.579    0.367
       109 -10.5487     70.4835    108.4944   8.7112640099e+01   4.6383468500e+01    0.2677356    0.2369516 -58.85 0.0006198614    1.163    0.140
       110 -10.9549      1.9108    107.5356   1.1129885554e+02   5.3393730399e+01    0.4251733    0.1045093 -60.53  0.001653701    2.637    0.621
       111 -11.3125     23.7236    106.4959   1.0336989457e+02   5.2242623400e+01    0.2881039    0.2622173  23.54  0.001495341    1.265    0.210
       112 -10.0447    243.5513    104.5120   4.6218338091e+01   1.2598893624e+01    0.1301036    0.1070249 -47.27 0.0001168412    1.006    0.006
       113 -11.1096    120.4480    101.1184   6.9423146149e+01   3.8913428629e+01    0.6661845     0.324963 -26.78  0.002072906    3.529    0.717
       114 -12.3956     13.7335    109.3614   1.0743976368e+02   5.2262290192e+01    0.5508844    0.3408672  -3.59  0.002884472    1.968    0.492
       115 -10.0918     37.5918    103.2151   9.7629549870e+01   5.1795631516e+01     0.272872    0.1946434 -85.91  0.001362755    1.794    0.442
       116 -10.0521     25.7196    102.3299   1.0183776605e+02   5.3099162660e+01    0.1293783    0.1014722  76.46 0.0003102974    1.603    0.376
       117 -10.8030     21.8197     99.7877   1.0278964639e+02   5.4026372471e+01     0.463213     0.239462  -8.68  0.002036682    2.619    0.618
       118 -11.4442    143.6416     98.5372   6.2688895507e+01   3.4416888995e+01     0.624809    0.3997577  51.03  0.002773392    1.598    0.374
       119 -11.2688     62.3885     98.8760   8.7494421039e+01   4.9835566584e+01    0.4232298      0.30043   6.84  0.001311883    1.631    0.387
       120  -9.7243     50.9367     99.2787   9.1779391316e+01   5.1250628052e+01    0.1902638    0.1761111 -11.56 0.0004959733    1.087    0.080
       121 -11.7788     14.4812     98.0298   1.0520808314e+02   5.4974075311e+01    0.3873158    0.2353802 -65.37   0.00205325    1.440    0.306
       122 -11.7335     10.8922     90.5325   1.0517335829e+02   5.6986161820e+01    0.4184088    0.3485853  63.01  0.001105125    1.518    0.341
       123 -12.6148    158.0254     89.7888   5.7047277318e+01   3.2862943349e+01     1.215339    0.5461506 -55.75  0.004021712    3.269    0.694
       124 -12.1966    166.5393     84.2111   5.3812269593e+01   3.1934635985e+01    0.7906263     0.756017 -43.05  0.004539956    1.065    0.061
       125 -10.1679      5.1749     98.2373   1.0871114120e+02   5.5476546566e+01    0.2300118    0.1599088  -2.95  0.001037881    1.658    0.397
       126  -9.8646      1.4032     96.0167   1.0974825745e+02   5.6197001091e+01    0.1937193    0.1033607 -67.25 0.0004920263    1.550    0.355
       127 -10.6525     66.7629     98.2443   8.5758997604e+01   4.9350582510e+01    0.2501026     0.187133 -36.66  0.000357982    1.267    0.211
       128  -9.1092    250.2874     95.6741   4.3584808096e+01   1.2841994545e+01    0.1287089   0.08212422 -61.10 0.0005059639    1.609    0.378
       129 -11.2580     37.4023     94.7831   9.5790468227e+01   5.3834605451e+01    0.2828691    0.2397399  30.25 0.0003350288    1.331    0.249
       130 -10.4168     21.1398     92.6371   1.0160184545e+02   5.5788713126e+01    0.5241492   0.05097873 -59.51  0.001467269    4.835    0.793
       131 -10.9102     25.5955     91.2980   9.9573236747e+01   5.5749279029e+01    0.3155451    0.2163588 -57.94  0.001094283    1.293    0.227
       132  -9.8603    173.4646     83.5170   5.2300793673e+01   3.0484989151e+01    0.2638779    0.1344894 -41.28 0.0007389942    1.893    0.472
       133  -9.5832    113.1881     93.4147   6.9288777964e+01   4.2038762646e+01      0.20627    0.1450416  53.40  0.000408871    1.553    0.356
       134 -11.3879     21.8790     87.1819   1.0013052070e+02   5.7010882118e+01    0.3095905    0.2682364  10.92  0.001023809    1.282    0.220
       135  -9.4656     46.5407     92.5472   9.1741076938e+01   5.3356467113e+01    0.1397678    0.1258502 -35.40  6.97354e-05    1.035    0.034
       136 -11.5429    157.3977     82.4255   5.5188408157e+01   3.4338008124e+01    0.9342297    0.4629596  34.69  0.003303658    3.071    0.674
       137 -11.0535     57.3682     90.1151   8.6990242161e+01   5.2541721488e+01    0.4066887    0.2552801  14.16  0.001615194    1.844    0.458
       138 -10.4195     96.2394     89.8607   7.3375638543e+01   4.6167856115e+01    0.3800334    0.1986996  25.16  0.001385591    2.638    0.621
       139  -9.8884     83.0339     88.9130   7.7434341434e+01   4.8796440477e+01    0.2241373    0.2021067 -15.84 0.0005198133    1.056    0.053
       140 -10.9283     78.1966     88.0679   7.8848260309e+01   4.9810812886e+01    0.3380334    0.3176862 -39.50  0.001717277    1.116    0.104
       141 -10.9061     66.7412     83.6156   8.1631029728e+01   5.2615538775e+01    0.3819453    0.2765473  30.53  0.001958465    1.410    0.291
       142 -11.7023      5.3348     84.4460   1.0620575564e+02   5.8721397295e+01    0.7457679    0.1723526 -45.16  0.002775646    3.169    0.684
       143  -9.6805    120.9438     86.7105   6.5151580559e+01   4.1739434643e+01    0.2071487    0.1945314  34.87 0.0005453139    1.049    0.047
       144 -11.4033     30.8311     81.8305   9.5220580102e+01   5.7468169202e+01    0.3587705    0.2932069 -24.92  0.001250848    1.116    0.104
       145 -10.2797     46.2802     87.3802   9.0491866160e+01   5.4571703497e+01    0.2364399    0.1827389  34.95   0.00129183    1.447    0.309
       146 -10.1073     42.9552     82.8176   9.0571156311e+01   5.5984076438e+01    0.2174594    0.1465133  49.59   0.00106939    2.005    0.501
       147 -10.1743     65.1538     87.6573   8.3401711358e+01   5.1978599171e+01    0.2303568     0.202413 -59.95 0.0009472226    1.284    0.221
       148 -10.2251     74.2221     81.9202   7.8399595990e+01   5.1778509886e+01    0.2873315    0.1899069 -28.08  0.001349871    1.604    0.376
       149 -11.7812     43.9432     38.2417   7.5132457458e+01   6.4449511820e+01    0.4988764    0.2934327  44.31  0.002574953    2.122    0.529
       150 -13.0640     10.1897     75.3901   1.0231289844e+02   6.0510154526e+01     1.523582    0.5342636  27.59  0.006630612    3.103    0.678
       151 -12.0592     30.7798     63.5186   9.0112934589e+01   6.1416602122e+01    0.7875337    0.6989827 -72.07  0.003947409    1.494    0.331
       152 -12.0845     36.9757    243.8392   1.1557157524e+02   1.7704573215e+01     0.682153    0.3128643 -87.41  0.003101049    2.431    0.589
       153 -11.2432      6.0910     42.7828   9.5451953333e+01   6.7545127254e+01    0.6675768    0.1399354 -43.56  0.002275523    3.230    0.690
       154 -14.1153     16.6165     67.5313   9.7588018743e+01   6.1804602129e+01    0.5838349    0.4576341 -31.16  0.001170069    1.067    0.063
       155 -10.9635     15.1319     59.7562   9.6135791666e+01   6.3551850211e+01    0.2654493    0.1670903 -30.88 0.0003313443    1.367    0.268
       156 -10.9986     26.8715     56.0420   8.9530210968e+01   6.3301796968e+01    0.2831103      0.19903 -35.07 0.0004503352    1.202    0.168
       157 -10.4968    249.9907    246.7028   7.2166269172e+01  -1.1042748997e+01    0.1647405     0.118084  -0.54  0.000705171    1.084    0.077
       158 -12.3778      6.1432     68.0157   1.0237810625e+02   6.2373424980e+01    0.2622709    0.1824147 -46.16 0.0004525878    1.137    0.121
       159 -12.5989      2.9767     62.6862   1.0253985379e+02   6.3691620161e+01    0.4548454    0.2971193 -77.28  0.001642151    1.884    0.469
       160 -10.2281     71.1255     79.0831   7.8641797151e+01   5.2875595193e+01    0.2127079    0.1966876 -17.37 0.0006411099    1.049    0.046
       161 -10.2902     61.2167     78.0749   8.2028423578e+01   5.4620468947e+01    0.2622586    0.2051401 -51.89 0.0009165787    1.360    0.265
       162 -10.7134     61.8293     72.5487   8.0061322351e+01   5.5665196354e+01    0.7591946    0.3690135 -28.82  0.002957167    2.631    0.620
       163 -11.5734     51.5637     62.8647   8.0966554575e+01   5.9060177666e+01    0.4152236    0.3502908 -80.61  0.002323509    1.838    0.456
       164 -10.6780     54.0067     74.2442   8.3655396539e+01   5.6443869042e+01    0.3426144    0.2919477  61.16  0.001590614    1.617    0.382
       165 -12.3165     50.2620     68.6154   8.3391589719e+01   5.8101932147e+01    0.4968672    0.3768478  -8.44 0.0007937127    1.306    0.234
       166 -12.7641     44.6726     75.2231   8.7716044166e+01   5.7438404726e+01    0.2723866    0.2514204  -2.80 0.0004638516    1.127    0.113
       167 -11.0558     91.7729     74.5831   7.0088445454e+01   5.0083464544e+01     0.469881    0.3032983  24.07  0.001486253    1.771    0.435
       168 -10.9622     75.1269     75.1992   7.5969571100e+01   5.2996461327e+01    0.4070019    0.3239225  -2.22  0.002161247    1.310    0.237
       169 -11.4651     78.4062     70.0429   7.3124749327e+01   5.3427909492e+01    0.4294644    0.2539099  38.89 0.0003606513    1.677    0.404
       170 -10.0924    145.6417     74.3727   5.5464778930e+01   3.8444682893e+01      0.28323    0.1828549 -35.00  0.001312571    1.614    0.380
       171 -10.6198    207.4955     73.4513   4.4317418798e+01   2.4655108314e+01    0.2165778    0.1985972 -67.98 0.0002160984    1.050    0.047
       172 -10.2192    103.3281     73.6851   6.6195925146e+01   4.7939533137e+01    0.1440791    0.1191392 -89.30 0.0007044427    1.674    0.402
       173  -9.7204    128.9667     71.5257   5.8522165075e+01   4.2748098285e+01    0.2175408    0.1393111  48.88 0.0004099788    1.506    0.336
       174 -10.6868    163.9763     88.9988   5.5592497089e+01   3.1659243329e+01    0.3847577    0.2524647 -30.14  0.001603113    1.681    0.405
       175 -10.4970    167.8885     69.8934   4.9756749448e+01   3.4038894389e+01    0.2021743    0.1940107  83.81 0.0003301922    1.035    0.033
       176  -9.7472    123.0018     69.2287   5.9323108521e+01   4.4483372377e+01    0.1969021    0.1897721  27.58  0.000241419    1.015    0.015
       177  -9.6466     42.8455     68.2486   8.6354465165e+01   5.9116131234e+01    0.1918573    0.1826575 -10.16  0.001213478    1.193    0.162
       178 -11.1586     94.6740     66.1316   6.6395200060e+01   5.1061760563e+01    0.5550696    0.3099475  28.31  0.001231564    2.143    0.533
       179  -9.1144    127.5265     66.4948   5.7345518947e+01   4.3922942615e+01     0.143315    0.1382565  49.99 0.0008099819    1.021    0.020
       180 -11.1794    122.9186     64.1200   5.7756469819e+01   4.5354839766e+01    0.2543772    0.2430552 -38.70 0.0002827273    1.100    0.091
       181 -10.4815    119.7795     60.9800   5.7563253525e+01   4.6567023837e+01    0.3007035      0.19268  50.64 0.0008129808    1.482    0.325
       182 -10.4487     76.6019     63.8477   7.1676197918e+01   5.4897637244e+01    0.3189929    0.2826562 -14.66  0.001852617    1.072    0.067
       183  -9.5528    143.8737     64.4789   5.2993095991e+01   4.0486248653e+01    0.2043158    0.1367104  57.06   0.00034436    1.446    0.308
       184 -10.3482    153.0550     63.5517   5.0837696060e+01   3.8491066035e+01    0.2145479    0.1336763  56.21 0.0004104249    1.542    0.352
       185 -10.4644    201.9209     61.4401   4.2291230949e+01   2.7678578184e+01    0.2210937    0.1837468 -40.38 0.0004899125    1.229    0.187
       186  -8.9897    113.3081     61.6206   5.9467689593e+01   4.7900146867e+01    0.1459338    0.1135502 -75.63 0.0007026165    1.788    0.441
       187 -10.8372     85.5081     61.5138   6.7801783277e+01   5.3664394077e+01    0.2195394    0.1266464  32.91 9.277289e-06    1.759    0.432
       188  -8.8974    183.3165     60.2969   4.4685256280e+01   3.1984420706e+01     0.130646    0.1059602  28.74  0.000374048    1.608    0.378
       189  -9.4352     98.4015     60.4403   6.3335887368e+01   5.1276418229e+01    0.1393551    0.1311304  17.40   4.2816e-08    1.031    0.030
       190 -10.3438     69.4079     59.8275   7.2899659219e+01   5.6870891845e+01    0.2050938    0.1210185 -28.20 0.0009537532    1.797    0.444
       191 -11.5393     59.2654     58.8316   7.6454874957e+01   5.8691284136e+01    0.3873289    0.2718969 -24.23  0.001420948    1.392    0.281
       192 -10.7848     61.9202     52.0618   7.2962460838e+01   5.9464665673e+01    0.4486645    0.1960142 -32.29  0.001855364    2.492    0.599
       193 -10.6490    147.4338     57.3626   5.0188461753e+01   4.0749988156e+01     0.353428    0.2244186 -60.96  0.001372488    1.972    0.493
       194  -9.0905    124.3608     58.2655   5.5562016989e+01   4.5958526820e+01    0.1475401    0.1043598  27.85 0.0003420766    1.640    0.390
       195 -11.3645     75.2382     56.1581   6.9467487298e+01   5.6489543431e+01    0.2277619    0.2104192 -12.29 0.0003028409    1.112    0.101
       196  -9.7121    230.8098     55.2986   3.7500996271e+01   2.2549354955e+01    0.1821104    0.1329387 -56.96  0.001127327    1.158    0.137
       197 -12.7002    105.2576     52.6331   5.8695906916e+01   5.1063151883e+01    0.3778279    0.2939829  41.45   0.00042957    1.193    0.161
       198 -10.0966    133.0801     54.3154   5.2306635713e+01   4.4550114611e+01    0.2054621    0.1768649  58.62  0.001152052    1.102    0.092
       199 -11.8431    129.1984     49.2707   5.1607740410e+01   4.6174366849e+01    0.4635683    0.4031293 -15.72  0.001683337    1.276    0.216
       200 -10.0132     82.1503     54.2600   6.6383267438e+01   5.5523782073e+01    0.2020358    0.1711382   7.72  0.001154009    1.127    0.112
       201 -10.0888     55.6370     53.6864   7.6072843604e+01   6.0166378999e+01    0.3056722    0.1813366   7.47  0.001394143    2.193    0.544
       202 -10.0838    120.1852     52.5583   5.4763697500e+01   4.7766576956e+01     0.271243    0.1817837  31.08 0.0008370688    1.679    0.405
       203 -10.1544    168.9458     51.9648   4.4800776714e+01   3.6494570177e+01    0.2233215    0.1531055 -73.55 0.0009646129    1.695    0.410
       204 -10.6881     87.4743     51.3575   6.3585103181e+01   5.4950681905e+01    0.3433071    0.2344497  41.92  0.001569346    1.374    0.272
       205  -9.7600    237.4757     51.4947   3.6047519864e+01   2.1767584517e+01    0.1230141   0.09859481 -63.49 1.149316e-05    1.013    0.013
       206 -11.0771    199.9366     49.6207   3.9784681354e+01   2.9792544131e+01    0.2315695    0.1943779 -76.09 0.0003323656    1.069    0.064
       207 -12.0048     26.9920     49.8039   8.7383420510e+01   6.4489219478e+01    0.4955091    0.3591175 -54.69  0.002158788    1.597    0.374
       208 -10.3789     78.7394     47.1182   6.4938617293e+01   5.7297537006e+01    0.2072569    0.1751162 -34.66 0.0004087145    1.296    0.228
       209 -10.5322     53.2231     49.9262   7.5679906518e+01   6.1181901601e+01    0.2517568    0.1784733  19.90 0.0006998388    1.342    0.255
       210  -9.2326    205.9686     48.7517   3.8847010194e+01   2.8599388643e+01    0.1517337     0.102406  70.17 0.0001973374    1.457    0.314
       211  -9.5058    119.9730     47.2865   5.3107014436e+01   4.8568853515e+01    0.1684394    0.1164002  54.98 0.0007169144    1.349    0.259
       212 -10.6391    142.9690     45.1947   4.7503218646e+01   4.3516868750e+01    0.2522678    0.2141457 -81.75 0.0004021855    1.260    0.207
       213 -10.6387    139.1176     43.1593   4.7646523717e+01   4.4690290235e+01    0.2541843    0.2241569 -13.38 0.0008178593    1.297    0.229
       214 -10.2582     83.7339     45.1003   6.2518486228e+01   5.6635207261e+01    0.3281233    0.2053999  60.31  0.001084466    2.103    0.524
       215 -10.9180     97.7269     39.2790   5.6137918657e+01   5.4570018447e+01    0.3103411    0.2299976   7.12  0.001249296    1.551    0.355
       216 -11.0390     91.1369     41.6923   5.8935587551e+01   5.5628101190e+01    0.5806827    0.2727009 -47.47  0.002350348    2.969    0.663
       217 -10.3517     95.6641     43.0148   5.8071875607e+01   5.4502069081e+01    0.2284706    0.1885816   6.45 0.0004475792    1.258    0.205
       218 -10.7450    124.7775     43.1239   5.0649571668e+01   4.8033236119e+01    0.3640331    0.2366196 -46.84 0.0008515392    1.742    0.426
       219 -11.1434     69.8044     36.3287   6.3925288352e+01   6.0529241743e+01    0.4515168    0.2471497 -19.25  0.001952678    2.179    0.541
       220 -11.9126     72.5497     43.1499   6.5605730692e+01   5.9047899486e+01    0.3123098    0.2840581 -58.21 0.0009865017    1.484    0.326
       221 -11.6426     67.3766     41.8416   6.6987412120e+01   6.0172596515e+01    0.7451902      0.25663  45.58  0.002860273    2.942    0.660
       222  -9.7689    106.9842     42.7853   5.4856597118e+01   5.2094863873e+01    0.1917437    0.1626838  46.99 0.0003579453    1.084    0.078
       223 -10.5481     18.5229     42.3048   8.8899743426e+01   6.6681052479e+01    0.4561305    0.1462445 -41.47  0.001803811    2.582    0.613
       224 -11.3480     23.8063     41.3061   8.5881867718e+01   6.6361336781e+01    0.5985093    0.4554715  83.05  0.003069473    3.188    0.686
       225 -12.8074     27.6418     38.1052   8.2754828868e+01   6.6514621477e+01    0.4605021    0.2889715 -25.93 0.0003489633    1.417    0.294
       226 -11.6172     24.4013     35.1535   8.3210582738e+01   6.7361477179e+01    0.2733008    0.2001879  -0.91 0.0008943063    1.186    0.157
       227 -10.1579    131.0216     41.8593   4.8895020797e+01   4.6752308555e+01    0.2185575    0.1965169 -32.04 0.0006774096    1.212    0.175
       228 -11.6830     53.1733     40.8797   7.2210494032e+01   6.2673186494e+01    0.3993188    0.2541635  34.20 0.0008996017    1.504    0.335
       229 -12.9646     57.5741     34.5700   6.7854540762e+01   6.2910274999e+01    0.3216895    0.2640428  -2.49 0.0003592505    1.093    0.085
       230 -10.6764    152.5560     39.1004   4.3995052031e+01   4.2048109215e+01    0.2401533    0.2020069  72.68 0.0004159984    1.095    0.086
       231  -9.9581    112.8005     46.0611   5.4469154737e+01   5.0356551800e+01    0.2545664    0.1833069  50.65  0.001111786    1.277    0.217
       232 -11.1140    225.2222     38.2589   3.4508315858e+01   2.5944115653e+01    0.2231649    0.1768072 -79.58 0.0003751788    1.102    0.093
       233  -9.6690     85.8520     38.8575   5.9509932126e+01   5.7093378291e+01    0.1634521    0.1498071  53.96 0.0002500913    1.240    0.193
       234  -9.4063    160.4380     38.3991   4.2506202291e+01   4.0283248130e+01    0.1322338    0.1176749  81.76 4.601801e-05    1.021    0.021
       235  -9.9546      1.5965     37.8124   9.6215363993e+01   6.8758876454e+01    0.1897947    0.1066196 -36.79 0.0006817027    1.379    0.275
       236 -10.3402    101.1336     36.2763   5.4126336691e+01   5.4223460510e+01    0.2175667    0.2002782 -42.89  0.001065255    1.254    0.203
       237 -11.6779     81.8590     36.1199   5.9737510406e+01   5.8257834038e+01    0.3740615    0.3111701  16.93  0.001413328    1.113    0.102
       238 -11.9600     75.1796     35.7534   6.1811210744e+01   5.9604668272e+01     0.578941    0.3201605  16.90  0.001515074    2.598    0.615
       239 -10.4090    172.6606     35.9449   4.0034171339e+01   3.7737318138e+01    0.2467163    0.1132797  50.95  0.001093127    2.256    0.557
       240 -11.1642    238.2141    246.4076   7.4170714937e+01  -9.7019812543e+00    0.1694396    0.1274531   6.28 0.0007383584    1.131    0.116
       241 -12.4284     67.4699    236.5020   1.0850680358e+02   1.5571933843e+01    0.8729165    0.3334697  31.14  0.003730964    2.513    0.602
       242 -10.1972    109.5340    242.9049   9.9947169799e+01   8.4982281990e+00    0.2468297     0.151502  48.11 0.0006271428    1.565    0.361
       243 -11.0880      8.0847     33.6909   9.1256356325e+01   6.9080517743e+01    0.3824231    0.3440229 -35.81  0.002462647    1.356    0.263
       244 -10.2650      1.5328     25.7341   9.1941801352e+01   7.0924635119e+01    0.2074751    0.1022236 -38.01 0.0005958627    1.591    0.372
       245 -10.8999      8.3972     24.8713   8.7641891527e+01   7.0562475855e+01    0.4842106    0.1538389  20.39  0.002171991    3.175    0.685
       246 -10.7234     88.8080    241.3118   1.0432307737e+02   1.1734530752e+01    0.2343835     0.154543 -34.78   0.00121787    2.105    0.525
       247 -12.6859     75.6602    239.8683   1.0705121066e+02   1.3803701394e+01    0.6991721    0.4904254 -38.63  0.003913796    1.898    0.473
       248  -9.3184     50.3288    240.3035   1.1253588009e+02   1.6898466342e+01    0.1121671   0.09530488 -26.30 0.0004335949    1.649    0.394
       249 -10.1305     22.5043     13.0654   7.4373251849e+01   7.0881915939e+01    0.1652577   0.09873591 -27.47  0.001011645    1.541    0.351
       250 -11.8730     17.7535     31.0927   8.5032580861e+01   6.8707732625e+01    0.5077373    0.2525268   9.31  0.002608989    2.184    0.542
       251 -10.0429    195.3526    238.9610   8.1037390217e+01  -3.2266747984e+00     0.242678    0.1564479   3.92  0.001330539    1.593    0.372
       252 -10.8072    244.1307    237.1586   7.1595251949e+01  -9.0975248500e+00    0.2081626    0.1400558 -30.71  0.001227927    1.379    0.275
       253  -9.6679    201.7790     34.3791   3.6051129158e+01   3.1370044113e+01    0.1831129     0.113423  74.60 0.0003119933    1.527    0.345
       254 -10.7773    205.8178     32.6101   3.5221259327e+01   3.0711365604e+01    0.2103645     0.177394  82.27  0.000630828    1.140    0.123
       255 -10.3340    108.1293     34.2229   5.1600095415e+01   5.2937965171e+01    0.2107121     0.162712  35.90 0.0006239897    1.231    0.187
       256 -11.1336    221.7590     32.1139   3.3550867589e+01   2.7417254524e+01    0.2037216    0.1612801 -69.10 0.0002895062    1.040    0.039
       257  -9.5703    134.4966     36.0127   4.6377203895e+01   4.6674766242e+01    0.1943511     0.134363 -31.14  0.001033385    1.592    0.372
       258 -11.0281    235.7746     30.7171   3.2045896311e+01   2.4778441346e+01    0.3584807    0.1756616  46.32  0.001680275    3.524    0.716
       259 -10.2573    166.6679     32.0389   3.9857581050e+01   3.9597703977e+01    0.1763574    0.1652156 -59.51 0.0005891474    1.141    0.123
       260  -9.8820     44.4258     31.5163   7.2123869881e+01   6.5403016967e+01    0.1933522    0.1592974   1.56 0.0005832941    1.029    0.028
       261 -11.4511     48.2477     31.8388   7.0586154914e+01   6.4785749291e+01    0.2533268    0.1898186   5.10            0    1.193    0.162
       262 -10.5840     50.4933     27.5157   6.7774023150e+01   6.5036985984e+01    0.2614519     0.163809  16.74  0.001434747    1.595    0.373
       263 -11.1164     97.6707     30.6665   5.3029397748e+01   5.5656736048e+01    0.3251465    0.2309034  47.12  0.001793492    1.238    0.192
       264 -11.1102    103.7231     29.6295   5.1083764932e+01   5.4456760673e+01    0.2884425     0.226404  59.63   0.00113376    1.235    0.190
       265 -11.0099    100.9763     27.9974   5.1194029452e+01   5.5245986547e+01    0.2385134    0.2166035  11.29 0.0003338659    1.137    0.121
       266  -9.7892     89.0412     31.5318   5.5775679853e+01   5.7381073967e+01    0.2001775    0.1179868  50.02 0.0008564381    1.535    0.348
       267 -10.6738    111.0823     27.9194   4.8713460064e+01   5.3008191392e+01      0.30483    0.2314345  17.64 0.0007553232    1.491    0.329
       268 -10.7081     67.5149     21.6627   5.8704717016e+01   6.2799392388e+01     0.444702    0.1593411  52.09  0.001805576    2.873    0.652
       269 -10.8202     60.0598     27.0875   6.3742982398e+01   6.3496449368e+01    0.2416211     0.180714 -38.93   0.00144381    1.621    0.383
       270 -11.4585     59.6128     22.2087   6.1812014673e+01   6.4175143465e+01    0.3642611    0.3004652  53.11  0.001932285    1.510    0.338
       271 -10.0016    204.6860     26.6929   3.4019049497e+01   3.1659852801e+01     0.256136    0.1031714 -52.88 0.0009513807    2.437    0.590
       272 -11.2718    193.6376     26.1726   3.5047276484e+01   3.4135658455e+01    0.2966566    0.1656329 -59.37  0.001445316    1.788    0.441
       273 -10.7550    132.5458     25.8389   4.3604657622e+01   4.8294929090e+01    0.2433016    0.2009847   9.15  0.001010883    1.459    0.315
       274 -10.3108    128.0302     26.5379   4.4675319193e+01   4.9271886960e+01    0.2528125    0.2038036  80.32 0.0006826913    1.269    0.212
       275 -10.2037    128.5126     23.4837   4.3617400101e+01   4.9484198639e+01    0.2415496    0.1802706  73.43  0.001005785    1.293    0.226
       276 -12.0962     30.3747    233.5994   1.1620287842e+02   2.0565401622e+01    0.5146913    0.2478923 -85.26  0.002623171    2.112    0.526
       277 -10.9796     69.2986     26.4879   6.0105249111e+01   6.1899375769e+01    0.3718365     0.189337  31.11    0.0012049    1.991    0.498
       278 -10.1300    214.3696     25.8727   3.2914267686e+01   2.9696261626e+01    0.1626194    0.1360895 -58.65 0.0005947366    1.139    0.122
       279 -12.2433    165.1317     23.0453   3.7692701304e+01   4.0967570671e+01    0.2931715    0.2073418  69.91            0    1.252    0.201
       280  -9.5434    143.8624     25.9905   4.1674377073e+01   4.5626548262e+01    0.2170036    0.1309608 -58.28 0.0008102598    1.991    0.498
       281 -10.1119    185.9291     22.9247   3.5126907315e+01   3.6222251513e+01    0.1931121    0.1593026 -85.25 0.0006053427    1.044    0.042
       282  -9.8113    106.4697     22.9719   4.8058397793e+01   5.4575598907e+01    0.1952221    0.1612064 -55.05  0.000604456    1.475    0.322
       283 -10.6242     90.2562     20.5765   5.1254577388e+01   5.8356788852e+01    0.4910362    0.2311118  65.22  0.002090968    2.656    0.624
       284 -10.3257    159.8297    236.1549   8.7974084392e+01   2.3351091597e+00    0.1835593    0.1421422  -0.26 0.0003915898    1.305    0.233
       285 -10.3285     93.9930     22.3069   5.0911127606e+01   5.7379609814e+01    0.2262311    0.2198294  66.67   0.00103279    1.202    0.168
       286 -11.3833    107.7954     17.9737   4.5999167943e+01   5.4779945347e+01    0.3498596    0.2113442  39.77  0.001858954    1.583    0.368
       287 -10.0322    103.4741     19.4707   4.7512106551e+01   5.5598066415e+01    0.1921873    0.1567083 -86.54  0.001142853    1.527    0.345
       288  -9.4648    226.6055     21.7817   3.1013741007e+01   2.7654571229e+01     0.106631   0.07920475  57.70  0.000302992    1.629    0.386
       289 -10.0323     14.8705     13.9683   7.9042877663e+01   7.1622539925e+01    0.1931434    0.1357968   9.68 0.0007780641    1.202    0.168
       290 -12.0372     74.4946    233.4993   1.0664962753e+02   1.5287152264e+01    0.4065451    0.2555018  43.89  0.002132285    1.401    0.286
       291 -10.2790     24.0689    232.5287   1.1743436509e+02   2.1453794997e+01    0.2015704    0.1706909 -58.85 0.0006894632    1.434    0.303
       292 -10.1639     38.2337    232.8327   1.1449600746e+02   1.9871215650e+01    0.1812427    0.1384434  69.58 0.0004863343    1.132    0.116
       293 -10.0043    172.9434     20.4566   3.6030310536e+01   3.9440590126e+01    0.1936594    0.1107744  73.95  0.001018875    1.579    0.367
       294  -9.7976    139.4525     19.8294   4.0579749469e+01   4.7303168950e+01    0.2211048    0.1322769  59.85  0.001170964    1.438    0.304
       295  -9.7438    152.2295    229.8304   8.8644550835e+01   4.6370212778e+00    0.2194217    0.1450587  67.65 0.0009559274    2.855    0.650
       296  -9.4911    170.0131    229.0255   8.4651985909e+01   2.0930778844e+00    0.1622383    0.1410479   5.06 0.0004586236    1.020    0.019
       297 -11.2471    120.8476    226.3082   9.5191915053e+01   1.0136213675e+01    0.2175594    0.1930904 -81.02 0.0006742603    1.313    0.238
       298 -10.8993     41.5187     19.4638   6.8071803833e+01   6.7474609312e+01    0.2657723    0.1971897  27.34 0.0009782772    1.216    0.178
       299 -11.1873      4.6168    226.5428   1.2102889382e+02   2.4601705507e+01    0.3080384    0.1570054  53.14  0.001773126    1.661    0.398
       300 -11.3689    238.1861     17.9118   2.9376414440e+01   2.5809881791e+01    0.1887841    0.1555442 -61.95 0.0002699795    1.148    0.129
       301  -9.9285     82.4536     17.7437   5.2332317838e+01   6.0274684461e+01     0.158316    0.1155887   2.45  0.000314936    1.485    0.327
       302  -9.7509    194.8826     17.1079   3.2831867311e+01   3.4863245757e+01    0.1496515    0.1325992  67.36            0    1.259    0.206
       303  -9.2898    190.4895    226.4833   7.9937602688e+01  -4.8146674274e-01    0.1346609    0.1101931  -0.02 5.670364e-05    1.054    0.051
       304  -9.9295     74.9087     16.1824   5.3961217887e+01   6.1956694014e+01    0.3967599    0.1335817  47.45    0.0016893    2.403    0.584
       305 -10.9313     21.0527    221.6111   1.1732708909e+02   2.4129310692e+01    0.2488141    0.1408709  78.63 0.0009803842    1.676    0.403
       306  -9.9873     66.0433    226.3267   1.0780169117e+02   1.7937621346e+01    0.2042114     0.174313 -60.83 0.0007518453    1.287    0.223
       307 -10.1720    184.2139     15.2328   3.3475629913e+01   3.7427790961e+01    0.1995639    0.1392751  56.97  0.001205247    1.483    0.326
       308 -10.0718     37.9931    217.6932   1.1331900106e+02   2.3231708315e+01    0.1781235    0.1488035  52.86 0.0007325513    1.125    0.111
       309 -11.4204      9.8082    217.3875   1.1943322406e+02   2.6131730445e+01    0.3257148     0.196689  48.86  0.001537331    1.475    0.322
       310 -11.5687     29.6521    215.8535   1.1502948201e+02   2.4543925463e+01    0.3319072    0.2710339  -2.43  0.001543061    1.728    0.421
       311  -9.7964    136.7724    215.8018   8.9913323984e+01   9.8110638864e+00    0.2363674     0.144877  -9.69 0.0009453153    2.745    0.636
       312  -9.9351     61.4614     14.4627   5.7716945863e+01   6.4703243496e+01      0.24457    0.1062099  48.18 0.0007035609    2.048    0.512
       313  -9.8151     31.0909     12.6728   6.9750991241e+01   6.9819599458e+01    0.1619007    0.1187993  15.36 0.0004652887    1.107    0.097
       314 -11.6011    235.9261    214.3433   6.9077708406e+01  -4.7334697485e+00    0.4729017    0.2485551   1.21  0.001681736    2.848    0.649
       315 -10.6761     21.3920    212.5537   1.1660674436e+02   2.6128126459e+01    0.2737665    0.1189824  55.96  0.001285745    2.216    0.549
       316  -9.5989    208.5437    211.9905   7.3760714264e+01  -6.1544616079e-01    0.1938507     0.116413 -35.17  0.000721718    1.545    0.353
       317 -12.1628      5.0200    207.9515   1.1987078383e+02   2.8669591735e+01    0.5381298    0.3038746  81.93  0.003042596    1.573    0.364
       318 -10.4758     10.8176    208.2846   1.1863218824e+02   2.8089608968e+01    0.2242131    0.1759746 -50.69 0.0004216512    1.544    0.352
       319  -9.1709    107.5044     10.5072   4.3444224883e+01   5.5524934648e+01      0.12856    0.1059841  49.62 0.0008103092    1.040    0.038
       320 -10.9161     20.1581    199.9891   1.1592167759e+02   2.9158204941e+01     0.388293    0.1893579 -72.49  0.001945754    1.817    0.450
       321 -10.7409    244.4697    202.6775   6.5475336360e+01  -4.0044725098e+00    0.2697774    0.1479995  46.31  0.001353916    2.745    0.636
       322 -10.4275    175.4036    202.6809   7.8894781497e+01   6.1820372938e+00    0.2348408    0.2062973  24.26 0.0004742971    1.135    0.119
       323 -10.9853     16.6820    193.2436   1.1619492424e+02   3.1078743519e+01    0.3304863    0.2522252  19.82  0.001665078    1.602    0.376
       324 -10.1274    244.7988    188.2247   6.2733007852e+01  -1.7302243061e+00    0.1780994    0.1252403 -13.69 0.0005176284    1.332    0.249
       325  -9.4283    212.4694    188.4911   6.8572493525e+01   2.9263160854e+00    0.1362147    0.1178625 -17.66  0.000278942    1.041    0.040
       326  -9.0640    101.6842    192.2917   9.4676177754e+01   2.0657395820e+01    0.1488866    0.1093939  65.45 0.0003597551    1.597    0.374
       327 -10.8815     16.5660    184.2518   1.1547490361e+02   3.3257960429e+01    0.3615869     0.229923 -83.05  0.001432527    1.379    0.275
       328 -10.2093     15.2947    180.6587   1.1547785395e+02   3.4245027400e+01    0.2247363    0.1842341  48.81 0.0008606359    1.261    0.207
       329 -10.3294    167.7865    183.5985   7.6927470063e+01   1.1316667448e+01    0.2048776    0.1357527  45.24 0.0007183386    1.644    0.392
       330  -9.8207     58.8089    182.1825   1.0440201321e+02   2.9277666416e+01    0.1920296    0.1633053 -36.89 0.0009958545    1.343    0.255
       331  -9.3581      1.5462    180.5269   1.1882584216e+02   3.5367099614e+01    0.1253012    0.1019528 -89.45 0.0001598411    1.011    0.011
       332  -9.9448    244.4869    178.4664   6.0927325155e+01  -7.8700818006e-02    0.2379048   0.09985369 -31.01  0.001025158    2.306    0.566
       333 -10.7415     46.4697    177.8210   1.0712390404e+02   3.1854681590e+01    0.3157509    0.2448696 -83.53  0.001053561    1.215    0.177
       334  -9.2376     69.3509    178.3033   1.0103225016e+02   2.8870933783e+01    0.1468808    0.1090787 -27.27 0.0007040186    1.701    0.412
       335 -10.9007     34.1118    174.0773   1.0997209259e+02   3.4129592734e+01     0.249965    0.1830222 -67.91 0.0004622077    1.234    0.189
       336 -10.6773     18.2517    173.3792   1.1406285898e+02   3.5788719143e+01    0.3507536    0.1910723  57.28  0.001671966    1.925    0.481
       337 -12.3019     37.1218    164.8452   1.0804806289e+02   3.6165499081e+01      0.78858    0.6035049 -72.35  0.004258034    1.170    0.145
       338 -13.0445     49.4570    161.6532   1.0413358123e+02   3.5634221182e+01    0.5346544    0.4248526  43.75   0.00292809    1.313    0.238
       339  -9.4812    177.0256    168.7542   7.1829632134e+01   1.2753254599e+01    0.1844046    0.1249533  37.79 0.0003928823    1.526    0.345
