#   1 NUMBER                 Running object number                                     
#   2 MAG_AUTO               Kron-like elliptical aperture magnitude                    [mag]
#   3 X_IMAGE                Object position along x                                    [pixel]
#   4 Y_IMAGE                Object position along y                                    [pixel]
#   5 X_WORLD                Barycenter position along world x axis                     [deg]
#   6 Y_WORLD                Barycenter position along world y axis                     [deg]
#   7 A_WORLD                Profile RMS along major axis (world units)                 [deg]
#   8 B_WORLD                Profile RMS along minor axis (world units)                 [deg]
#   9 THETA_WORLD            Position angle (CCW/world-x)                               [deg]
#  10 FWHM_WORLD             FWHM assuming a gaussian core                              [deg]
#  11 ELONGATION             A_IMAGE/B_IMAGE                                           
#  12 ELLIPTICITY            1 - B_IMAGE/A_IMAGE                                       
         1 -14.9064    209.9332      6.6578   4.3803100531e+01   3.1261989079e+01     2.546754     1.717066  39.23   0.01064571    1.801    0.445
         2 -14.0369    172.6585     51.9020   6.2532914158e+01   3.5271280619e+01     1.873709     1.281917  31.75  0.005419362    1.728    0.421
         3 -13.7375    191.6155     31.5066   5.3104487868e+01   3.3156240694e+01     0.809319    0.6364815  60.51  0.001332063    1.235    0.191
         4 -14.3079    187.1916     37.6206   5.5607774790e+01   3.3517667678e+01     1.123492     1.001462  48.17   0.00377243    1.145    0.127
         5 -11.5470      7.1525    215.0675   1.3149287567e+02   2.9249880796e+01    0.2181405   0.09749565  27.16  0.001178419    3.741    0.733
         6 -12.9625    247.9065    246.5693   9.2871029044e+01  -1.0352043104e+01    0.6038297    0.4235978 -16.13  0.004400892    1.495    0.331
         7 -14.0543     59.9906    208.3614   1.2183589074e+02   2.4669062863e+01     7.292561      1.52364 -54.74   0.02222129    7.781    0.871
         8 -18.4971     41.7545    240.9349   1.2731201402e+02   2.1011726985e+01     6.911514     5.475876  59.80   0.05484348    1.289    0.224
         9 -10.1743     70.9998    203.9881   1.1935840456e+02   2.4063421046e+01    0.2049885      0.11397  70.76  0.001120541    1.796    0.443
        10 -10.2720    161.3984    200.2085   1.0099429987e+02   1.0036720424e+01    0.1646646    0.1269656 -65.14 0.0004884059    1.615    0.381
        11 -11.9831    152.2945    197.4601   1.0236460670e+02   1.2166948059e+01    0.3485756    0.2873127 -51.92  0.002102663    1.381    0.276
        12 -10.8724     81.6536    195.4482   1.1637531276e+02   2.4259383021e+01    0.3095534    0.2380241 -48.89  0.001919839    1.710    0.415
        13 -11.3005    153.0128    192.2617   1.0138144252e+02   1.2960413699e+01    0.2438669    0.2020564 -66.06  0.000725552    1.393    0.282
        14 -10.2549    207.3101    192.3082   9.0760468935e+01   2.8451663957e+00    0.1356569   0.09412305  12.26 0.0002499823    1.618    0.382
        15 -13.4753     72.8703    185.0708   1.1698868351e+02   2.7622372640e+01    0.8145522    0.6441828 -68.06  0.005263714    1.313    0.238
        16 -12.1754     70.4364    209.8601   1.2002614230e+02   2.3007932763e+01    0.2966419    0.1666351  47.22 0.0004823506    1.545    0.353
        17 -10.6808     65.4139    187.2325   1.1875528433e+02   2.8182860005e+01    0.2416371     0.149325  39.90 0.0006192096    1.681    0.405
        18 -11.3957    153.9375    185.6495   1.0008416989e+02   1.3990165201e+01    0.3607303    0.2454355 -60.54  0.001372661    1.756    0.430
        19 -10.4723     75.7683    206.9526   1.1874018510e+02   2.2834368966e+01    0.2578102     0.172374 -64.64 0.0004186255    1.598    0.374
        20 -11.5228     99.4520    180.8938   1.1085482159e+02   2.4526353186e+01    0.2524016    0.2212521  70.87 0.0005767143    1.032    0.031
        21 -11.9903    147.8309    185.3699   1.0130051352e+02   1.5183723673e+01    0.3236659    0.2451622  59.72  0.001055574    1.320    0.243
        22 -10.2730    152.1761    210.2220   1.0433526967e+02   1.0000455062e+01    0.1718215    0.1393767  69.54 0.0006815656    1.339    0.253
        23 -19.0852     20.6976    101.0720   1.1870402709e+02   5.2315569536e+01     15.74424     0.808529 -68.11   0.02783352   14.659    0.932
        24 -11.0252    204.4556    176.1039   8.8188612704e+01   5.8993755998e+00    0.3906983    0.2840193 -46.64  0.001251364    1.609    0.379
        25  -9.9696    197.3824    176.9501   8.9721635669e+01   7.1327900607e+00    0.2771752    0.1871778  35.67  0.001006458    1.377    0.274
        26 -12.3923    141.6261    173.2572   1.0052082264e+02   1.8682434445e+01    0.5863067    0.3800824  47.47  0.002921759    1.430    0.300
        27  -9.3822     64.4334    170.4632   1.1707385477e+02   3.1876093029e+01    0.1270178    0.1042257  83.80 4.016411e-05    1.009    0.009
        28 -12.0484     96.3096    200.4427   1.1402878259e+02   2.1089935980e+01     0.423748    0.3683106 -16.33  0.001652376    1.823    0.452
        29  -9.7256    162.6707    167.9948   9.5028472283e+01   1.5606552319e+01    0.1908393    0.1831961 -62.40 0.0004625949    1.122    0.109
        30  -9.9652     94.0779    189.1426   1.1308793609e+02   2.3676778838e+01    0.1759897     0.167431  70.11 0.0004944557    1.231    0.188
        31 -11.7827     97.4309    194.2202   1.1304169039e+02   2.2138012687e+01    0.3482159    0.2456941 -48.26  0.001721799    1.776    0.437
        32  -9.7485      2.4315    161.8895   1.2934624905e+02   4.0175935038e+01    0.1468998    0.1149947  70.04 0.0003387883    1.202    0.168
        33  -9.1430    117.2466    161.6653   1.0389006834e+02   2.5584627731e+01    0.1393611    0.1033008  85.68 0.0003007532    1.554    0.356
        34 -10.4081    236.8362    158.3826   7.8552356439e+01   2.4441665878e+00     0.193222    0.1166963  32.59 0.0004479669    1.669    0.401
        35 -10.7162    188.2921    154.2595   8.6842888680e+01   1.2910029458e+01    0.6760693    0.2932751  36.35  0.002457767    2.608    0.617
        36 -11.6649    133.9485    145.8930   9.7000581935e+01   2.5840430912e+01     1.221827    0.3151469 -55.06  0.003028671    5.731    0.825
        37 -10.4597    113.1986    151.4737   1.0299651522e+02   2.8528631386e+01    0.2643687    0.2107505 -83.24 0.0005503009    1.318    0.241
        38  -9.7146      1.7044    151.4012   1.2876432294e+02   4.2460740915e+01    0.2237793    0.1034077  88.85   0.00125521    1.804    0.446
        39 -10.6538    174.3504    148.7966   8.8556131681e+01   1.6881432288e+01    0.3289941    0.2765728 -74.40  0.001683927    1.458    0.314
        40 -11.4259    143.9104    146.4390   9.4800265618e+01   2.3727224728e+01    0.4187923    0.2232415 -56.62  0.001691977    2.142    0.533
        41 -10.0846    115.9278    144.6552   1.0104272297e+02   2.9546269938e+01    0.2593949    0.1906505 -88.51 0.0007005385    1.633    0.388
        42 -12.0140    108.7469    139.0078   1.0168194976e+02   3.2112338321e+01    0.6035454    0.3550437 -38.54   0.00260902    2.119    0.528
        43  -9.3951    128.4677    139.5166   9.6965629834e+01   2.8303490155e+01    0.1467914    0.1409746  85.45 0.0008095643    1.005    0.005
        44 -12.5615     97.3693    138.1692   1.0435649320e+02   3.4266759097e+01    0.2665583    0.2495573 -88.30  0.000435293    1.040    0.038
        45 -11.5245    105.9218    130.8159   1.0072069704e+02   3.4478384623e+01    0.3812095    0.3091236 -70.45  0.001201392    1.220    0.180
        46 -11.3856    103.4753    125.3482   1.0018963274e+02   3.6163750343e+01    0.2980068    0.2440424 -34.48 0.0007787503    1.391    0.281
        47 -10.9579    135.8540    127.4422   9.2478297610e+01   2.9456208738e+01    0.5917364    0.2079824 -48.66  0.001949422    2.865    0.651
        48 -10.8671    115.6691    129.3936   9.7938532730e+01   3.3018463035e+01     0.313596    0.2679884 -14.63 0.0008245711    1.480    0.324
        49 -10.2303    160.6595    127.6566   8.6686584046e+01   2.4074832654e+01    0.3226053    0.2445224 -63.90  0.001496282    1.550    0.355
        50 -10.5788    120.2991    123.6085   9.5460643617e+01   3.3433319628e+01    0.3195808    0.2138807 -19.90 0.0008596396    2.418    0.586
        51  -9.6526    135.0000    119.8810   9.0876570768e+01   3.1280741340e+01    0.2521883   0.08602633 -46.34 0.0007956467    2.896    0.655
        52 -10.1520    110.8740    118.6120   9.6738463619e+01   3.6359253799e+01    0.2267156    0.1959383 -44.04 0.0004143287    1.168    0.144
        53 -10.4183    168.0831    112.8824   8.1292182049e+01   2.5381245573e+01    0.3569534    0.2802312 -81.64   0.00121715    1.676    0.403
        54 -11.5882    119.4620    110.5886   9.2529342300e+01   3.6507716993e+01    0.5541147    0.3608506  69.31  0.002289505    2.188    0.543
        55 -10.4189    205.4499    110.1546   7.2910364386e+01   1.7131778467e+01     0.323164    0.2168104  41.02 0.0009559322    1.556    0.357
        56 -10.2889    134.5690    104.8093   8.7116088969e+01   3.4630431923e+01    0.3908374    0.1476026 -46.35  0.001299212    2.615    0.618
        57  -9.9229    111.4744    104.4582   9.3099800950e+01   3.9435224295e+01     0.149176    0.1421336 -56.64 7.167392e-05    1.002    0.002
        58 -12.6023    165.7825     66.1543   6.8366375817e+01   3.4735277479e+01    0.8465777    0.5719159 -59.02 0.0007197557    1.807    0.447
        59 -11.1115    157.8919    235.9257   1.0680782390e+02   5.0330081576e+00    0.2281516    0.1799141 -49.75 0.0009776712    1.596    0.373
        60 -11.3444     71.6754    230.8499   1.2163651516e+02   1.9008743878e+01    0.2432345    0.1453555  62.70 0.0006506601    1.353    0.261
        61 -12.3563    196.4569    197.1777   9.3686475795e+01   4.0954794876e+00     1.263801    0.8920037  66.01  0.006515713    2.076    0.518
