#   1 NUMBER                 Running object number                                     
#   2 MAG_AUTO               Kron-like elliptical aperture magnitude                    [mag]
#   3 X_IMAGE                Object position along x                                    [pixel]
#   4 Y_IMAGE                Object position along y                                    [pixel]
#   5 X_WORLD                Barycenter position along world x axis                     [deg]
#   6 Y_WORLD                Barycenter position along world y axis                     [deg]
#   7 A_WORLD                Profile RMS along major axis (world units)                 [deg]
#   8 B_WORLD                Profile RMS along minor axis (world units)                 [deg]
#   9 THETA_WORLD            Position angle (CCW/world-x)                               [deg]
#  10 FWHM_WORLD             FWHM assuming a gaussian core                              [deg]
#  11 ELONGATION             A_IMAGE/B_IMAGE                                           
#  12 ELLIPTICITY            1 - B_IMAGE/A_IMAGE                                       
         1 -12.8468    230.0854     70.0114   5.1122770197e+01   1.9617578937e+01      1.51039    0.6766201 -34.04  0.005970571    1.865    0.464
         2 -13.7097    246.3303     89.8600   5.3874595259e+01   1.3856212666e+01     2.003479    0.9190066 -30.18  0.007374802    1.818    0.450
         3 -12.4454    211.1006     32.1504   4.3384990636e+01   2.8586731602e+01    0.9753934    0.7142415 -43.56  0.003969195    1.207    0.171
         4 -11.6648    218.0497     25.9492   4.1061830734e+01   2.7706273934e+01    0.5228576    0.3815466  14.27  0.001449368    1.863    0.463
         5 -12.4502    230.3984     13.4857   3.6886349785e+01   2.6291877473e+01    0.7041772    0.5612271 -48.43  0.002705815    1.048    0.046
         6 -10.2987    124.1939      4.6361   4.5272472484e+01   5.3854014286e+01    0.3273792    0.2154086 -71.96  0.001219088    1.775    0.437
         7 -11.2410     41.5875    236.5314   1.1880320476e+02   2.1732868705e+01     0.229806    0.1661021  55.77 0.0002914484    1.066    0.062
         8 -13.3157    141.8564    248.1226   1.0053806736e+02   7.9558534653e+00     1.196914    0.4972393  33.68  0.004827932    1.805    0.446
         9 -12.7323    154.7266    238.2181   9.7069927688e+01   7.5776263360e+00    0.5641648    0.4005528  42.36  0.003043169    1.340    0.254
        10 -14.5876    217.7795    239.6594   8.6250513643e+01  -6.0501147391e-01     1.909632      1.07028  -5.19   0.01182735    1.933    0.483
        11 -15.1194    174.5545    246.0587   9.4410884961e+01   4.0354381666e+00     1.638804     0.730045  35.04  0.008889286    1.707    0.414
        12 -13.8855    189.7533    234.1985   9.0243896739e+01   3.4831214084e+00     1.228289    0.5671756  36.08  0.007169933    1.761    0.432
        13  -9.4539     62.1689    236.3452   1.1480021969e+02   1.9537900259e+01    0.2052877    0.1397516  81.60  0.001005455    1.585    0.369
        14 -12.5674     92.0607    249.3440   1.0995443586e+02   1.4008622284e+01     1.739695    0.3778554  29.17  0.004952028    7.611    0.869
        15 -12.8065     35.1918    247.5323   1.2048200343e+02   2.0580061349e+01     1.858566    0.3795821  37.42  0.009116975    2.714    0.632
        16 -12.6999     88.3706    228.5996   1.0902030887e+02   1.7698508772e+01    0.9035454    0.3973326  55.82  0.002736275    2.470    0.595
        17 -12.8658      3.7696    183.7747   1.2451667446e+02   3.5183476157e+01     1.219587    0.5384107  77.28  0.006695588    1.969    0.492
        18 -12.9006     19.6800    220.6352   1.2242079759e+02   2.6659120994e+01     1.040363    0.3488663  62.69  0.005299208    2.592    0.614
        19 -15.1655     34.1047    188.5430   1.1780529851e+02   3.1484055392e+01      8.17775     2.593155  73.45   0.02737573    5.221    0.808
        20 -12.1815    126.6575    230.2175   1.0153050797e+02   1.2449518853e+01    0.5320218    0.2929108  44.10  0.003166033    1.540    0.351
        21 -11.4457     30.1717    219.5202   1.2027219399e+02   2.5860253061e+01    0.4899786    0.2340168  71.02  0.002523276    1.973    0.493
        22 -12.0614    171.5688    223.3316   9.2073864193e+01   7.2697653561e+00    0.5151603    0.3770651  -8.60   0.00348685    1.495    0.331
        23 -12.4612    176.8834    212.8418   8.9621705555e+01   7.9372168683e+00    0.8017219    0.6089281  51.10  0.004388255    1.684    0.406
        24 -12.0465    188.1615    210.3741   8.7171352794e+01   6.6678160139e+00    0.5843194     0.350863  41.53  0.001955409    1.655    0.396
        25 -10.3922     33.5901    227.2937   1.1993564636e+02   2.4132329024e+01    0.2140292    0.1203136 -70.41  0.001104199    2.053    0.513
        26 -10.3564     48.6340    224.8111   1.1680489904e+02   2.3003822476e+01    0.1999636    0.1608314  39.77 0.0003766389    1.205    0.170
        27  -9.6215     94.2027    221.5743   1.0720786646e+02   1.8127502952e+01    0.1797611    0.1444026  64.62 0.0008146976    1.264    0.209
        28 -14.2715    208.2487    222.4163   8.5407761350e+01   2.4567885538e+00     1.227778    0.8466002   2.86  0.007253882    1.295    0.228
        29 -14.0850      6.0996    239.6945   1.2554606381e+02   2.4565782908e+01      1.97136     1.000404 -87.15   0.01372827    2.005    0.501
        30 -10.3677    147.1402    203.7045   9.4147901107e+01   1.3636084451e+01    0.4427546    0.2815617 -52.55  0.002559683    1.960    0.490
        31 -10.1785    151.9819    199.0128   9.2488109289e+01   1.3652294204e+01    0.3972979    0.2052595  32.71  0.002040043    1.685    0.407
        32  -8.1336     61.3052    199.6035   1.1238710112e+02   2.6255610182e+01    0.1339645   0.07125405  61.06 0.0007003666    1.829    0.453
        33 -13.1703    175.4064    184.2085   8.5436848759e+01   1.2327179027e+01     1.322331    0.8018789  46.12  0.004906445    1.743    0.426
        34 -13.8202      9.2063    207.5582   1.2409849005e+02   3.0017358590e+01     1.183488     1.023797   0.53  0.006696312    1.704    0.413
        35 -10.9528     59.0564    180.9910   1.1131475651e+02   3.0312443880e+01    0.3472984    0.2559361 -29.69  0.001979928    2.037    0.509
        36 -10.8930     64.7275    175.1456   1.0935663847e+02   3.0863268809e+01    0.2593561    0.2332532 -31.76 0.0006600481    1.441    0.306
        37 -10.4841    202.4072    167.1945   7.7261397233e+01   1.0536878368e+01    0.9359145      0.49556  16.70  0.004122665    2.663    0.624
        38 -11.9549    193.5354    170.3642   7.9489935624e+01   1.1512112577e+01    0.6110197    0.5277352  -8.25  0.003168514    1.098    0.089
        39 -11.7570    188.1595    169.1678   8.0287341185e+01   1.2579292400e+01     0.532033    0.4018737  35.36  0.002585094    1.262    0.208
        40 -11.3272    246.2467    171.2579   7.0760189091e+01   3.3806855383e+00    0.4514978    0.3444986  35.91  0.002338397    1.517    0.341
        41 -11.0647     38.7136    232.0454   1.1914831699e+02   2.2789314811e+01    0.3445038    0.2120341  22.34 0.0002996849    1.872    0.466
        42 -10.4969     74.7084    165.2106   1.0571198937e+02   3.1727008122e+01    0.2291956    0.2243699 -83.30 0.0003011338    1.174    0.148
        43 -12.3910    190.5398    157.9985   7.7697721841e+01   1.3919850778e+01    0.9320031    0.7224297  25.47   0.00387756    1.201    0.167
        44 -12.5232     61.7926    161.4641   1.0864609212e+02   3.4252179459e+01    0.4576805    0.2871694 -44.08  0.001683004    2.060    0.515
        45 -11.2343     81.9503    158.4832   1.0294676850e+02   3.2209218676e+01    0.5174584    0.4498872 -22.06  0.001152816    1.464    0.317
        46 -10.6631     73.6719    154.4796   1.0461354459e+02   3.4279718361e+01    0.5800943    0.2841264  55.22  0.002502762    2.206    0.547
        47 -12.1830    126.2412    245.6609   1.0319179176e+02   1.0284748566e+01    0.4785883    0.3916016 -45.30  0.003710712    1.611    0.379
        48 -13.3179     68.6171    245.6530   1.1413620490e+02   1.7312633279e+01     1.242069    0.4690642  33.30  0.004215559    2.058    0.514
        49 -12.9810    248.8062    130.5127   6.2422929644e+01   8.0983892904e+00     1.546062    0.4247004 -32.16  0.006075302    3.063    0.674
        50 -12.4164     30.8088    208.9550   1.1964788276e+02   2.7762323506e+01    0.5025989    0.3799628 -32.42  0.001051076    2.137    0.532
        51 -12.7504    117.1290    230.5727   1.0344607796e+02   1.3667535754e+01    0.9520626    0.2035789  37.46  0.003725859    3.297    0.697
        52 -11.2312     70.3067    145.3338   1.0428858907e+02   3.6863390417e+01    0.5516207    0.3696795 -43.40  0.001434584    1.808    0.447
        53 -11.6513     67.5194    142.4990   1.0468151044e+02   3.7912018033e+01    0.5072145    0.3829281  46.74  0.001438951    1.245    0.197
        54  -9.7751    200.0708    142.8627   7.2831863677e+01   1.4621819791e+01    0.2961402    0.2630031  39.03  0.001502432    1.244    0.196
        55  -9.0406     96.9379    144.0313   9.6690150234e+01   3.3172189156e+01    0.2174489    0.2046649  53.13 0.0007794143    1.033    0.032
        56 -11.3263     84.8979    142.4979   9.9753073894e+01   3.5417263239e+01    0.2736163    0.2452948 -48.16 0.0004284789    1.233    0.189
        57 -10.4756     32.9454    143.3046   1.1473441829e+02   4.1724411012e+01    0.3415906    0.2494373   9.09  0.001941059    1.786    0.440
        58 -11.9380    217.6926    137.4005   6.8606676424e+01   1.2332010722e+01     1.142835    0.6140492 -22.46  0.005489587    1.926    0.481
        59 -12.1842    222.7064    133.8295   6.7026890932e+01   1.1978790558e+01     1.885595    0.5033555 -30.12  0.006150508    4.100    0.756
        60 -10.7349    140.1248    138.3900   8.4494978098e+01   2.6699468515e+01    0.5066704    0.3573777  34.44  0.002511441    1.400    0.286
        61  -8.5541    100.1799    140.2272   9.5135041141e+01   3.3499637916e+01    0.2414699    0.1565492 -16.86 0.0009582333    2.850    0.649
        62 -10.9758     58.9760    134.7065   1.0608841975e+02   4.0904228253e+01    0.5167054    0.1892997 -79.57  0.001603763    4.275    0.766
        63  -9.7466    107.3032    131.7028   9.1554918031e+01   3.4202856128e+01    0.4233988    0.2563185  45.50  0.001811018    1.606    0.377
        64  -9.3964    140.9060    128.3429   8.2124617994e+01   2.8583676398e+01     0.285458    0.2178106 -36.59  0.001195344    1.368    0.269
        65  -9.5614     95.7346    128.3131   9.4133039559e+01   3.6985004454e+01    0.2654699    0.2368256 -12.17    0.0014431    1.341    0.254
        66 -10.6830    122.4740    225.8216   1.0188457681e+02   1.3681276660e+01    0.3129681     0.193852  36.96  0.001807771    1.264    0.209
        67  -8.7026    105.8951    120.1898   8.9527590917e+01   3.7076934478e+01    0.1875122    0.1715132  -7.38 0.0003256851    1.251    0.201
        68 -12.1052    215.9864     99.5757   6.0293726640e+01   1.8272069045e+01    0.9811902    0.8377004  54.40  0.005826904    1.337    0.252
        69 -12.4533    225.9344    111.8306   6.1661467788e+01   1.4570053074e+01    0.7112995    0.5159834 -53.16  0.003495647    1.698    0.411
        70 -11.6942    223.1104    105.1870   6.0550214192e+01   1.6060063541e+01    0.5025862    0.4019982  -4.60  0.002289418    1.258    0.205
        71  -9.7428    168.6655    113.5419   7.2304613816e+01   2.5756054015e+01    0.2530275    0.1761545 -57.83  0.001126516    1.773    0.436
        72  -9.6558    184.2383    111.9025   6.8767287660e+01   2.2784421230e+01    0.2890453    0.1813959  22.72  0.001250905    2.128    0.530
        73 -10.5972    205.2846    109.8840   6.4489008886e+01   1.8826782913e+01    0.3972561    0.3436762  33.07  0.001594507    1.205    0.170
        74  -8.5162    134.4826    102.5177   7.7419099993e+01   3.5243306274e+01    0.1506204    0.1486858   0.33 8.592915e-05    1.020    0.020
        75  -8.6206     24.5664     82.5279   1.1021808788e+02   5.7711603533e+01    0.1344905    0.1166875 -78.02 8.278628e-05    1.021    0.020
        76 -12.5028    248.4258    151.2529   6.6652713286e+01   5.5170552618e+00    0.9852741    0.3768548 -31.78  0.004098451    2.272    0.560
        77 -10.2693     13.3393     60.3546   1.1142038541e+02   6.4089565142e+01    0.2524301    0.2026091 -65.55  0.000631576    1.056    0.053
        78  -9.1482     40.1590     58.5305   9.7857203190e+01   6.2209605556e+01    0.2561006    0.1718652  51.18  0.001280632    1.774    0.436
        79 -11.0878    248.8300     51.0146   4.4562622400e+01   1.8286518346e+01    0.6649016    0.2603529 -39.27  0.003066184    2.018    0.505
        80 -12.1257    248.8801    110.6681   5.8194312684e+01   1.0674384960e+01    0.9808339    0.5027658 -36.59  0.005099643    1.701    0.412
        81  -9.9010    135.6926     42.4111   5.8021953080e+01   4.6150240427e+01    0.2990701    0.2340687 -59.78 0.0005064294    1.390    0.280
        82 -12.3425    203.0552     38.0723   4.5886710119e+01   2.9752653278e+01    0.5828176    0.5337424 -48.57  0.002076601    1.018    0.018
        83 -11.4816    119.6118    243.6416   1.0424940712e+02   1.1415599017e+01    0.2593865    0.1536529  45.07  0.001684671    1.411    0.291
        84 -13.6712    195.2085    245.1935   9.0729931960e+01   1.5500301297e+00    0.7780841    0.4720116  31.46  0.003530778    1.301    0.232
        85 -10.2858     52.6368    241.1241   1.1691731568e+02   1.9806015624e+01    0.2788954     0.166956 -42.91  0.001248161    2.926    0.658
