#   1 NUMBER                 Running object number                                     
#   2 MAG_AUTO               Kron-like elliptical aperture magnitude                    [mag]
#   3 X_IMAGE                Object position along x                                    [pixel]
#   4 Y_IMAGE                Object position along y                                    [pixel]
#   5 X_WORLD                Barycenter position along world x axis                     [deg]
#   6 Y_WORLD                Barycenter position along world y axis                     [deg]
#   7 A_WORLD                Profile RMS along major axis (world units)                 [deg]
#   8 B_WORLD                Profile RMS along minor axis (world units)                 [deg]
#   9 THETA_WORLD            Position angle (CCW/world-x)                               [deg]
#  10 FWHM_WORLD             FWHM assuming a gaussian core                              [deg]
#  11 ELONGATION             A_IMAGE/B_IMAGE                                           
#  12 ELLIPTICITY            1 - B_IMAGE/A_IMAGE                                       
         1 -12.9070    227.4225     53.7735   3.1624254770e+01   2.3054327385e+01     2.409312     1.038295 -38.57   0.01139955    1.961    0.490
         2 -14.1427    118.7809     59.7141   5.1276086679e+01   4.7125083195e+01     2.826528     1.231142 -25.32  0.007267264    4.082    0.755
         3 -15.3676    205.5298     61.9679   3.6037426120e+01   2.6467992367e+01     2.816047      2.05609 -72.10   0.01565648    1.385    0.278
         4 -14.4919    194.5571     43.8488   3.2924601850e+01   3.1518621995e+01     2.255313     1.775177  -1.45   0.01241677    1.865    0.464
         5 -13.9150    173.7653     42.5409   3.5311439093e+01   3.6551054018e+01     1.884269     1.222369  11.97  0.007901587    3.091    0.677
         6 -13.2977    163.1016     36.8991   3.5274428224e+01   3.9881368557e+01      1.17251    0.6204485  61.28  0.005454165    1.790    0.441
         7 -11.4298     86.0430     21.6549   4.6061339395e+01   6.0234354028e+01     1.362357    0.2464331  53.07  0.003759708    4.274    0.766
         8 -11.7668     37.4424     26.3193   6.7666986380e+01   6.8612533716e+01     1.008835    0.6547197 -12.75  0.005443784    1.773    0.436
         9 -11.8441     72.0137     15.7022   4.7820301024e+01   6.3947169161e+01    0.3271889    0.3030264  72.59 0.0006917641    1.254    0.202
        10 -14.8931     26.8775     59.8451   8.5638768882e+01   6.3299956579e+01     1.891125     1.821857  17.77   0.01251708    1.169    0.144
        11 -12.1661     71.2386     31.9363   5.5389435467e+01   6.1939470349e+01    0.8407775    0.4709566  15.06  0.002316638    3.384    0.704
        12 -13.5205     13.7600     36.6319   8.5140537392e+01   6.9383204400e+01     1.470733    0.6266467 -39.99  0.004506383    2.105    0.525
        13 -12.8895      2.5851     36.1938   9.1580442920e+01   7.0249255103e+01     1.198526    0.4024341 -54.03  0.004883582    2.236    0.553
        14 -14.1694     50.7045     45.3335   6.9403121873e+01   6.3299988813e+01     1.805681    0.7639983 -31.42   0.00598123    3.337    0.700
        15 -13.6586     62.3064     33.1160   5.9348072092e+01   6.3455939277e+01       1.3175    0.7763492 -18.07  0.006011902    2.229    0.551
        16 -13.4549    140.5756     55.6953   4.4937718823e+01   4.2616928594e+01     1.591524     1.161255  74.20  0.007917809    1.442    0.306
        17 -13.4032    210.0422     44.1765   3.1237270146e+01   2.8027661250e+01     1.274589    0.7651693 -38.76  0.006819121    1.523    0.343
        18 -12.7656     49.8596     27.8263   6.2326892828e+01   6.6454949508e+01    0.9991287     0.624179   7.41  0.004849777    2.185    0.542
        19 -13.0596     26.5921     35.8186   7.7595323281e+01   6.8301809994e+01    0.3529798    0.2589009  -8.27 0.0005983457    1.369    0.269
        20 -11.3216    103.8624     28.0798   4.3814835352e+01   5.5389576412e+01     0.422075    0.2579789 -42.44  0.001883131    1.773    0.436
        21 -12.4840    150.8770     43.4786   3.9207815634e+01   4.1957320908e+01     1.205755    0.8385872  69.01  0.006161202    1.389    0.280
        22 -11.5164    201.0047     20.8203   2.6520549916e+01   3.2970519521e+01    0.3708761    0.2597362  64.73  0.002195596    1.495    0.331
        23 -10.7965     49.2023     18.5242   5.8151687080e+01   6.7940569349e+01    0.5660452    0.4160078  39.25  0.003409692    1.304    0.233
        24 -10.4397    173.7037     18.2210   2.8621390152e+01   3.9598793632e+01    0.2331861    0.1731057 -62.30 0.0007093588    1.244    0.196
        25 -11.3116     65.4717     13.4946   4.9046250049e+01   6.5539327200e+01    0.2694364    0.2406294  55.28  0.001740612    1.213    0.176
        26 -10.6926     30.6247     19.8784   6.8219054423e+01   7.0598494396e+01    0.3723371    0.3336946  25.66  0.002555968    1.264    0.209
        27 -10.3103     94.1030     10.9493   3.9356557871e+01   5.9604682884e+01     0.375363    0.2675371 -66.25  0.002019956    1.815    0.449
        28  -9.8990     89.0935     12.2941   4.1196139252e+01   6.0610530891e+01    0.1769351    0.1456979  57.15 0.0003829149    1.111    0.100
        29 -10.5482     53.9277     10.9776   5.2242852540e+01   6.8066904079e+01    0.2727448    0.1798696 -40.61 0.0009985826    1.776    0.437
        30 -10.6481     48.7730      8.8893   5.3337808137e+01   6.9256486384e+01    0.2558832    0.1573365  49.21 0.0007729623    1.618    0.382
        31 -10.5274    116.3433      9.1850   3.3961685072e+01   5.4510728785e+01    0.5058616    0.2057985  53.67  0.002196086    2.138    0.532
        32  -9.5717     60.6564      5.2817   4.6667956602e+01   6.7399939711e+01    0.1746267    0.1139023  81.05 0.0003652739    2.667    0.625
        33 -10.3965      2.3913      6.8044   7.9866489169e+01   7.5778747908e+01    0.2429854    0.1362776   3.57  0.001431593    1.830    0.454
        34 -10.4984     67.4115      3.7303   4.3557066092e+01   6.6176477932e+01    0.2431242     0.165898  33.84  0.001412259    1.369    0.269
        35  -9.9107     73.3597      3.2575   4.1476267794e+01   6.4962767185e+01    0.3236583    0.1259958  57.98 0.0009316893    2.253    0.556
        36 -10.1545     94.0311      1.9902   3.5598104959e+01   6.0447239248e+01    0.1902776    0.1388027 -55.40  0.001085011    1.640    0.390
        37 -12.3379    124.6776    101.0396   6.2110501889e+01   3.7649525566e+01     0.347689    0.2591182  40.20 0.0004342416    1.398    0.285
        38 -10.1194    228.9962    249.9950   6.9413327033e+01  -7.0093147304e+00    0.1718856    0.1024181  -2.47 0.0005766256    1.598    0.374
        39 -12.3620    165.4079    248.1170   8.0659429740e+01   1.0408377069e+00    0.3826514    0.2907378   6.87   0.00255547    1.251    0.201
        40 -13.7355    110.1596    240.8062   9.0994557171e+01   9.8056483131e+00     0.690255     0.437133  30.86   0.00252888    1.385    0.278
        41 -13.7404    110.4638    249.1642   9.1826628456e+01   8.3033646343e+00    0.9978626    0.4225297  45.96  0.004819003    2.139    0.533
        42 -13.1407     38.1622    247.8507   1.0651829299e+02   1.7542180898e+01    0.5590284    0.5301259  78.27  0.004361563    1.320    0.242
        43 -11.9030     87.0705     97.8146   7.2408517675e+01   4.5939108383e+01    0.3681574    0.3078907 -24.24 0.0005264467    1.349    0.259
        44 -11.4375    170.3666     97.9866   5.0776364864e+01   2.8152334527e+01    0.3859132    0.3202296  17.41  0.001970395    1.532    0.347
        45 -11.9438    139.2252     98.0344   5.7600386651e+01   3.5096757171e+01    0.3849597    0.2219257  51.86            0    1.781    0.439
        46 -13.2689    106.5533     92.3943   6.4803946440e+01   4.3367655395e+01    0.9393476    0.4487472 -55.29  0.003435158    2.389    0.581
        47 -11.3227     59.7023     97.0616   8.1758398613e+01   5.0597578068e+01    0.2035063    0.1822998 -55.53 0.0003797782    1.054    0.051
        48 -10.2057     11.4947     97.5416   1.0027721919e+02   5.5494044814e+01    0.1317976    0.1135895 -67.27 3.563981e-05    1.006    0.006
        49 -12.1567    123.6693     95.5050   6.0861688854e+01   3.9056215571e+01    0.2956285    0.2645238  43.20 0.0008688194    1.145    0.126
        50 -12.5210    127.4428     90.3598   5.8422668353e+01   3.9303283036e+01    0.4593094     0.304505  22.21  0.001855636    2.280    0.561
        51  -9.7745    166.5200     95.5014   5.0901256113e+01   2.9478922005e+01    0.1478426    0.1408722 -57.57 0.0002231371    1.020    0.020
        52 -10.5593    157.6783     95.5251   5.2734019478e+01   3.1459216574e+01    0.3457801    0.1500936  54.48 0.0008711331    2.454    0.592
        53 -14.5012    191.9256     83.4627   4.3270668881e+01   2.6001220866e+01     2.041226     1.734895 -20.79   0.01009702    1.353    0.261
        54 -12.0644    133.5336    247.4992   8.6920262199e+01   5.4476275316e+00    0.2028681    0.1672959  31.39  0.001124543    1.014    0.013
        55 -14.6325    165.7937     79.8498   4.6898447828e+01   3.2524055902e+01     2.421006     1.637922 -15.59  0.009442147    2.166    0.538
        56 -14.3755    136.5954     71.6548   5.0690872863e+01   4.0837087840e+01     1.836676    0.8890565  49.10   0.00730597    2.066    0.516
        57 -13.8970    152.8462     64.0491   4.4967943385e+01   3.8300946902e+01     1.268898     1.087855  22.19  0.006755468    1.449    0.310
        58 -13.5199     83.2990    247.4379   9.7275804349e+01   1.2196020390e+01     0.723022    0.4088989  27.37  0.003994158    1.733    0.423
        59 -13.7794     86.1038    238.8764   9.5899509410e+01   1.3412718668e+01    0.7369062    0.5109849  32.24  0.004479181    1.306    0.234
        60 -11.2928     98.6979     92.6887   6.7273118145e+01   4.4895153426e+01    0.2564332    0.2369791  -5.21 0.0002497771    1.191    0.160
        61 -11.9919     94.9181     89.4482   6.7535548462e+01   4.6364224076e+01     0.511426     0.379265  32.87  0.001152238    1.443    0.307
        62 -12.1903    116.0509     89.4141   6.1214407890e+01   4.2000271338e+01    0.3677544    0.2975869 -16.15 0.0001431995    1.522    0.343
        63 -13.6804    123.1498     84.9310   5.7979725200e+01   4.1369309532e+01     1.028749    0.6652802  -2.43  0.003554937    3.433    0.709
        64 -13.1134     52.7097     89.9702   8.2640199088e+01   5.3294523810e+01    0.4539253    0.4215416 -12.16 0.0003901637    1.132    0.116
        65 -11.3720     52.9767     86.3151   8.1604493240e+01   5.4136700386e+01    0.2177131    0.2058357  -5.43 0.0002912297    1.102    0.093
        66  -9.7591      9.6159     92.7342   1.0029368042e+02   5.6814298760e+01    0.1367884   0.08314779 -38.17 0.0006985223    1.693    0.409
        67 -11.4654     40.2701     90.3307   8.7598405426e+01   5.4743688601e+01    0.2465177    0.1890363 -56.49 0.0005812309    1.184    0.155
        68 -11.9499     38.4813     86.5592   8.7448496019e+01   5.5865456840e+01    0.3368546    0.3074887 -12.44 0.0005683248    1.159    0.137
        69 -10.5133    166.9108     90.0045   4.9389175425e+01   3.0422366856e+01     0.348188    0.2098404  63.42 0.0009309942    1.866    0.464
        70 -12.9820    178.1242    236.9753   7.6664661006e+01   1.0039316281e+00    0.4072775    0.3264921 -52.87  0.002693226    1.674    0.403
        71 -12.0122    138.7978     87.9891   5.4929330094e+01   3.7223747036e+01    0.3104215     0.253039 -53.03            0    1.219    0.179
        72 -12.3378    139.7207     80.8910   5.2686582752e+01   3.8389976277e+01    0.5743063    0.3078552 -40.47  0.002367436    1.861    0.463
        73 -12.9583     66.4116     82.9168   7.5521697085e+01   5.2946380842e+01    0.6429283    0.5305379  68.92  0.002187703    1.457    0.314
        74 -11.8198    236.2322     86.4767   3.7823870806e+01   1.6518186495e+01    0.3796347     0.254936  61.15  0.001086749    1.738    0.425
        75 -11.8207    177.6365     85.9199   4.6312520664e+01   2.8744016622e+01    0.4188845    0.3375929 -76.65  0.002198417    1.342    0.255
        76 -12.2797    182.3318     81.1145   4.4258330414e+01   2.8529186751e+01    0.4585501    0.3855012  18.38  0.001716398    1.561    0.359
        77 -12.3802    148.2568     82.2745   5.1154761100e+01   3.6149720721e+01    0.6219891    0.3735495 -41.87  0.001377719    1.635    0.388
        78 -13.6112    171.2943     55.3985   3.9233762950e+01   3.5273400722e+01     1.495238    0.7623338  62.37   0.00545416    1.949    0.487
        79 -13.7778     58.5182    244.5107   1.0216948971e+02   1.5830441848e+01    0.7076592    0.4572367  59.47   0.00441872    1.355    0.262
        80 -11.1487      5.4640     84.5872   1.0072551194e+02   5.9066245933e+01    0.2736673    0.1100837 -71.60  0.000775368    2.134    0.531
        81 -12.2603     72.2439     75.9974   7.1288485014e+01   5.3531525090e+01    0.5692065    0.2029297  40.15  0.001780314    2.839    0.648
        82 -10.2009     81.1675     82.8220   7.0164234419e+01   5.0442759981e+01    0.2765575    0.2286751 -83.95  0.000298609    1.470    0.320
        83 -11.0233     81.0132     78.8635   6.9021596533e+01   5.1342565246e+01     0.807154     0.457922 -77.95  0.002286632    5.309    0.812
        84  -9.9895    250.6901     82.1680   3.5280867588e+01   1.4549340315e+01    0.1640413   0.09669612 -33.01            0    1.555    0.357
        85 -12.5123     48.2001     85.8436   8.3367102074e+01   5.4879438496e+01    0.4031723    0.3143804  84.27  0.001564806    1.591    0.372
        86 -11.8015    103.1165     60.8345   5.5962827935e+01   5.0470949796e+01    0.4146144    0.2907746  61.25  0.001106305    1.552    0.356
        87 -13.0793     96.0250     70.8093   6.1459035952e+01   5.0083371335e+01    0.8105938    0.5212634 -45.44  0.001732047    1.564    0.361
        88 -11.3472     98.0517     80.9955   6.4034059467e+01   4.7571677894e+01    0.3309398    0.2926372 -26.03 0.0006453399    1.201    0.168
        89 -12.3093    103.3711     75.8541   6.0805756888e+01   4.7527683932e+01    0.5754774    0.3784547  34.37  0.001669258    1.691    0.408
        90 -12.5136     93.7978     60.6265   5.8743799593e+01   5.2512392170e+01    0.5756251    0.4379573  88.28  0.001484659    1.861    0.463
        91 -10.8192     90.7933     55.2064   5.7794068481e+01   5.4132090824e+01    0.3503004    0.2032865  51.73  0.001166015    1.752    0.429
        92 -11.3899     18.9565     81.2980   9.4450488083e+01   5.8980066271e+01    0.2384793    0.2262807 -52.37 0.0002804243    1.082    0.075
        93 -11.7445    112.0899    101.1570   6.5620836536e+01   4.0281252421e+01    0.2334965     0.213364 -10.94  0.000488456    1.230    0.187
        94 -13.9583     41.1374     76.9021   8.3942871728e+01   5.7868613728e+01     1.261822    0.6828555 -30.83  0.002179427    2.304    0.566
        95 -13.6342     54.5502     72.9842   7.7248220702e+01   5.7006675836e+01      1.20694    0.6390753 -69.14  0.004671558    2.829    0.647
        96 -12.1735     64.7941     75.0881   7.3820613266e+01   5.4973582169e+01    0.4460088    0.2559538  26.81  0.001444008    1.990    0.498
        97 -11.7604     60.5937     71.7106   7.4423476776e+01   5.6383594241e+01    0.3133759    0.2534869 -13.48 0.0009861008    1.373    0.272
        98 -11.9467     94.2234    247.3019   9.4997047217e+01   1.0795326947e+01    0.3625596    0.1896014  58.57  0.001599059    2.193    0.544
        99 -12.2867     62.9846     44.7363   6.3912360048e+01   6.1383831647e+01    0.7286627    0.4951944 -69.46  0.003332074    2.516    0.603
       100 -12.2849     41.1144     39.5407   7.1583739577e+01   6.5782649718e+01    0.5703754    0.3723099 -49.65  0.003087179    1.598    0.374
       101 -10.3942    227.4604    242.5003   6.8566924495e+01  -5.9191817308e+00    0.1113786   0.08427099   1.18 0.0001548437    1.005    0.005
       102 -13.3344     35.2897     68.9153   8.4313477032e+01   6.0383891772e+01    0.6699245      0.60097  17.06  0.002182983    1.187    0.157
       103 -11.7829    153.5880    249.4329   8.3141263277e+01   2.4211348630e+00    0.4603473    0.1907298  22.40  0.001939357    3.015    0.668
       104 -14.4840      9.7239     67.8609   9.5818109931e+01   6.2828551368e+01     1.257333     1.157799 -87.02  0.006704416    1.196    0.164
       105 -13.8823     51.9696    233.7630   1.0275550519e+02   1.8701536992e+01    0.9218774    0.3562554  39.42  0.004489406    2.009    0.502
       106 -11.6459     11.6324    248.3971   1.1171703521e+02   2.0185567004e+01    0.2843253    0.2288558  81.72  0.002181783    1.241    0.194
       107 -11.2969    169.7188    234.4293   7.7938319688e+01   2.5422910268e+00    0.2333472    0.1003487  37.31 0.0007345603    2.057    0.514
       108 -10.3065    150.9763    234.7547   8.1746203011e+01   5.1149867083e+00     0.164761   0.09127381  32.38 0.0002278117    1.546    0.353
       109 -12.2266    104.7433    249.5746   9.3045781162e+01   8.9992184168e+00    0.4923722    0.2054873  32.48    0.0023792    2.024    0.506
       110 -11.4180    159.9894    219.7636   7.7755317584e+01   6.3387811870e+00    0.1993677    0.1805583 -24.92 0.0002595768    1.185    0.156
       111 -11.7906    231.3239     79.6212   3.6920224195e+01   1.8496400135e+01    0.2996866    0.2091104 -58.79  0.001118473    1.359    0.264
       112 -11.2440    155.5312     77.6386   4.8313652618e+01   3.5307341897e+01    0.5296097    0.2840466  53.49  0.002092148    1.877    0.467
       113 -12.2438     87.6785     73.4624   6.5039936281e+01   5.1226196384e+01    0.4724262    0.3307345  27.54 0.0005128731    1.630    0.386
       114 -13.3729      4.2078     53.2240   9.5269724699e+01   6.6496481089e+01    0.8811386    0.6633211 -65.91  0.005566716    1.246    0.197
       115 -10.8206     52.5122    217.4964   1.0136914344e+02   2.1994962253e+01    0.1271289    0.1059195  59.57 4.582387e-05    1.010    0.010
       116 -11.4012    174.7869     90.9275   4.8122001303e+01   2.8481086690e+01    0.3975842    0.2448748 -53.13  0.001796102    1.654    0.395
       117 -10.6384     78.8086     72.1292   6.7682004570e+01   5.3191514365e+01    0.2139302    0.2001513  80.08 0.0004901008    1.193    0.162
       118 -11.3072     33.3292    214.4733   1.0545986610e+02   2.4834952166e+01    0.2912638    0.1365156 -74.32  0.001475945    2.101    0.524
       119 -11.7802    107.1153     65.2317   5.6274307381e+01   4.8780884182e+01    0.3426333    0.2336057 -53.03  0.001198189    1.594    0.373
       120 -11.5590     52.9767     56.0617   7.2393079144e+01   6.0859315709e+01    0.3916714    0.3121658 -28.90  0.001240915    1.224    0.183
       121 -11.0261     60.6809     63.3199   7.1671909784e+01   5.8168082374e+01    0.3231003    0.2180398 -50.65  0.001217046    1.477    0.323
       122 -12.3266     57.9418     59.9321   7.1641061277e+01   5.9304445976e+01    0.8258482    0.3510997 -51.26  0.003312895    2.388    0.581
       123 -13.2115     78.9110     59.6637   6.3434022592e+01   5.5688163569e+01    0.5720511    0.4744781  56.09  0.001952785    1.320    0.242
       124 -12.7079     82.7175     58.2968   6.1607020605e+01   5.5208268396e+01    0.4128902     0.338548 -66.91 0.0001991539    1.474    0.321
       125 -11.8055    126.9441     59.0984   4.9055267414e+01   4.5317314805e+01    0.5288185    0.3763983  41.19  0.002122871    1.503    0.334
       126 -10.9164    238.5753     52.7801   3.0314290059e+01   2.0979729848e+01    0.3328578    0.2414765  -4.09  0.001377835    2.326    0.570
       127 -11.2375    100.2402     54.0843   5.4468271341e+01   5.2299488349e+01    0.5673689     0.251719  46.95  0.002236884    2.183    0.542
       128 -11.1580     92.3321     35.1579   4.9738997750e+01   5.7047935704e+01    0.3403545    0.2812891  50.10 0.0007117901    1.142    0.125
       129 -11.5856     82.4047     35.2460   5.2887156206e+01   5.9173326860e+01    0.4637576    0.2931072 -54.61 0.0003434311    2.090    0.521
       130 -11.9517     87.2126     30.7152   4.9499011752e+01   5.8797487821e+01    0.5028784    0.4234514  78.44  0.001891026    1.394    0.283
       131 -12.3634     82.6444     48.6463   5.8085172231e+01   5.6965973990e+01     1.123224    0.3824408  46.46  0.003437404    2.848    0.649
       132 -12.8039     75.5850     42.0479   5.8000549318e+01   5.9492307099e+01    0.5547027     0.435623 -15.07  0.001637463    1.390    0.281
       133 -11.2174     27.4980     45.5088   8.0743891130e+01   6.6293072651e+01    0.4121371    0.1852459 -60.20  0.001739547    2.515    0.602
       134 -11.1211     23.4687     44.1232   8.2376712550e+01   6.6988930846e+01    0.4260985    0.3319457  19.52  0.002643447    1.339    0.253
       135 -10.8789     99.9802     45.9002   5.1589520058e+01   5.3716661122e+01    0.3278753    0.2771022  31.28  0.001740453    1.220    0.181
       136 -13.2965     80.1219     41.7611   5.6283660471e+01   5.8630978335e+01    0.6256076    0.4203199  44.25  0.003200903    1.428    0.300
       137 -10.4534     35.9353     43.2034   7.5591264100e+01   6.5773086562e+01    0.1801692    0.1759453  40.07 0.0007466965    1.251    0.201
       138 -11.7959     13.0008    213.5765   1.0989040859e+02   2.7080674927e+01    0.3281717    0.2337859  81.24  0.002151021    1.204    0.169
       139 -10.5861    115.9842     38.9948   4.4878712288e+01   5.1059607836e+01    0.3610394    0.1602428  56.52   0.00101783    2.090    0.521
       140 -10.4333    109.6253     37.8400   4.6021085614e+01   5.2723839971e+01    0.3211837     0.181834 -41.69  0.001096552    1.859    0.462
       141 -10.3275    247.8365     50.6436   2.9030312537e+01   1.9504558869e+01    0.1589212    0.1270368 -70.69 0.0006570864    1.156    0.135
       142 -11.3532    222.3226     33.8852   2.7650488734e+01   2.6754451643e+01    0.2565583    0.2415114  71.83  0.001120008    1.322    0.244
       143 -10.0810    122.0076     32.9133   4.1371634565e+01   5.0449188555e+01    0.2134858    0.1591994  29.71 0.0004845341    1.594    0.373
       144  -9.6514    226.4407    119.1676   4.6167478749e+01   1.3054753976e+01      0.17047     0.109558 -47.20 0.0008973506    1.425    0.298
       145  -9.8455     96.8194     32.4393   4.7376023781e+01   5.6428506999e+01    0.2009819    0.1153169  43.44 0.0009297334    1.703    0.413
       146 -11.7738    215.4492     28.1705   2.6958855294e+01   2.8922365288e+01    0.4223681    0.2721763 -36.78  0.002441829    1.487    0.327
       147 -10.4014    202.8006    115.9612   4.9193756539e+01   1.8036413305e+01    0.3004331    0.1930666  75.02  0.001344292    2.400    0.583
       148 -11.5449    131.8150     34.1536   3.9781091590e+01   4.7901256020e+01    0.3243947    0.2532055 -79.83  0.000621621    1.387    0.279
       149 -10.9883    176.1575     25.2115   3.0246760384e+01   3.8208146874e+01    0.2868228    0.1923033 -53.67 0.0006008128    1.399    0.285
       150 -11.7166     61.6494     93.2511   8.0091998144e+01   5.1241020718e+01    0.2539952    0.2382314   8.64 0.0005195495    1.133    0.117
       151 -10.5340    160.0704     22.7654   3.1587588445e+01   4.2373402348e+01    0.3764032     0.192189 -58.64  0.001187932    2.181    0.541
       152 -10.0702    163.5148     21.4460   3.0752234769e+01   4.1687693452e+01    0.1870527      0.15064  46.46 0.0006113484    1.430    0.301
       153  -9.6174    111.5157     24.4705   4.0626499822e+01   5.4031564148e+01    0.1361053    0.1248489  61.83 0.0001992983    1.002    0.002
       154  -9.7341    181.7486    115.4059   5.2849156105e+01   2.2391567582e+01    0.1968434    0.1373737  37.60 0.0009415298    1.630    0.387
       155 -11.0133     97.6152     21.8028   4.2934940426e+01   5.7609418230e+01    0.2985592    0.2062209 -36.94   0.00132427    1.561    0.360
       156 -12.2386    131.3760    111.8063   6.3185549267e+01   3.3866535603e+01    0.4708384    0.3387859  47.10   0.00219136    1.410    0.291
       157 -10.1575    217.1432    109.5938   4.5474874115e+01   1.6375850421e+01    0.4107927    0.1538818 -43.61  0.001636161    2.347    0.574
       158 -11.0374    197.5042    109.1663   4.8531182005e+01   2.0311651282e+01    0.5448289    0.3408509 -79.24   0.00217986    2.935    0.659
       159  -9.6355     78.1243     17.3976   4.6608804382e+01   6.2461728883e+01    0.1685064    0.1197841  68.62 0.0003371933    1.612    0.380
       160 -11.5654     65.4939     16.9957   5.0726268156e+01   6.5114903987e+01    0.2895154     0.188745  32.59  0.001570944    1.497    0.332
       161 -10.6803     29.9412    107.0072   9.4846807057e+01   5.1621500027e+01    0.2007485    0.1813004 -66.16 0.0002911364    1.019    0.019
       162 -11.3043    134.9045    105.1784   6.0571802257e+01   3.4546344828e+01    0.2747615      0.25889  -5.72 0.0003417076    1.174    0.148
       163  -9.9964    139.2108     16.9013   3.2785893448e+01   4.8141941405e+01    0.2100168    0.1629834 -74.13 0.0005770304    1.301    0.231
       164 -10.4934    208.5152    104.3393   4.5617492515e+01   1.8950399328e+01    0.3005898    0.1882523 -63.05 0.0009563432    1.986    0.497
       165 -10.9290    165.5063    103.9910   5.3282096664e+01   2.8068437612e+01    0.2943523    0.2092136 -57.30 0.0008774882    1.477    0.323
       166 -10.7457    144.4652    103.1468   5.7710962273e+01   3.2879356226e+01     0.320505    0.1994059  34.05  0.001292251    1.965    0.491
       167  -9.7817     29.3113    103.3243   9.4443545163e+01   5.2618111453e+01      0.14514   0.09249212 -39.56 0.0003339779    1.657    0.396
       168 -12.3938    200.7473     98.3810   4.5464693435e+01   2.1556227151e+01    0.5119822    0.3390445 -47.88  0.001743691    1.386    0.279
       169 -11.3674     69.7909    101.9958   7.9350191893e+01   4.7873537340e+01    0.2331056    0.2154132  32.34 0.0002789211    1.135    0.119
       170  -9.5160      4.4902     17.0013   8.3257466906e+01   7.3849972881e+01    0.1593241    0.1001212 -48.34 3.448669e-05    1.444    0.307
       171 -11.2164     50.7463    102.0202   8.6199180441e+01   5.0580778016e+01    0.2272344    0.1850088 -37.46 0.0003617097    1.268    0.211
       172 -12.0425     54.3243     99.3823   8.4288374118e+01   5.0770777467e+01    0.3353911    0.2354381  25.97  0.001103869    1.554    0.356
       173 -12.8418    129.7190     99.2974   6.0317954193e+01   3.6930064471e+01    0.6979988    0.4318909 -12.24  0.002288753    3.650    0.726
