#   1 NUMBER                 Running object number                                     
#   2 MAG_AUTO               Kron-like elliptical aperture magnitude                    [mag]
#   3 X_IMAGE                Object position along x                                    [pixel]
#   4 Y_IMAGE                Object position along y                                    [pixel]
#   5 X_WORLD                Barycenter position along world x axis                     [deg]
#   6 Y_WORLD                Barycenter position along world y axis                     [deg]
#   7 A_WORLD                Profile RMS along major axis (world units)                 [deg]
#   8 B_WORLD                Profile RMS along minor axis (world units)                 [deg]
#   9 THETA_WORLD            Position angle (CCW/world-x)                               [deg]
#  10 FWHM_WORLD             FWHM assuming a gaussian core                              [deg]
#  11 ELONGATION             A_IMAGE/B_IMAGE                                           
#  12 ELLIPTICITY            1 - B_IMAGE/A_IMAGE                                       
         1 -14.4811    155.9470     57.1024   8.0753355804e+01   3.8972980390e+01     1.472376     1.154655  51.78  0.003504676    1.181    0.153
         2 -14.9014    168.2283     42.2536   7.4093449655e+01   3.8035417897e+01     1.257522     1.108376  41.51  0.006076301    1.203    0.169
         3 -14.9926    187.1786      9.1937   6.2505941755e+01   3.7166620813e+01     2.231133    0.9188758  64.95  0.007024184    1.967    0.491
         4  -8.0987     15.3464    246.4455   1.4936095940e+02   2.1848791442e+01    0.1109851   0.07212588  74.97 0.0007856446    1.102    0.093
         5 -19.9576     65.7829    171.0110   1.3216586989e+02   3.2026734244e+01     18.73071      6.58467 -66.05   0.07063305    2.751    0.637
         6 -14.2811    169.3228    182.1101   1.0916724035e+02   1.0664009310e+01     1.233183     0.637358 -45.22  0.005015068    2.046    0.511
         7 -13.2082    172.4992    188.9780   1.0981538051e+02   8.6016655631e+00    0.5611454    0.4160128  16.23  0.002028817    1.638    0.390
         8 -13.7243    176.1708    186.6503   1.0854076951e+02   8.3274492021e+00     0.773865    0.5899764 -23.81  0.003792433    1.537    0.349
         9 -12.7116    164.2667    187.2219   1.1132176824e+02   1.0634759296e+01    0.5470057    0.3977756 -16.54  0.002489989    1.893    0.472
        10 -11.6839    152.9466    185.6008   1.1360039697e+02   1.3275225268e+01    0.3191464    0.2553677 -82.42  0.001567306    1.526    0.344
        11 -11.1645    125.0919    243.7578   1.2886041482e+02   6.8009001783e+00    0.1834694    0.1556538 -73.22 0.0005816922    1.344    0.256
        12 -11.2139     12.5871    243.7795   1.4966272038e+02   2.2648624407e+01    0.1044588   0.07826062  72.62 0.0003969275    1.125    0.111
        13  -9.9418      1.8311    182.3048   1.4768674133e+02   3.6297575515e+01    0.1659546    0.1116653  63.12   0.00111929    1.370    0.270
        14 -12.4020    142.2746    175.4180   1.1413614775e+02   1.7675841808e+01     1.032277     0.717241 -21.74  0.004379656    2.149    0.535
        15 -13.4892    137.8246    171.1229   1.1436066245e+02   1.9548205900e+01     0.831117    0.4711888  41.60  0.002786888    1.706    0.414
        16 -12.7689    204.6217    176.4462   1.0032859226e+02   4.5495466144e+00    0.5214287    0.4342107 -57.40  0.001552761    1.399    0.285
        17 -12.7550    203.4861    166.1474   9.8364776502e+01   6.7782002227e+00    0.6738983    0.5280832 -21.05  0.002360658    1.382    0.276
        18 -10.9310    198.5292    177.5049   1.0182427823e+02   5.5793477036e+00    0.4037584     0.288751 -87.22   0.00168043    2.544    0.607
        19 -11.7726    190.2158    156.1373   9.8970633070e+01   1.1620880901e+01    0.6138709    0.5194336 -78.01    0.0028562    1.437    0.304
        20 -12.7406    194.0053    166.9443   1.0053713267e+02   8.6067451954e+00    0.5881663    0.3762002 -50.22 0.0008111102    1.693    0.409
        21 -11.5377    190.9151    161.2749   9.9962592922e+01   1.0415072858e+01    0.3989335    0.3427002  55.68   0.00125367    1.220    0.180
        22 -11.0427     13.6810    239.7565   1.4925703980e+02   2.3301815668e+01    0.2239829    0.0797636 -80.44  0.001159435    2.467    0.595
        23 -11.9219      8.7216    175.4591   1.4572952148e+02   3.7236766448e+01    0.2065984    0.1689249  61.10 0.0007438804    1.276    0.216
        24 -12.2983    126.5089    173.0326   1.1749589225e+02   2.1356604694e+01    0.6012284     0.341227  61.48  0.002339024    2.252    0.556
        25 -11.3921     34.4991    169.0428   1.3937950402e+02   3.6274711274e+01    0.3758962    0.2244623 -89.88  0.001586855    1.609    0.379
        26 -11.4284    152.8799    192.8713   1.1498267903e+02   1.1742468389e+01    0.3437901    0.2738017  73.31  0.001192884    1.459    0.315
        27 -11.8204    229.9839    166.4467   9.3180432955e+01   1.4041707098e+00    0.3782614    0.1978139 -52.04    0.0015355    2.396    0.583
        28 -10.4101     24.0010    165.8705   1.4145661273e+02   3.8053131743e+01    0.2219971    0.1725616   5.19 0.0009367164    1.915    0.478
        29 -10.0950      1.3056    165.8303   1.4650334932e+02   3.9965881721e+01    0.1412979   0.08055963 -72.72 0.0001610853    1.364    0.267
        30 -10.8357    141.4914    164.4530   1.1211063414e+02   2.0318678826e+01    0.2510363    0.1513234 -62.39 0.0005274806    1.967    0.492
        31 -10.4130     21.7545    240.3945   1.4794185563e+02   2.2302203488e+01    0.1228705    0.0759472 -80.91  0.000382949    1.421    0.296
        32 -11.6484    122.1975    165.4404   1.1709756361e+02   2.3961714001e+01    0.3053273    0.2519154  57.00  0.000337274    1.189    0.159
        33 -14.3566    133.9367    145.6577   1.0994221411e+02   2.6231441767e+01      1.66812    0.5844818 -56.78  0.004706543    3.849    0.740
        34 -13.7395    135.8631    128.1053   1.0531167055e+02   2.9862979556e+01     2.330927    0.3825786 -50.14  0.004380601    8.197    0.878
        35 -11.8378    134.7025    109.6519   1.0089370468e+02   3.4215243235e+01     1.133783    0.1581991 -44.76  0.002271603    7.234    0.862
        36 -10.8196     16.2746    156.5729   1.4226780078e+02   4.0878391537e+01    0.2281038    0.1785466 -27.42 0.0007893957    1.770    0.435
        37 -10.7556    131.2752    237.6265   1.2680650715e+02   6.8625523131e+00    0.1575986    0.1453208 -62.90 0.0002516911    1.281    0.220
        38 -10.9266    174.5557    149.0285   1.0083974806e+02   1.6582751377e+01    0.2919839    0.2685999  66.19 0.0007440269    1.128    0.113
        39 -13.1186    144.3001    145.9628   1.0738457262e+02   2.3957380973e+01    0.6684533    0.4935133 -86.94  0.002862348    1.848    0.459
        40 -12.9825    141.8925    138.7887   1.0632851196e+02   2.6119029170e+01    0.4963943    0.3960359 -69.09  0.002317206    1.407    0.289
        41 -10.0837      4.4546    143.0246   1.4366497746e+02   4.4864646246e+01    0.2058637    0.1507374 -33.07  0.001355016    1.748    0.428
        42 -12.5684      8.0342    138.8819   1.4234045417e+02   4.5558413172e+01    0.4333676    0.2986284  33.40  0.001977779    1.753    0.429
        43  -9.9329    143.1398    226.8177   1.2279666238e+02   6.7786969991e+00    0.1817694    0.1464062  29.15 0.0002435129    1.298    0.229
        44 -11.4939     19.7513    222.8329   1.4715538975e+02   2.6012711084e+01    0.2390843    0.1383795 -63.42   0.00148445    1.840    0.457
        45 -12.3918      4.7601    120.4718   1.4100174806e+02   4.9936461784e+01    0.3650239    0.2327375 -14.31  0.002210718    2.182    0.542
        46 -11.3005      7.7127    220.9905   1.4917086035e+02   2.7616676872e+01     0.104725   0.07409885  82.87 0.0004858465    1.039    0.037
        47 -12.0321    207.7762    210.9949   1.0654101699e+02  -2.3120040400e+00    0.2599002    0.1907128  34.87  0.001272904    1.244    0.196
        48 -11.7354    160.5962    127.8668   9.9053131148e+01   2.4357463856e+01    0.4441591     0.333379 -62.60  0.001855168    1.511    0.338
        49 -10.5782    168.2883    113.2704   9.3545597585e+01   2.5652654794e+01    0.3273684    0.2315283 -84.86  0.001312875    2.087    0.521
        50  99.0000    139.4437    248.9592   1.2666246390e+02   3.4192808998e+00    0.3471179    0.2163274 -60.44  0.001892401    1.986    0.496
        51 -12.0150      4.3051    112.1479   1.4003554135e+02   5.1822629321e+01    0.3879574    0.2502217 -11.97  0.002401764    2.078    0.519
        52 -13.5866    117.1692    109.5714   1.0566156946e+02   3.7967583375e+01    0.6374976    0.3788668  42.15  0.002460719    1.694    0.410
        53 -12.0365     14.9324    109.8460   1.3663265245e+02   5.1674766538e+01    0.3776193    0.1801377   5.80  0.001752136    3.154    0.683
        54 -12.7096    105.9206    204.0162   1.2754248763e+02   1.8113637006e+01    0.4792857    0.3533994 -79.55  0.001555427    1.430    0.301
        55 -10.9999    205.2203    110.6081   8.5132150732e+01   1.7361740577e+01     0.367869    0.2902284  22.70  0.001071061    1.611    0.379
        56 -10.7876    169.3920    202.1983   1.1300662484e+02   6.5803290183e+00    0.1957413      0.14074 -60.70 0.0009473785    1.694    0.410
        57 -10.3896    153.2542    200.6502   1.1630695695e+02   1.0051180153e+01    0.2578863    0.2037325 -56.66  0.001340444    1.398    0.285
        58 -10.7693    146.6499     81.0114   8.9849200658e+01   3.7210404872e+01    0.2130389    0.2031512 -27.61 0.0005459627    1.098    0.089
        59 -10.9170    140.4530    199.3611   1.1897198989e+02   1.2802442562e+01      0.42604    0.2852748  26.14  0.001953841    1.793    0.442
        60 -10.5556    112.6893    196.5233   1.2486902733e+02   1.8585590489e+01    0.4187478    0.2737277   0.24  0.001479606    4.019    0.751
        61  -9.8400    159.8924    247.1729   1.2232935428e+02   1.7726145440e-01    0.1664117    0.1438837   9.01 0.0007177871    1.335    0.251
        62 -10.6540    133.7085    246.6275   1.2750244377e+02   4.8117888488e+00    0.1309906    0.1157344 -82.94 0.0004935358    1.291    0.225
        63 -13.1484    172.3893     34.7096   7.1283964164e+01   3.7970186644e+01     0.435635    0.3875149  48.83 0.0009060656    1.172    0.147
        64 -12.4151    180.4282    193.5044   1.0895087929e+02   6.1041215515e+00    0.3832166    0.3001882 -84.10  0.001618209    1.829    0.453
        65 -10.7479     13.5423     59.8985   1.2718498893e+02   6.2293344091e+01    0.1773577    0.1583689  -3.12 0.0004091789    1.284    0.221
        66 -11.2544    168.0643    176.5198   1.0831855843e+02   1.2099607854e+01    0.3351927    0.2601446 -78.17 0.0004108219    1.684    0.406
        67 -11.3912    187.8630     30.6534   6.7815636092e+01   3.4604143079e+01    0.2184455    0.2002134  -9.04 0.0009040112    1.382    0.277
        68 -10.2676    134.1972     29.8921   7.7107257134e+01   4.7907818660e+01    0.1996704    0.1763086  77.93  0.000557358    1.220    0.180
